!@!!GADDS PLOTSO FILE: Chi integration type
!@!!Title/SampleName: LiMn2O4 Li1 to Li0 to Li0.8
!@!!Comment: ?. Li1 to Li0.6 map
!@!!User: Bruker Instrument Administrator
!@!!Site: University of Illinois Chicago
!@!!Frame: map-0_01_000.gfrm
!@!!Wavelengths    1.54184   1.54056   1.54439
!@!!Frame angles: 2Theta: 41.250 Omega: 30.000 Phi: 0.000 Chi: 90.000
!@!!Integration range: 2Theta: 32.500 to 52.500  Gamma: -105.000 to -75.000
!@!!Integration method: bin normalized
!@!N
!@!SS
!@!M
!@!L 0.0 0.0 0.0 0.0
!@!XDegrees
!@!YCounts
32.500 1.583208
32.505 0.987564
32.510 0.706231
32.515 1.190305
32.520 1.752848
32.525 1.925362
32.530 1.510374
32.535 0.87702
32.540 0.953879
32.545 0.616021
32.550 0.665493
32.555 0.692551
32.560 0.937606
32.565 1.256096
32.570 1.429997
32.575 1.565791
32.580 1.29566
32.585 1.109405
32.590 0.755009
32.595 0.783911
32.600 0.90651
32.605 1.151262
32.610 1.492328
32.615 1.742474
32.620 1.668754
32.625 1.45765
32.630 1.109068
32.635 0.735592
32.640 0.804259
32.645 0.673328
32.650 0.874463
32.655 0.903812
32.660 0.837008
32.665 1.149738
32.670 1.176782
32.675 1.269882
32.680 1.41846
32.685 1.295402
32.690 1.29042
32.695 0.752295
32.700 0.435541
32.705 0.441731
32.710 0.346125
32.715 0.46868
32.720 0.399359
32.725 0.848744
32.730 1.143665
32.735 1.474103
32.740 1.462165
32.745 1.246947
32.750 1.093634
32.755 0.829335
32.760 1.33798
32.765 1.574424
32.770 1.563046
32.775 1.231308
32.780 0.882793
32.785 1.221903
32.790 1.785356
32.795 2.271585
32.800 1.941928
32.805 2.10403
32.810 2.090696
32.815 2.358773
32.820 2.963953
32.825 2.550143
32.830 2.499202
32.835 2.152742
32.840 1.637594
32.845 1.425677
32.850 0.772446
32.855 1.097924
32.860 1.056099
32.865 1.756325
32.870 1.887962
32.875 1.606217
32.880 1.596346
32.885 1.30126
32.890 1.777162
32.895 1.825226
32.900 2.241485
32.905 2.073977
32.910 1.926619
32.915 1.724352
32.920 1.458273
32.925 2.030168
32.930 2.067015
32.935 1.789932
32.940 1.131882
32.945 0.611693
32.950 0.499778
32.955 0.688964
32.960 0.840969
32.965 1.090938
32.970 1.09474
32.975 1.52827
32.980 1.289559
32.985 1.480092
32.990 1.189984
32.995 1.292205
33.000 1.450915
33.005 1.453253
33.010 1.188787
33.015 0.97311
33.020 0.890084
33.025 0.776755
33.030 0.927192
33.035 1.158679
33.040 1.598374
33.045 2.18545
33.050 1.961322
33.055 2.006221
33.060 1.661953
33.065 1.39237
33.070 1.033577
33.075 0.925786
33.080 1.237896
33.085 1.803506
33.090 2.127706
33.095 2.06199
33.100 1.887386
33.105 1.780813
33.110 1.634138
33.115 1.723473
33.120 1.665218
33.125 1.639569
33.130 1.717629
33.135 1.348153
33.140 1.141488
33.145 0.853676
33.150 0.788431
33.155 0.657373
33.160 0.654172
33.165 0.440915
33.170 0.6752
33.175 0.908623
33.180 1.032733
33.185 1.044962
33.190 0.662673
33.195 0.414504
33.200 0.477445
33.205 0.643351
33.210 1.046078
33.215 1.651551
33.220 1.716538
33.225 1.791866
33.230 1.449608
33.235 1.227449
33.240 1.105633
33.245 0.789754
33.250 1.042733
33.255 1.366391
33.260 1.295494
33.265 1.073314
33.270 0.798877
33.275 1.111626
33.280 1.3985
33.285 1.349716
33.290 1.059264
33.295 0.576362
33.300 0.570313
33.305 1.117485
33.310 1.40246
33.315 1.863206
33.320 1.891179
33.325 1.964193
33.330 1.65805
33.335 1.00705
33.340 0.668766
33.345 0.563013
33.350 0.613191
33.355 0.694019
33.360 0.648063
33.365 0.820006
33.370 0.94902
33.375 1.048941
33.380 1.522027
33.385 1.419907
33.390 1.421823
33.395 1.266243
33.400 1.163307
33.405 0.954189
33.410 1.329776
33.415 1.049248
33.420 1.257561
33.425 0.977724
33.430 0.87766
33.435 0.97255
33.440 1.566976
33.445 1.548741
33.450 1.745829
33.455 1.256957
33.460 0.750524
33.465 0.71218
33.470 0.497546
33.475 0.601495
33.480 0.750591
33.485 0.753155
33.490 0.923695
33.495 1.032677
33.500 1.004902
33.505 1.522741
33.510 1.364081
33.515 1.73389
33.520 1.153142
33.525 1.369141
33.530 1.548655
33.535 1.565426
33.540 1.644389
33.545 1.261065
33.550 1.927826
33.555 2.098876
33.560 2.194084
33.565 1.548717
33.570 1.20323
33.575 1.140885
33.580 1.102559
33.585 1.015479
33.590 1.318544
33.595 1.16181
33.600 1.425114
33.605 1.462326
33.610 1.24113
33.615 0.991446
33.620 0.973734
33.625 1.049976
33.630 1.441569
33.635 1.278404
33.640 1.096904
33.645 0.885132
33.650 1.2431
33.655 1.641323
33.660 2.00987
33.665 2.05568
33.670 1.537557
33.675 1.518791
33.680 1.28683
33.685 1.313185
33.690 0.997794
33.695 0.626612
33.700 0.455457
33.705 0.533839
33.710 0.741776
33.715 1.329633
33.720 1.472798
33.725 1.629602
33.730 1.296163
33.735 1.027196
33.740 0.925382
33.745 0.850908
33.750 0.874788
33.755 0.986182
33.760 0.887066
33.765 0.786597
33.770 0.67806
33.775 0.749269
33.780 1.01914
33.785 1.223817
33.790 1.316324
33.795 1.498335
33.800 1.530606
33.805 1.457754
33.810 1.241186
33.815 1.120625
33.820 0.700876
33.825 0.662975
33.830 0.417017
33.835 0.501954
33.840 0.88545
33.845 1.079359
33.850 1.235808
33.855 1.208209
33.860 1.238112
33.865 1.466143
33.870 1.360054
33.875 1.446758
33.880 1.241832
33.885 1.45336
33.890 1.721503
33.895 1.581097
33.900 1.179522
33.905 0.9262
33.910 0.958539
33.915 1.265292
33.920 1.094952
33.925 0.945713
33.930 0.511343
33.935 0.69553
33.940 0.679216
33.945 0.752418
33.950 1.370033
33.955 1.101115
33.960 1.132156
33.965 1.095975
33.970 1.267632
33.975 1.255947
33.980 0.923915
33.985 0.245387
33.990 0.260499
33.995 0.591937
34.000 0.929307
34.005 1.031467
34.010 0.895627
34.015 0.521278
34.020 0.551298
34.025 0.673193
34.030 0.673115
34.035 0.666129
34.040 0.308068
34.045 0.831494
34.050 1.61146
34.055 2.033951
34.060 1.967355
34.065 1.249213
34.070 0.832353
34.075 0.618207
34.080 0.854898
34.085 1.256303
34.090 1.714624
34.095 1.992468
34.100 1.684033
34.105 1.492127
34.110 1.075948
34.115 1.200467
34.120 1.087527
34.125 1.267799
34.130 0.979058
34.135 1.30913
34.140 1.316543
34.145 1.370272
34.150 1.321444
34.155 1.243937
34.160 1.325934
34.165 1.204642
34.170 1.092343
34.175 1.015138
34.180 1.117565
34.185 1.037209
34.190 0.848929
34.195 1.020244
34.200 1.151873
34.205 1.289812
34.210 1.287339
34.215 1.465173
34.220 1.808024
34.225 1.792909
34.230 1.743288
34.235 1.470575
34.240 1.585306
34.245 1.433549
34.250 1.390767
34.255 1.627767
34.260 1.73627
34.265 1.864437
34.270 1.556557
34.275 1.005361
34.280 0.803879
34.285 0.379025
34.290 0.374529
34.295 0.457505
34.300 1.069912
34.305 1.243015
34.310 1.385015
34.315 1.201001
34.320 0.760823
34.325 0.748446
34.330 0.590526
34.335 0.484384
34.340 0.466704
34.345 0.602434
34.350 0.888615
34.355 1.094014
34.360 1.901985
34.365 2.116469
34.370 2.279552
34.375 1.779225
34.380 1.398463
34.385 1.482943
34.390 1.490004
34.395 1.215802
34.400 0.927277
34.405 0.444569
34.410 0.522583
34.415 0.405682
34.420 0.623753
34.425 0.760422
34.430 1.294901
34.435 1.486469
34.440 1.356405
34.445 1.047792
34.450 1.155571
34.455 1.34963
34.460 1.717824
34.465 1.362995
34.470 1.267234
34.475 1.2802
34.480 0.916667
34.485 1.156561
34.490 1.151658
34.495 1.629022
34.500 1.744725
34.505 1.270173
34.510 1.191974
34.515 0.935995
34.520 1.077981
34.525 1.288332
34.530 0.866698
34.535 0.949799
34.540 1.087591
34.545 1.319485
34.550 1.253221
34.555 0.960079
34.560 0.686063
34.565 0.554093
34.570 0.675171
34.575 0.739677
34.580 1.036755
34.585 1.314161
34.590 1.073552
34.595 1.117697
34.600 1.031815
34.605 1.362294
34.610 1.848757
34.615 1.670516
34.620 1.187125
34.625 0.91906
34.630 0.982034
34.635 1.250589
34.640 1.101315
34.645 0.862799
34.650 0.827572
34.655 1.128104
34.660 1.194746
34.665 1.178692
34.670 1.230475
34.675 1.353548
34.680 1.42206
34.685 1.175806
34.690 1.361741
34.695 1.238436
34.700 1.392869
34.705 1.222372
34.710 1.109025
34.715 1.160625
34.720 0.998131
34.725 0.973717
34.730 1.110885
34.735 1.202186
34.740 1.132404
34.745 1.432777
34.750 1.11015
34.755 1.339437
34.760 0.992855
34.765 1.051214
34.770 1.278047
34.775 1.326223
34.780 1.318376
34.785 1.117702
34.790 0.99667
34.795 0.870229
34.800 0.746987
34.805 1.042951
34.810 1.894056
34.815 2.567692
34.820 2.626964
34.825 1.838983
34.830 0.98613
34.835 0.766174
34.840 0.786678
34.845 1.227863
34.850 0.958908
34.855 1.377182
34.860 1.363212
34.865 1.763821
34.870 1.711285
34.875 1.303974
34.880 1.280729
34.885 1.070466
34.890 0.853232
34.895 1.202668
34.900 1.4579
34.905 1.634224
34.910 1.496131
34.915 0.756375
34.920 0.474069
34.925 0.694182
34.930 0.79903
34.935 1.060809
34.940 1.069102
34.945 1.065442
34.950 0.867717
34.955 0.758008
34.960 0.454297
34.965 0.472262
34.970 0.653488
34.975 0.864759
34.980 0.83771
34.985 0.937011
34.990 1.12581
34.995 1.41565
35.000 1.763802
35.005 1.467438
35.010 1.561654
35.015 1.243877
35.020 1.173895
35.025 1.278998
35.030 1.34208
35.035 1.67963
35.040 1.911521
35.045 2.263882
35.050 1.802397
35.055 1.853694
35.060 1.456186
35.065 1.348757
35.070 1.297774
35.075 1.497212
35.080 1.348442
35.085 1.426782
35.090 1.074177
35.095 0.900314
35.100 0.752641
35.105 1.007003
35.110 1.128362
35.115 1.367959
35.120 1.511088
35.125 1.266523
35.130 1.467761
35.135 1.172764
35.140 0.786098
35.145 0.557692
35.150 0.633877
35.155 1.039477
35.160 1.138767
35.165 1.224465
35.170 0.963193
35.175 0.950151
35.180 0.921981
35.185 0.868878
35.190 1.372491
35.195 1.599352
35.200 1.494851
35.205 1.318047
35.210 1.052625
35.215 0.939697
35.220 1.105627
35.225 0.762356
35.230 0.77882
35.235 0.771482
35.240 1.009402
35.245 1.399637
35.250 1.41416
35.255 1.344227
35.260 1.139942
35.265 1.561735
35.270 1.838333
35.275 1.961905
35.280 1.66626
35.285 1.223904
35.290 1.149442
35.295 1.580412
35.300 1.90682
35.305 1.764037
35.310 1.633485
35.315 1.363713
35.320 1.311087
35.325 1.347586
35.330 1.130688
35.335 0.970234
35.340 0.943711
35.345 0.907479
35.350 1.49369
35.355 1.871411
35.360 2.202118
35.365 1.941403
35.370 1.712101
35.375 1.368814
35.380 1.43607
35.385 1.334329
35.390 1.240822
35.395 1.195001
35.400 0.936833
35.405 1.194029
35.410 1.145944
35.415 1.095183
35.420 1.032557
35.425 0.88472
35.430 1.108332
35.435 1.342322
35.440 1.250995
35.445 1.108691
35.450 0.753532
35.455 1.014506
35.460 1.043025
35.465 1.014953
35.470 0.846534
35.475 0.861131
35.480 1.094277
35.485 1.211169
35.490 0.958804
35.495 0.69409
35.500 0.514253
35.505 0.631978
35.510 0.736569
35.515 1.250331
35.520 1.139075
35.525 1.308878
35.530 1.169935
35.535 1.239942
35.540 1.284331
35.545 1.621396
35.550 1.626541
35.555 1.664258
35.560 1.459884
35.565 1.548509
35.570 1.462205
35.575 1.468405
35.580 1.161974
35.585 1.315863
35.590 1.159826
35.595 1.083979
35.600 0.767188
35.605 0.468238
35.610 0.708103
35.615 1.065441
35.620 1.442268
35.625 1.290758
35.630 1.179507
35.635 1.215476
35.640 1.124423
35.645 1.1327
35.650 1.056552
35.655 0.913091
35.660 1.032975
35.665 0.926774
35.670 0.976669
35.675 1.195915
35.680 1.342613
35.685 1.338125
35.690 1.49583
35.695 1.138712
35.700 1.700482
35.705 1.647601
35.710 1.709294
35.715 1.552221
35.720 1.367849
35.725 1.000288
35.730 0.940038
35.735 1.062675
35.740 1.370823
35.745 1.500937
35.750 1.648982
35.755 1.891599
35.760 1.748374
35.765 1.542307
35.770 1.480787
35.775 1.820724
35.780 2.308598
35.785 2.293444
35.790 1.682392
35.795 1.746203
35.800 1.831682
35.805 1.55582
35.810 2.346453
35.815 2.078386
35.820 2.034888
35.825 1.650334
35.830 1.230153
35.835 1.557598
35.840 1.800818
35.845 1.70742
35.850 1.192133
35.855 1.142254
35.860 1.146654
35.865 1.405712
35.870 1.222646
35.875 1.090587
35.880 0.960965
35.885 1.266594
35.890 1.812996
35.895 1.787673
35.900 1.394003
35.905 0.675869
35.910 0.213581
35.915 0.60155
35.920 0.733057
35.925 0.936492
35.930 1.059148
35.935 1.314797
35.940 1.816215
35.945 1.845163
35.950 1.574734
35.955 1.219169
35.960 0.989426
35.965 0.805165
35.970 1.014088
35.975 0.837843
35.980 1.289449
35.985 1.196779
35.990 1.297876
35.995 1.110766
36.000 0.98498
36.005 0.788728
36.010 1.393659
36.015 2.03243
36.020 2.279703
36.025 2.352383
36.030 1.473286
36.035 1.338622
36.040 1.108019
36.045 1.138655
36.050 0.931267
36.055 1.121072
36.060 1.23547
36.065 1.494869
36.070 1.598308
36.075 1.227201
36.080 1.083315
36.085 1.223858
36.090 1.588359
36.095 1.857316
36.100 1.930495
36.105 1.647476
36.110 1.425698
36.115 1.5099
36.120 1.760045
36.125 1.674142
36.130 1.74367
36.135 1.520943
36.140 1.259733
36.145 1.150338
36.150 1.005742
36.155 0.926927
36.160 1.30041
36.165 1.021171
36.170 1.1541
36.175 0.881908
36.180 0.99703
36.185 1.185639
36.190 1.476109
36.195 1.895173
36.200 1.687773
36.205 1.448719
36.210 1.294039
36.215 1.27099
36.220 1.369589
36.225 1.396884
36.230 1.490091
36.235 1.594105
36.240 1.788161
36.245 1.801253
36.250 1.947188
36.255 2.370971
36.260 1.985334
36.265 2.236284
36.270 2.49353
36.275 2.202896
36.280 2.324306
36.285 2.033613
36.290 2.272654
36.295 2.340469
36.300 2.060675
36.305 1.606064
36.310 1.706506
36.315 2.121836
36.320 2.775247
36.325 3.233152
36.330 3.897009
36.335 3.710988
36.340 3.646244
36.345 3.103756
36.350 2.615518
36.355 2.587661
36.360 2.764958
36.365 2.726415
36.370 3.217602
36.375 3.546029
36.380 4.898896
36.385 5.976468
36.390 5.72782
36.395 5.971801
36.400 5.319886
36.405 5.150373
36.410 5.3355
36.415 5.698632
36.420 6.647347
36.425 7.554999
36.430 8.058702
36.435 7.679637
36.440 8.160354
36.445 7.860138
36.450 7.726482
36.455 7.547292
36.460 7.661756
36.465 8.804033
36.470 8.466532
36.475 9.275951
36.480 10.566816
36.485 12.37864
36.490 12.319174
36.495 12.045749
36.500 10.53622
36.505 8.91104
36.510 7.524059
36.515 5.607022
36.520 5.667749
36.525 6.037551
36.530 5.99371
36.535 5.492459
36.540 5.427334
36.545 6.176173
36.550 7.018809
36.555 7.460987
36.560 6.370426
36.565 5.470107
36.570 5.282722
36.575 5.548012
36.580 5.546576
36.585 5.48316
36.590 5.694483
36.595 5.882335
36.600 5.119821
36.605 4.634459
36.610 3.994364
36.615 3.767638
36.620 4.652616
36.625 4.360691
36.630 4.214193
36.635 3.411465
36.640 2.902548
36.645 3.224502
36.650 2.896257
36.655 2.457698
36.660 1.866159
36.665 1.577466
36.670 2.413308
36.675 2.854963
36.680 2.833028
36.685 2.598661
36.690 2.515714
36.695 2.532051
36.700 2.337759
36.705 1.846246
36.710 1.289778
36.715 1.276867
36.720 1.517431
36.725 1.482064
36.730 1.620821
36.735 1.569975
36.740 1.277821
36.745 1.543751
36.750 1.903666
36.755 2.188268
36.760 2.232142
36.765 1.756679
36.770 1.767056
36.775 1.314847
36.780 1.769131
36.785 1.78413
36.790 1.715479
36.795 1.728552
36.800 1.274382
36.805 1.262128
36.810 1.311313
36.815 1.593483
36.820 2.06232
36.825 2.228637
36.830 2.239837
36.835 2.191936
36.840 2.07907
36.845 1.81839
36.850 1.561597
36.855 1.022508
36.860 0.979255
36.865 1.133698
36.870 1.27021
36.875 1.578904
36.880 1.098924
36.885 1.124397
36.890 0.929922
36.895 1.573932
36.900 1.617938
36.905 1.831291
36.910 1.576603
36.915 1.849682
36.920 1.705761
36.925 1.539993
36.930 1.707492
36.935 1.369201
36.940 1.302427
36.945 0.962144
36.950 0.781454
36.955 0.774896
36.960 1.126796
36.965 1.042088
36.970 1.23541
36.975 1.568713
36.980 1.839392
36.985 1.66794
36.990 1.3965
36.995 1.087734
37.000 1.045872
37.005 1.321577
37.010 2.065068
37.015 2.479973
37.020 2.699088
37.025 2.430113
37.030 2.0007
37.035 1.586598
37.040 1.34714
37.045 1.273877
37.050 1.348828
37.055 1.826331
37.060 1.875353
37.065 1.805685
37.070 1.868132
37.075 1.78035
37.080 1.761084
37.085 1.249477
37.090 1.560145
37.095 1.716973
37.100 1.941523
37.105 2.234071
37.110 1.980233
37.115 2.171743
37.120 1.713306
37.125 1.661698
37.130 1.056024
37.135 0.906255
37.140 1.062682
37.145 1.035358
37.150 1.4099
37.155 0.998109
37.160 1.096838
37.165 1.005831
37.170 0.882052
37.175 0.859128
37.180 0.845389
37.185 1.492039
37.190 1.727967
37.195 1.986645
37.200 1.644263
37.205 1.275681
37.210 1.277271
37.215 1.146074
37.220 1.2164
37.225 1.458768
37.230 1.167229
37.235 1.270351
37.240 1.656398
37.245 1.938557
37.250 2.153707
37.255 1.701025
37.260 1.388309
37.265 1.089212
37.270 1.474687
37.275 1.653473
37.280 2.255357
37.285 2.126593
37.290 1.777053
37.295 1.120496
37.300 1.163001
37.305 1.049851
37.310 0.917706
37.315 0.525411
37.320 0.736876
37.325 1.056355
37.330 1.10298
37.335 1.825517
37.340 1.679122
37.345 1.870324
37.350 1.981919
37.355 1.931878
37.360 2.287605
37.365 2.20375
37.370 2.079229
37.375 1.903091
37.380 1.952836
37.385 1.841768
37.390 1.975204
37.395 1.770867
37.400 1.785369
37.405 1.674611
37.410 1.565654
37.415 1.799989
37.420 1.645209
37.425 1.848562
37.430 1.51827
37.435 1.918302
37.440 1.997846
37.445 1.717381
37.450 1.327141
37.455 0.761669
37.460 1.022447
37.465 1.294057
37.470 1.354814
37.475 1.582678
37.480 1.57901
37.485 1.385302
37.490 1.030529
37.495 0.724619
37.500 0.72879
37.505 0.700966
37.510 0.695831
37.515 1.001272
37.520 1.519117
37.525 1.571105
37.530 1.345292
37.535 1.212373
37.540 1.250881
37.545 1.370358
37.550 1.25515
37.555 1.391173
37.560 1.607483
37.565 1.856161
37.570 1.652431
37.575 1.256428
37.580 1.294499
37.585 1.234686
37.590 1.347877
37.595 1.026433
37.600 1.11097
37.605 1.146334
37.610 1.089074
37.615 0.926801
37.620 1.059343
37.625 1.084075
37.630 1.670652
37.635 1.686456
37.640 1.336806
37.645 0.95117
37.650 0.642297
37.655 0.934177
37.660 1.145996
37.665 1.001307
37.670 1.324968
37.675 1.203145
37.680 1.246614
37.685 0.966594
37.690 0.604293
37.695 0.896641
37.700 1.380031
37.705 1.530638
37.710 1.563426
37.715 1.344502
37.720 1.343058
37.725 1.79223
37.730 1.864856
37.735 2.098665
37.740 2.129885
37.745 1.506856
37.750 1.173942
37.755 0.812833
37.760 0.78991
37.765 1.040252
37.770 1.253824
37.775 1.548903
37.780 1.379362
37.785 1.323299
37.790 0.890066
37.795 1.202568
37.800 1.679779
37.805 1.490441
37.810 1.458683
37.815 0.848347
37.820 0.635136
37.825 0.869406
37.830 0.836992
37.835 1.096815
37.840 1.476997
37.845 1.392031
37.850 1.216147
37.855 0.987268
37.860 1.021808
37.865 1.1441
37.870 1.276814
37.875 1.258932
37.880 1.462147
37.885 1.568794
37.890 1.571825
37.895 2.027
37.900 1.841349
37.905 2.093502
37.910 1.757119
37.915 1.498539
37.920 1.400493
37.925 1.371765
37.930 1.469861
37.935 1.057105
37.940 0.820877
37.945 1.191441
37.950 1.368681
37.955 1.80809
37.960 1.823626
37.965 1.513025
37.970 1.397274
37.975 1.147013
37.980 1.40867
37.985 1.314024
37.990 1.618803
37.995 1.529283
38.000 2.385123
38.005 2.164178
38.010 2.166152
38.015 1.452478
38.020 0.904528
38.025 0.924043
38.030 1.072927
38.035 1.405079
38.040 1.556215
38.045 1.662674
38.050 1.707978
38.055 1.856961
38.060 1.578051
38.065 1.426126
38.070 1.836329
38.075 2.263647
38.080 2.577238
38.085 2.676367
38.090 2.530282
38.095 2.421261
38.100 2.098565
38.105 1.912103
38.110 2.248208
38.115 2.437328
38.120 2.6558
38.125 2.271853
38.130 2.647667
38.135 2.616594
38.140 2.315655
38.145 2.380885
38.150 2.168554
38.155 2.53784
38.160 2.78668
38.165 3.05556
38.170 3.091764
38.175 3.041131
38.180 3.281805
38.185 2.857059
38.190 2.671815
38.195 2.537834
38.200 2.497391
38.205 3.110521
38.210 3.769668
38.215 3.540372
38.220 3.366375
38.225 2.996412
38.230 2.892055
38.235 2.855338
38.240 2.349343
38.245 1.896232
38.250 1.801557
