!@!!GADDS PLOTSO FILE: Chi integration type
!@!!Title/SampleName: LiMn2O4 Li1 to Li0 to Li0.8
!@!!Comment: ?. Li1 to Li0.6 map
!@!!User: Bruker Instrument Administrator
!@!!Site: University of Illinois Chicago
!@!!Frame: map-222_01_000.gfrm
!@!!Wavelengths    1.54184   1.54056   1.54439
!@!!Frame angles: 2Theta: 41.250 Omega: 30.000 Phi: 0.000 Chi: 90.000
!@!!Integration range: 2Theta: 32.500 to 52.500  Gamma: -105.000 to -75.000
!@!!Integration method: bin normalized
!@!N
!@!SS
!@!M
!@!L 0.0 0.0 0.0 0.0
!@!XDegrees
!@!YCounts
32.500 2.811385
32.505 2.548474
32.510 1.909519
32.515 2.027638
32.520 1.616227
32.525 1.93636
32.530 2.065426
32.535 1.92154
32.540 1.691572
32.545 1.321617
32.550 1.347509
32.555 1.208274
32.560 0.881921
32.565 1.091939
32.570 1.014243
32.575 1.69421
32.580 1.652496
32.585 1.868598
32.590 1.637249
32.595 1.978045
32.600 2.106508
32.605 2.762987
32.610 2.868302
32.615 2.727455
32.620 2.734704
32.625 2.303873
32.630 2.143766
32.635 2.448622
32.640 2.281253
32.645 2.714431
32.650 2.463646
32.655 2.03153
32.660 2.216928
32.665 2.257304
32.670 2.501003
32.675 2.53058
32.680 2.087605
32.685 1.724876
32.690 1.514288
32.695 1.637779
32.700 1.885959
32.705 1.8177
32.710 1.662739
32.715 1.28605
32.720 1.270238
32.725 1.501496
32.730 1.730888
32.735 1.651263
32.740 1.660998
32.745 1.72835
32.750 2.031402
32.755 1.846215
32.760 2.189563
32.765 2.890475
32.770 3.054487
32.775 3.544146
32.780 2.354364
32.785 2.239192
32.790 2.124461
32.795 2.232041
32.800 2.544574
32.805 2.856823
32.810 2.513997
32.815 2.623103
32.820 2.012256
32.825 1.946123
32.830 2.735543
32.835 3.036657
32.840 2.908212
32.845 2.012306
32.850 1.117997
32.855 1.079928
32.860 1.379031
32.865 1.570559
32.870 1.731163
32.875 1.748366
32.880 1.66408
32.885 2.464752
32.890 2.379948
32.895 2.344032
32.900 1.355253
32.905 0.835382
32.910 0.983546
32.915 1.840293
32.920 2.056498
32.925 2.028665
32.930 1.857757
32.935 1.580085
32.940 1.892447
32.945 1.949763
32.950 1.924448
32.955 2.059574
32.960 1.839946
32.965 2.058621
32.970 2.287995
32.975 2.285771
32.980 2.493474
32.985 2.033684
32.990 2.088506
32.995 2.532315
33.000 2.58084
33.005 2.317573
33.010 2.046997
33.015 1.904076
33.020 1.887797
33.025 1.976904
33.030 1.718689
33.035 1.966
33.040 2.181205
33.045 2.27164
33.050 2.228913
33.055 2.081868
33.060 2.860617
33.065 3.06061
33.070 3.081808
33.075 2.74353
33.080 2.008913
33.085 1.789123
33.090 1.527107
33.095 1.343765
33.100 1.544002
33.105 1.653951
33.110 1.665251
33.115 1.607162
33.120 2.014122
33.125 2.180633
33.130 2.416247
33.135 2.283493
33.140 2.566213
33.145 2.962679
33.150 3.211386
33.155 3.342419
33.160 3.181798
33.165 2.810562
33.170 2.289424
33.175 2.003448
33.180 1.906805
33.185 1.781113
33.190 1.680896
33.195 1.536222
33.200 1.96531
33.205 2.29162
33.210 2.583554
33.215 2.68345
33.220 2.599604
33.225 1.945741
33.230 1.915102
33.235 1.59592
33.240 1.749651
33.245 2.177813
33.250 2.262896
33.255 2.071298
33.260 1.563313
33.265 1.561237
33.270 1.724954
33.275 2.478683
33.280 2.173239
33.285 1.80287
33.290 1.493166
33.295 1.326966
33.300 1.439674
33.305 1.437478
33.310 1.491453
33.315 2.152813
33.320 2.244745
33.325 2.796825
33.330 2.688107
33.335 3.23882
33.340 3.096029
33.345 3.332183
33.350 3.010044
33.355 2.00902
33.360 2.266971
33.365 1.911936
33.370 2.596666
33.375 2.263604
33.380 1.669357
33.385 1.831967
33.390 2.148924
33.395 2.899623
33.400 2.782145
33.405 2.474828
33.410 1.687276
33.415 1.485357
33.420 2.00285
33.425 2.383433
33.430 2.485097
33.435 2.114358
33.440 1.367971
33.445 1.243662
33.450 1.464201
33.455 1.626176
33.460 1.854825
33.465 2.372579
33.470 2.031553
33.475 1.770683
33.480 1.417262
33.485 2.175099
33.490 2.965214
33.495 3.574176
33.500 2.941881
33.505 2.335856
33.510 2.130288
33.515 1.772431
33.520 2.074521
33.525 2.360294
33.530 3.036277
33.535 3.480418
33.540 2.902571
33.545 2.364999
33.550 2.32375
33.555 2.143392
33.560 2.293307
33.565 2.51416
33.570 2.191761
33.575 2.127459
33.580 1.648456
33.585 1.776771
33.590 1.804155
33.595 2.181945
33.600 2.067716
33.605 1.835519
33.610 1.913142
33.615 1.733171
33.620 1.655045
33.625 1.604595
33.630 2.21944
33.635 2.625423
33.640 3.460356
33.645 2.949416
33.650 2.302659
33.655 1.640044
33.660 1.686963
33.665 2.017475
33.670 2.278417
33.675 1.989909
33.680 1.987755
33.685 1.946331
33.690 2.63716
33.695 3.12808
33.700 3.327117
33.705 3.696608
33.710 3.387685
33.715 2.905001
33.720 2.753541
33.725 3.094359
33.730 3.29263
33.735 3.559485
33.740 3.048894
33.745 2.913794
33.750 3.149056
33.755 3.114097
33.760 2.646439
33.765 1.998175
33.770 1.2639
33.775 1.32501
33.780 1.682509
33.785 2.190647
33.790 1.854667
33.795 1.887591
33.800 1.717511
33.805 1.95318
33.810 2.16865
33.815 1.85609
33.820 1.710132
33.825 1.533969
33.830 1.959308
33.835 2.335968
33.840 2.742681
33.845 2.406729
33.850 2.565916
33.855 2.264661
33.860 2.483909
33.865 2.036185
33.870 1.90401
33.875 1.857726
33.880 1.924419
33.885 2.272704
33.890 2.440264
33.895 2.723044
33.900 2.598328
33.905 1.872169
33.910 1.291097
33.915 0.831721
33.920 1.026774
33.925 1.688029
33.930 2.30628
33.935 2.4898
33.940 2.100461
33.945 1.929591
33.950 1.73945
33.955 1.881505
33.960 2.2677
33.965 2.744246
33.970 3.114319
33.975 3.147403
33.980 2.597946
33.985 1.95768
33.990 2.455916
33.995 2.910439
34.000 3.188774
34.005 2.84097
34.010 1.860643
34.015 1.91013
34.020 2.039755
34.025 2.410379
34.030 3.002384
34.035 2.258056
34.040 2.085423
34.045 2.312992
34.050 2.887066
34.055 3.322384
34.060 3.078696
34.065 2.42616
34.070 2.336168
34.075 2.15587
34.080 1.650799
34.085 1.782013
34.090 2.401681
34.095 3.097208
34.100 2.923768
34.105 2.385542
34.110 1.890994
34.115 1.923977
34.120 2.124326
34.125 2.142085
34.130 2.387779
34.135 2.639043
34.140 3.097237
34.145 3.111128
34.150 3.560314
34.155 3.398277
34.160 2.831676
34.165 2.313054
34.170 2.056942
34.175 2.107793
34.180 2.869691
34.185 3.007997
34.190 3.176263
34.195 2.669557
34.200 2.494987
34.205 2.342047
34.210 2.172427
34.215 1.891929
34.220 1.70346
34.225 1.640022
34.230 1.950446
34.235 1.730062
34.240 1.453722
34.245 1.424136
34.250 1.648132
34.255 2.149189
34.260 2.560857
34.265 2.766728
34.270 2.64276
34.275 2.898283
34.280 2.642365
34.285 2.983773
34.290 3.0147
34.295 3.175755
34.300 2.625074
34.305 2.40908
34.310 2.068793
34.315 2.281241
34.320 2.643878
34.325 2.812941
34.330 2.654993
34.335 2.468116
34.340 1.998607
34.345 2.262978
34.350 2.175793
34.355 2.774407
34.360 3.470771
34.365 3.407641
34.370 3.015912
34.375 2.292913
34.380 1.713922
34.385 2.100698
34.390 2.470622
34.395 2.446327
34.400 2.563694
34.405 1.83019
34.410 2.066341
34.415 1.85768
34.420 1.815395
34.425 2.031421
34.430 2.515199
34.435 2.447072
34.440 2.037913
34.445 1.811841
34.450 1.905914
34.455 1.82458
34.460 1.808149
34.465 1.885171
34.470 2.033929
34.475 2.152952
34.480 1.730604
34.485 1.628651
34.490 1.584419
34.495 1.92308
34.500 2.122132
34.505 2.373611
34.510 2.070438
34.515 1.722591
34.520 1.776646
34.525 2.091827
34.530 2.453618
34.535 2.470078
34.540 1.930864
34.545 2.283667
34.550 2.021648
34.555 2.375044
34.560 1.893035
34.565 1.637577
34.570 1.110129
34.575 1.062934
34.580 0.976463
34.585 1.202343
34.590 1.590086
34.595 1.826215
34.600 2.351882
34.605 2.216632
34.610 2.036249
34.615 2.314038
34.620 2.340207
34.625 2.651362
34.630 2.761591
34.635 2.869496
34.640 2.388
34.645 2.771281
34.650 2.370839
34.655 2.98569
34.660 2.963591
34.665 2.900549
34.670 3.093775
34.675 2.883157
34.680 2.592875
34.685 2.286115
34.690 2.011929
34.695 1.942036
34.700 1.627823
34.705 1.345925
34.710 1.302835
34.715 1.374168
34.720 1.464816
34.725 2.107878
34.730 2.11828
34.735 2.739124
34.740 2.465009
34.745 2.691139
34.750 2.113238
34.755 1.845785
34.760 2.352612
34.765 2.477816
34.770 2.428455
34.775 2.198946
34.780 2.086755
34.785 2.01603
34.790 1.921979
34.795 1.727655
34.800 2.297301
34.805 2.745454
34.810 2.931039
34.815 2.544328
34.820 2.858884
34.825 3.301371
34.830 3.754765
34.835 3.604916
34.840 3.106026
34.845 2.186323
34.850 2.059677
34.855 1.748569
34.860 1.994175
34.865 2.352412
34.870 1.916799
34.875 1.648363
34.880 1.715961
34.885 2.574627
34.890 2.836507
34.895 2.69654
34.900 2.330714
34.905 1.809489
34.910 1.854407
34.915 2.221856
34.920 2.746107
34.925 3.156791
34.930 3.41222
34.935 3.307584
34.940 3.10841
34.945 2.719167
34.950 1.601651
34.955 0.956068
34.960 0.949244
34.965 1.261396
34.970 1.556886
34.975 1.619866
34.980 1.79445
34.985 2.071738
34.990 2.562043
34.995 2.149972
35.000 1.853092
35.005 1.605821
35.010 1.570632
35.015 1.758296
35.020 1.752492
35.025 1.919542
35.030 1.861605
35.035 2.261451
35.040 1.649791
35.045 1.811194
35.050 1.271428
35.055 1.821782
35.060 1.70875
35.065 1.503462
35.070 1.566287
35.075 1.305532
35.080 1.666736
35.085 1.716893
35.090 1.93787
35.095 2.40875
35.100 2.621209
35.105 2.663227
35.110 2.143528
35.115 1.922091
35.120 1.947453
35.125 2.149942
35.130 2.400721
35.135 1.986182
35.140 1.871068
35.145 2.032299
35.150 2.44085
35.155 2.972705
35.160 2.345253
35.165 1.903674
35.170 1.368905
35.175 1.045832
35.180 1.766272
35.185 2.042569
35.190 1.955885
35.195 1.694106
35.200 1.802592
35.205 2.555297
35.210 3.117668
35.215 2.786222
35.220 2.036488
35.225 1.279707
35.230 1.331169
35.235 1.58659
35.240 1.668241
35.245 1.450949
35.250 1.258327
35.255 1.399648
35.260 2.12538
35.265 2.821577
35.270 3.41176
35.275 3.161517
35.280 2.790014
35.285 2.532052
35.290 2.233524
35.295 1.990696
35.300 1.755853
35.305 1.781611
35.310 2.453453
35.315 2.584159
35.320 2.597782
35.325 2.034125
35.330 1.645367
35.335 1.674163
35.340 1.845606
35.345 2.412831
35.350 2.39889
35.355 2.755957
35.360 2.416524
35.365 2.998091
35.370 3.306309
35.375 3.281353
35.380 3.34685
35.385 2.497216
35.390 2.40405
35.395 2.362216
35.400 2.43133
35.405 3.166592
35.410 2.605613
35.415 2.95364
35.420 2.354534
35.425 1.703447
35.430 2.129649
35.435 2.171081
35.440 2.554428
35.445 2.390702
35.450 2.208677
35.455 1.966805
35.460 2.088922
35.465 2.037277
35.470 2.209273
35.475 2.599179
35.480 2.711663
35.485 3.097077
35.490 2.982946
35.495 3.003716
35.500 2.768268
35.505 2.772567
35.510 2.53295
35.515 3.005862
35.520 2.862616
35.525 2.715458
35.530 2.187332
35.535 1.909258
35.540 1.896448
35.545 1.93584
35.550 2.321548
35.555 2.538815
35.560 2.884604
35.565 2.943009
35.570 2.624919
35.575 2.384106
35.580 2.087508
35.585 2.311853
35.590 2.371571
35.595 2.264702
35.600 2.24948
35.605 2.080981
35.610 1.967111
35.615 2.067335
35.620 2.151356
35.625 2.484297
35.630 2.629782
35.635 2.687665
35.640 2.478916
35.645 2.615615
35.650 2.249765
35.655 2.418944
35.660 2.195466
35.665 2.012371
35.670 1.863052
35.675 1.830499
35.680 2.125566
35.685 2.172458
35.690 2.012626
35.695 1.917149
35.700 1.883813
35.705 2.284145
35.710 2.614022
35.715 2.581573
35.720 2.362523
35.725 1.82904
35.730 1.557153
35.735 1.75507
35.740 1.832104
35.745 2.589624
35.750 3.257788
35.755 3.5343
35.760 2.992935
35.765 2.517227
35.770 2.384528
35.775 2.64846
35.780 2.927972
35.785 2.423321
35.790 1.972113
35.795 2.036738
35.800 2.321405
35.805 2.685386
35.810 2.886448
35.815 2.49859
35.820 2.684628
35.825 2.191472
35.830 2.019147
35.835 1.925265
35.840 1.695794
35.845 2.098106
35.850 2.036549
35.855 1.754123
35.860 2.322249
35.865 2.281672
35.870 2.756219
35.875 2.836991
35.880 2.913386
35.885 2.641387
35.890 2.060882
35.895 1.709521
35.900 1.373438
35.905 2.090921
35.910 3.246391
35.915 4.135427
35.920 4.757084
35.925 3.790967
35.930 3.052813
35.935 2.410719
35.940 2.590284
35.945 2.984272
35.950 3.056909
35.955 3.015774
35.960 2.405718
35.965 2.513809
35.970 2.557269
35.975 2.700648
35.980 2.956092
35.985 3.068586
35.990 3.619845
35.995 3.258925
36.000 3.494836
36.005 2.923977
36.010 3.379607
36.015 3.359801
36.020 2.945277
36.025 2.680163
36.030 2.46174
36.035 2.936163
36.040 3.391063
36.045 3.263966
36.050 2.915308
36.055 2.327654
36.060 1.859929
36.065 2.046998
36.070 2.150364
36.075 2.246961
36.080 2.693781
36.085 2.893126
36.090 2.585461
36.095 2.401987
36.100 2.432497
36.105 2.649875
36.110 3.262945
36.115 2.526223
36.120 2.752384
36.125 3.057072
36.130 3.897932
36.135 3.911699
36.140 3.406011
36.145 2.916661
36.150 2.989321
36.155 2.872818
36.160 3.071086
36.165 2.574163
36.170 2.633992
36.175 2.639642
36.180 2.633346
36.185 2.8832
36.190 3.216094
36.195 3.370449
36.200 3.028146
36.205 3.399518
36.210 3.47614
36.215 3.542229
36.220 3.596373
36.225 2.830383
36.230 3.582766
36.235 3.584336
36.240 3.886326
36.245 3.067035
36.250 2.282693
36.255 2.27349
36.260 1.943296
36.265 2.277241
36.270 2.017213
36.275 1.845358
36.280 2.450669
36.285 3.540025
36.290 3.679249
36.295 3.691321
36.300 2.842657
36.305 2.416063
36.310 2.684929
36.315 2.143514
36.320 1.939862
36.325 1.574731
36.330 1.898738
36.335 2.108231
36.340 2.498838
36.345 2.360788
36.350 2.809054
36.355 2.953162
36.360 3.173108
36.365 2.958902
36.370 2.261314
36.375 2.339432
36.380 2.934659
36.385 3.713766
36.390 4.407034
36.395 3.697796
36.400 3.41689
36.405 3.700046
36.410 4.726459
36.415 5.056285
36.420 5.03078
36.425 4.140248
36.430 3.743877
36.435 3.736657
36.440 3.116113
36.445 2.787256
36.450 2.689267
36.455 2.508934
36.460 2.060755
36.465 1.825562
36.470 2.051643
36.475 3.072298
36.480 3.706434
36.485 3.686242
36.490 2.979918
36.495 2.158717
36.500 2.132415
36.505 2.662599
36.510 3.378716
36.515 3.137905
36.520 3.338419
36.525 3.27711
36.530 3.626994
36.535 3.111489
36.540 2.23048
36.545 2.02168
36.550 1.974774
36.555 2.262173
36.560 2.024049
36.565 1.975619
36.570 1.965605
36.575 2.54953
36.580 2.732672
36.585 3.754936
36.590 3.614216
36.595 3.886958
36.600 3.424542
36.605 2.794502
36.610 2.474804
36.615 2.248839
36.620 2.476515
36.625 2.5324
36.630 2.058211
36.635 1.948561
36.640 1.875631
36.645 1.898915
36.650 2.131341
36.655 1.930035
36.660 1.704088
36.665 1.991503
36.670 2.3337
36.675 2.516656
36.680 2.684766
36.685 2.673591
36.690 2.259416
36.695 2.286762
36.700 1.939125
36.705 1.727785
36.710 2.247058
36.715 2.208143
36.720 2.892306
36.725 2.931299
36.730 3.020399
36.735 3.736497
36.740 3.967358
36.745 3.530679
36.750 2.473852
36.755 1.14772
36.760 0.876969
36.765 1.222952
36.770 1.38203
36.775 1.821852
36.780 2.651213
36.785 3.549697
36.790 4.156339
36.795 4.137226
36.800 3.288811
36.805 2.357643
36.810 1.953465
36.815 1.765787
36.820 1.958322
36.825 2.54184
36.830 2.69343
36.835 2.658165
36.840 1.960577
36.845 1.877011
36.850 2.209982
36.855 2.520194
36.860 3.078043
36.865 3.096652
36.870 2.643076
36.875 2.709933
36.880 2.099748
36.885 2.274152
36.890 2.130336
36.895 2.004944
36.900 2.038539
36.905 2.285509
36.910 2.498862
36.915 2.392699
36.920 2.03394
36.925 2.260434
36.930 2.184391
36.935 2.989008
36.940 3.676003
36.945 4.258316
36.950 4.174421
36.955 3.824565
36.960 3.483891
36.965 2.845372
36.970 2.401711
36.975 1.643455
36.980 1.850408
36.985 2.1278
36.990 2.955725
36.995 2.743457
37.000 2.409112
37.005 2.300931
37.010 2.539277
37.015 3.062679
37.020 2.866284
37.025 2.613812
37.030 2.108174
37.035 2.262182
37.040 2.318149
37.045 2.473295
37.050 2.248996
37.055 1.791879
37.060 1.360646
37.065 1.707773
37.070 2.280869
37.075 2.717886
37.080 2.242408
37.085 2.067315
37.090 1.924789
37.095 2.384999
37.100 2.673412
37.105 2.740263
37.110 2.731139
37.115 2.618591
37.120 3.034903
37.125 2.777654
37.130 2.378372
37.135 2.471406
37.140 2.458921
37.145 2.448601
37.150 2.447256
37.155 1.998998
37.160 2.068201
37.165 2.149166
37.170 1.97518
37.175 2.356562
37.180 3.322104
37.185 3.445746
37.190 3.284965
37.195 2.692977
37.200 2.494706
37.205 2.431575
37.210 2.44784
37.215 1.529649
37.220 1.371296
37.225 2.277841
37.230 2.636302
37.235 3.742639
37.240 3.554946
37.245 3.67694
37.250 3.136245
37.255 3.15387
37.260 2.895429
37.265 3.123662
37.270 2.590687
37.275 2.535092
37.280 2.323992
37.285 2.577987
37.290 2.716996
37.295 2.647936
37.300 2.392778
37.305 2.159879
37.310 2.077982
37.315 2.410807
37.320 2.364078
37.325 1.993909
37.330 1.803229
37.335 2.374711
37.340 2.793814
37.345 3.163913
37.350 2.978723
37.355 2.895957
37.360 2.704765
37.365 3.147126
37.370 3.16727
37.375 3.633962
37.380 3.848284
37.385 3.096451
37.390 2.746142
37.395 2.247359
37.400 2.256845
37.405 2.182048
37.410 2.130669
37.415 2.542996
37.420 2.94565
37.425 2.976743
37.430 2.716543
37.435 2.314915
37.440 2.228446
37.445 2.297327
37.450 2.094578
37.455 2.154933
37.460 1.829418
37.465 2.3165
37.470 2.800972
37.475 2.88712
37.480 3.053466
37.485 2.659589
37.490 2.228359
37.495 2.634013
37.500 2.178531
37.505 2.896851
37.510 2.851627
37.515 2.692652
37.520 2.601825
37.525 2.261159
37.530 2.824449
37.535 3.018677
37.540 3.887741
37.545 3.32932
37.550 3.14259
37.555 2.116529
37.560 1.892038
37.565 1.630161
37.570 1.656567
37.575 1.793982
37.580 2.228397
37.585 2.617378
37.590 2.890327
37.595 3.302955
37.600 2.578552
37.605 2.55267
37.610 1.965304
37.615 1.972523
37.620 2.001014
37.625 2.431396
37.630 2.814329
37.635 3.145788
37.640 2.771639
37.645 2.684009
37.650 2.464801
37.655 2.829512
37.660 2.291905
37.665 2.018047
37.670 2.825336
37.675 3.524719
37.680 4.104998
37.685 3.41171
37.690 2.584939
37.695 2.357953
37.700 2.231765
37.705 2.397891
37.710 2.332809
37.715 2.769019
37.720 2.763832
37.725 2.852772
37.730 2.443405
37.735 2.211324
37.740 2.240195
37.745 2.210719
37.750 2.346494
37.755 1.980862
37.760 1.906502
37.765 1.996158
37.770 2.059299
37.775 2.355546
37.780 2.221106
37.785 2.524037
37.790 2.731525
37.795 3.406809
37.800 3.974848
37.805 4.591086
37.810 4.099317
37.815 3.174821
37.820 2.446555
37.825 1.998318
37.830 2.04228
37.835 1.894028
37.840 1.605645
37.845 1.992154
37.850 2.369319
37.855 2.850412
37.860 2.785047
37.865 2.637163
37.870 2.550581
37.875 2.654801
37.880 2.523934
37.885 1.852545
37.890 1.899179
37.895 2.357692
37.900 3.216853
37.905 3.312874
37.910 2.921239
37.915 1.987618
37.920 1.505774
37.925 1.652398
37.930 2.326639
37.935 2.225697
37.940 2.157935
37.945 2.073725
37.950 2.734379
37.955 3.86476
37.960 3.5521
37.965 2.954651
37.970 2.175985
37.975 1.688693
37.980 2.280825
37.985 2.332143
37.990 2.547815
37.995 2.655744
38.000 2.758943
38.005 2.972397
38.010 3.177815
38.015 2.641343
38.020 2.929041
38.025 3.578791
38.030 4.419904
38.035 4.581782
38.040 4.394467
38.045 3.831794
38.050 3.481572
38.055 3.600106
38.060 3.989728
38.065 4.400427
38.070 4.060421
38.075 3.323892
38.080 3.665925
38.085 3.858956
38.090 4.040236
38.095 3.295962
38.100 2.715026
38.105 3.295985
38.110 3.597787
38.115 3.603954
38.120 4.350933
38.125 3.979132
38.130 4.31545
38.135 3.715888
38.140 3.527421
38.145 3.684149
38.150 4.016676
38.155 4.08394
38.160 4.82546
38.165 5.31639
38.170 5.560515
38.175 5.15797
38.180 4.500405
38.185 4.496903
38.190 4.385526
38.195 4.815785
38.200 4.583768
38.205 4.216116
38.210 4.424362
38.215 3.764225
38.220 4.560393
38.225 4.948038
38.230 5.108239
38.235 4.684916
38.240 4.269966
38.245 4.226716
38.250 4.45166
38.255 5.020076
