!@!!GADDS PLOTSO FILE: Chi integration type
!@!!Title/SampleName: LiMn2O4 Li1 to Li0 to Li0.8
!@!!Comment: ?. Li1 to Li0.6 map
!@!!User: Bruker Instrument Administrator
!@!!Site: University of Illinois Chicago
!@!!Frame: map-1b0_01_000.gfrm
!@!!Wavelengths    1.54184   1.54056   1.54439
!@!!Frame angles: 2Theta: 41.250 Omega: 30.000 Phi: 0.000 Chi: 90.000
!@!!Integration range: 2Theta: 32.500 to 52.500  Gamma: -105.000 to -75.000
!@!!Integration method: bin normalized
!@!N
!@!SS
!@!M
!@!L 0.0 0.0 0.0 0.0
!@!XDegrees
!@!YCounts
32.500 1.166585
32.505 0.853536
32.510 0.652344
32.515 0.567219
32.520 0.869922
32.525 0.820902
32.530 0.696384
32.535 0.680825
32.540 0.765922
32.545 0.944718
32.550 1.092024
32.555 0.91865
32.560 1.092155
32.565 1.035055
32.570 1.036109
32.575 0.870228
32.580 0.585641
32.585 0.678492
32.590 0.711251
32.595 0.667264
32.600 0.304218
32.605 0.202623
32.610 0.214895
32.615 0.243369
32.620 0.471871
32.625 0.559802
32.630 0.774342
32.635 1.337259
32.640 1.879667
32.645 2.191633
32.650 1.789457
32.655 0.853155
32.660 0.642136
32.665 0.792677
32.670 1.082312
32.675 1.220144
32.680 0.92356
32.685 0.741593
32.690 0.464769
32.695 0.534713
32.700 0.604021
32.705 0.712795
32.710 0.956799
32.715 0.956168
32.720 1.078024
32.725 1.286206
32.730 1.173722
32.735 1.267814
32.740 0.754215
32.745 0.733126
32.750 0.589823
32.755 0.596989
32.760 0.513149
32.765 0.773595
32.770 1.052679
32.775 1.161314
32.780 0.953382
32.785 0.747277
32.790 1.178408
32.795 1.424209
32.800 1.580481
32.805 1.029898
32.810 0.789292
32.815 0.977013
32.820 1.124768
32.825 1.126057
32.830 1.044377
32.835 1.008984
32.840 1.415249
32.845 2.019846
32.850 2.25762
32.855 1.783423
32.860 1.12505
32.865 0.396133
32.870 0.332751
32.875 0.296011
32.880 0.499296
32.885 0.997445
32.890 1.477415
32.895 1.635099
32.900 1.178985
32.905 0.80519
32.910 0.378558
32.915 0.249569
32.920 0.207176
32.925 0.397493
32.930 0.518584
32.935 0.524028
32.940 0.34816
32.945 0.626648
32.950 1.134283
32.955 1.789392
32.960 2.271725
32.965 1.756888
32.970 1.350432
32.975 1.034029
32.980 0.973774
32.985 1.260265
32.990 1.431745
32.995 1.446951
33.000 1.398487
33.005 1.428401
33.010 1.038925
33.015 1.026096
33.020 0.840083
33.025 1.06819
33.030 1.621324
33.035 1.601643
33.040 1.380233
33.045 1.042078
33.050 0.894307
33.055 0.967955
33.060 1.26001
33.065 1.349359
33.070 1.546547
33.075 1.562944
33.080 1.095164
33.085 0.999677
33.090 0.993818
33.095 1.052697
33.100 0.964171
33.105 0.599163
33.110 0.447163
33.115 0.548104
33.120 0.604437
33.125 0.688907
33.130 0.594955
33.135 0.636844
33.140 0.814382
33.145 1.102186
33.150 1.190772
33.155 1.328395
33.160 1.562238
33.165 1.833836
33.170 1.57891
33.175 1.092215
33.180 0.410418
33.185 0.366446
33.190 0.735864
33.195 0.847155
33.200 1.026757
33.205 0.916235
33.210 0.950383
33.215 0.655415
33.220 0.737079
33.225 0.761602
33.230 0.683821
33.235 0.880843
33.240 0.943951
33.245 1.008474
33.250 1.403699
33.255 1.398878
33.260 1.370247
33.265 1.323638
33.270 1.009953
33.275 0.928695
33.280 0.756507
33.285 0.80784
33.290 1.027653
33.295 1.116367
33.300 1.026858
33.305 1.014339
33.310 1.009554
33.315 1.141239
33.320 1.024671
33.325 1.0473
33.330 1.070585
33.335 1.232194
33.340 1.216232
33.345 1.200115
33.350 0.997958
33.355 0.767184
33.360 0.709925
33.365 0.698868
33.370 0.882722
33.375 0.900319
33.380 0.710026
33.385 0.996278
33.390 1.10314
33.395 1.487042
33.400 1.298093
33.405 1.221184
33.410 0.772667
33.415 0.776648
33.420 1.098606
33.425 1.195144
33.430 1.504654
33.435 1.358197
33.440 1.248952
33.445 1.14249
33.450 1.204443
33.455 1.298945
33.460 1.538826
33.465 1.918792
33.470 1.645486
33.475 1.540346
33.480 0.957784
33.485 0.611469
33.490 0.449416
33.495 0.469297
33.500 0.933022
33.505 1.003954
33.510 1.086892
33.515 0.818782
33.520 1.066292
33.525 1.163992
33.530 0.867374
33.535 0.475467
33.540 0.473694
33.545 0.744525
33.550 1.493695
33.555 1.710402
33.560 1.435625
33.565 0.976978
33.570 1.153239
33.575 0.850692
33.580 1.080236
33.585 0.586991
33.590 0.33978
33.595 0.364072
33.600 0.169914
33.605 0.169625
33.610 0.157452
33.615 0.378354
33.620 1.042225
33.625 1.510682
33.630 2.027331
33.635 2.098113
33.640 1.861293
33.645 1.732919
33.650 1.393622
33.655 1.363423
33.660 1.309631
33.665 1.823894
33.670 1.954567
33.675 1.732267
33.680 1.02771
33.685 0.503713
33.690 0.329457
33.695 0.468004
33.700 0.714786
33.705 0.642417
33.710 0.520217
33.715 0.51139
33.720 0.515871
33.725 0.649539
33.730 0.42223
33.735 0.275779
33.740 0.253705
33.745 0.319164
33.750 0.631788
33.755 0.509815
33.760 0.6453
33.765 0.583337
33.770 1.510962
33.775 1.953379
33.780 1.949753
33.785 1.591522
33.790 0.957784
33.795 1.129573
33.800 1.053719
33.805 1.031904
33.810 0.933586
33.815 0.688626
33.820 0.485061
33.825 0.354991
33.830 0.167932
33.835 0.167931
33.840 0.150055
33.845 0.413471
33.850 0.817377
33.855 1.040179
33.860 1.262998
33.865 0.956212
33.870 1.036063
33.875 0.725821
33.880 0.463637
33.885 0.356084
33.890 0.387519
33.895 0.563673
33.900 0.590473
33.905 0.736482
33.910 0.882028
33.915 1.092801
33.920 1.21016
33.925 0.963113
33.930 0.833793
33.935 0.749284
33.940 1.27908
33.945 1.424442
33.950 1.58663
33.955 1.626729
33.960 1.490633
33.965 1.419785
33.970 1.281029
33.975 1.268197
33.980 1.392672
33.985 1.955633
33.990 1.805239
33.995 1.807476
34.000 1.349173
34.005 0.764269
34.010 0.626121
34.015 0.541642
34.020 1.053118
34.025 1.113216
34.030 1.166671
34.035 0.916514
34.040 0.785141
34.045 0.910604
34.050 1.043317
34.055 1.111297
34.060 1.277238
34.065 1.037577
34.070 0.968086
34.075 0.524602
34.080 0.495031
34.085 0.750411
34.090 0.959792
34.095 1.261292
34.100 1.011273
34.105 1.246516
34.110 1.057467
34.115 1.008898
34.120 0.870893
34.125 0.871859
34.130 0.776945
34.135 0.878937
34.140 0.887926
34.145 0.990638
34.150 1.055187
34.155 1.043023
34.160 0.987933
34.165 0.774426
34.170 0.698505
34.175 0.593297
34.180 0.666491
34.185 0.773794
34.190 0.915621
34.195 0.911766
34.200 0.829549
34.205 0.623327
34.210 0.465609
34.215 0.491186
34.220 0.730161
34.225 0.736747
34.230 0.585408
34.235 0.222441
34.240 0.
34.245 0.125642
34.250 0.870648
34.255 1.111795
34.260 1.520089
34.265 1.201213
34.270 0.891345
34.275 0.949783
34.280 0.779367
34.285 0.950963
34.290 0.878676
34.295 0.943276
34.300 0.896456
34.305 0.990724
34.310 0.917718
34.315 0.794192
34.320 0.573712
34.325 0.355503
34.330 0.291348
34.335 0.484771
34.340 0.716219
34.345 1.053839
34.350 1.14047
34.355 0.998488
34.360 0.533702
34.365 0.467522
34.370 0.304339
34.375 0.526402
34.380 0.664953
34.385 0.870327
34.390 0.872914
34.395 0.655309
34.400 0.322858
34.405 0.56732
34.410 0.573457
34.415 0.751541
34.420 0.882775
34.425 0.915636
34.430 1.052639
34.435 1.082807
34.440 0.861238
34.445 0.752613
34.450 0.688608
34.455 0.771865
34.460 1.029933
34.465 0.997628
34.470 1.020895
34.475 0.854383
34.480 0.839994
34.485 0.813878
34.490 0.568879
34.495 0.63361
34.500 0.713065
34.505 0.996487
34.510 0.921295
34.515 0.737668
34.520 0.616499
34.525 0.468291
34.530 0.490941
34.535 0.497021
34.540 0.688167
34.545 0.787858
34.550 0.7791
34.555 0.622734
34.560 0.444452
34.565 0.523327
34.570 0.610703
34.575 0.491192
34.580 0.443525
34.585 0.369839
34.590 0.367378
34.595 0.408012
34.600 0.299139
34.605 0.178356
34.610 0.307282
34.615 0.7475
34.620 0.877596
34.625 0.865592
34.630 0.696049
34.635 1.28883
34.640 1.495556
34.645 1.816299
34.650 1.430441
34.655 1.049677
34.660 0.622433
34.665 0.46719
34.670 0.57802
34.675 0.503697
34.680 0.64383
34.685 0.794877
34.690 1.103174
34.695 1.240801
34.700 1.383833
34.705 1.013347
34.710 0.725377
34.715 0.613554
34.720 0.334884
34.725 0.330731
34.730 0.406481
34.735 0.583613
34.740 0.892768
34.745 1.121631
34.750 1.010486
34.755 0.972213
34.760 0.824748
34.765 0.979224
34.770 1.059529
34.775 1.004839
34.780 1.014544
34.785 1.164795
34.790 1.020049
34.795 0.935022
34.800 0.862237
34.805 0.810497
34.810 0.791918
34.815 0.431325
34.820 0.24945
34.825 0.32478
34.830 0.396287
34.835 0.412224
34.840 0.387779
34.845 0.31441
34.850 0.249548
34.855 0.199173
34.860 0.330609
34.865 0.361587
34.870 0.504724
34.875 0.706954
34.880 0.972978
34.885 0.697599
34.890 0.628496
34.895 0.578871
34.900 1.324314
34.905 1.640965
34.910 1.58661
34.915 1.276282
34.920 0.802488
34.925 0.759942
34.930 0.918903
34.935 0.939969
34.940 1.080039
34.945 0.884025
34.950 0.845646
34.955 0.685716
34.960 0.577511
34.965 0.649808
34.970 0.655503
34.975 0.604662
34.980 0.769112
34.985 1.019713
34.990 1.121389
34.995 0.898726
35.000 0.559068
35.005 0.714376
35.010 0.904313
35.015 0.813693
35.020 0.646054
35.025 0.464295
35.030 0.568592
35.035 0.59221
35.040 0.431209
35.045 0.506729
35.050 0.885207
35.055 1.025996
35.060 1.169794
35.065 1.087523
35.070 1.094705
35.075 0.928449
35.080 0.52141
35.085 0.431474
35.090 0.483629
35.095 0.821567
35.100 0.970728
35.105 1.132931
35.110 1.199526
35.115 0.756237
35.120 0.592052
35.125 0.293266
35.130 0.568431
35.135 0.543881
35.140 0.773997
35.145 0.655985
35.150 0.570026
35.155 0.438992
35.160 0.199219
35.165 0.200679
35.170 0.26382
35.175 0.52244
35.180 0.645192
35.185 0.573425
35.190 0.584673
35.195 0.733577
35.200 1.07794
35.205 1.250954
35.210 1.477338
35.215 1.323905
35.220 1.139701
35.225 0.585826
35.230 0.419628
35.235 0.755938
35.240 1.268714
35.245 1.59524
35.250 1.429244
35.255 1.455971
35.260 1.157955
35.265 1.402531
35.270 1.272543
35.275 0.942525
35.280 1.002683
35.285 0.819377
35.290 0.777071
35.295 0.712454
35.300 0.707188
35.305 0.89454
35.310 1.286335
35.315 1.201295
35.320 1.206206
35.325 0.987955
35.330 0.709198
35.335 0.64062
35.340 0.495938
35.345 0.659456
35.350 0.788306
35.355 0.885577
35.360 0.655752
35.365 0.470585
35.370 0.407338
35.375 1.082482
35.380 1.290451
35.385 1.692838
35.390 1.234285
35.395 0.999792
35.400 0.690548
35.405 0.484468
35.410 0.442428
35.415 0.532844
35.420 0.486963
35.425 0.63725
35.430 0.71956
35.435 0.896605
35.440 0.959042
35.445 0.864198
35.450 0.73766
35.455 0.650675
35.460 0.41963
35.465 0.236018
35.470 0.447218
35.475 0.620254
35.480 1.412246
35.485 1.148703
35.490 1.106368
35.495 0.667875
35.500 0.76272
35.505 1.0203
35.510 1.218719
35.515 1.192453
35.520 1.458712
35.525 1.356665
35.530 1.083343
35.535 0.927872
35.540 0.668808
35.545 0.768249
35.550 0.96801
35.555 0.547411
35.560 0.492165
35.565 0.568553
35.570 0.856872
35.575 1.027543
35.580 1.072483
35.585 0.596267
35.590 0.650921
35.595 0.599053
35.600 0.831992
35.605 1.022394
35.610 0.952155
35.615 1.03057
35.620 1.140158
35.625 1.07129
35.630 1.031979
35.635 0.547165
35.640 0.523642
35.645 0.477671
35.650 0.523557
35.655 0.678414
35.660 0.436313
35.665 0.561539
35.670 0.575517
35.675 0.631281
35.680 0.481728
35.685 0.389875
35.690 0.697826
35.695 0.638602
35.700 0.646847
35.705 0.339542
35.710 0.317681
35.715 0.31249
35.720 0.180402
35.725 0.201059
35.730 0.166116
35.735 0.432139
35.740 0.437297
35.745 0.63056
35.750 0.940438
35.755 1.081261
35.760 1.062477
35.765 1.068866
35.770 0.910218
35.775 0.710518
35.780 0.602698
35.785 0.310999
35.790 0.269906
35.795 0.176681
35.800 0.161955
35.805 0.218395
35.810 0.613228
35.815 1.002881
35.820 1.403338
35.825 1.035542
35.830 0.950469
35.835 0.522429
35.840 0.475134
35.845 0.46117
35.850 0.655503
35.855 0.892363
35.860 1.043481
35.865 0.873546
35.870 0.692649
35.875 0.510481
35.880 0.520671
35.885 0.453933
35.890 0.918923
35.895 1.365832
35.900 1.563309
35.905 1.533877
35.910 1.055911
35.915 0.933395
35.920 0.774033
35.925 0.628017
35.930 0.494004
35.935 0.817654
35.940 1.270264
35.945 1.643022
35.950 1.419731
35.955 0.8721
35.960 0.409804
35.965 0.350097
35.970 0.504198
35.975 0.791061
35.980 1.095911
35.985 1.022199
35.990 0.981132
35.995 0.929306
36.000 1.132882
36.005 1.493776
36.010 1.665815
36.015 1.266884
36.020 1.445774
36.025 1.193238
36.030 0.978588
36.035 0.87797
36.040 0.800052
36.045 0.864163
36.050 1.03593
36.055 1.000301
36.060 0.964952
36.065 1.085771
36.070 1.014841
36.075 1.141725
36.080 1.050499
36.085 1.141708
36.090 0.785707
36.095 0.849835
36.100 0.805683
36.105 0.790197
36.110 0.74084
36.115 0.788168
36.120 1.000782
36.125 1.136026
36.130 1.502078
36.135 1.612028
36.140 1.49185
36.145 1.145527
36.150 0.452979
36.155 1.043492
36.160 1.439463
36.165 1.851684
36.170 1.462963
36.175 1.093714
36.180 0.700533
36.185 0.643192
36.190 0.553943
36.195 0.93858
36.200 0.926719
36.205 1.231805
36.210 1.264434
36.215 1.097812
36.220 0.951949
36.225 0.739853
36.230 0.734513
36.235 0.569615
36.240 0.619363
36.245 0.499571
36.250 0.695773
36.255 0.894645
36.260 0.919498
36.265 0.994829
36.270 0.691558
36.275 0.542127
36.280 0.80691
36.285 0.942735
36.290 1.041482
36.295 1.211498
36.300 0.828165
36.305 0.945225
36.310 0.659844
36.315 0.47302
36.320 0.528744
36.325 0.4113
36.330 0.487483
36.335 0.605566
36.340 0.514656
36.345 1.164101
36.350 1.41166
36.355 1.898788
36.360 1.561137
36.365 1.165122
36.370 0.976485
36.375 0.597774
36.380 0.53636
36.385 0.487552
36.390 0.618721
36.395 0.619961
36.400 0.482306
36.405 0.526652
36.410 0.5249
36.415 0.730128
36.420 0.888686
36.425 0.908845
36.430 0.772404
36.435 0.524305
36.440 0.77352
36.445 1.037099
36.450 1.365375
36.455 1.820696
36.460 1.858935
36.465 1.699059
36.470 1.479367
36.475 0.885511
36.480 0.645354
36.485 0.604348
36.490 0.548189
36.495 0.74555
36.500 1.074753
36.505 1.246086
36.510 1.35309
36.515 1.201386
36.520 1.255574
36.525 1.210388
36.530 1.252362
36.535 1.104079
36.540 1.116499
36.545 1.267817
36.550 1.294928
36.555 1.453422
36.560 1.217404
36.565 1.327533
36.570 1.152545
36.575 1.130485
36.580 1.401115
36.585 1.454891
36.590 1.593062
36.595 1.632387
36.600 1.585195
36.605 1.247792
36.610 1.219325
36.615 1.049591
36.620 0.947464
36.625 1.078188
36.630 1.048384
36.635 1.145455
36.640 1.460032
36.645 1.016312
36.650 1.275201
36.655 1.140576
36.660 1.091169
36.665 0.601113
36.670 0.40577
36.675 0.596998
36.680 0.783705
36.685 0.720998
36.690 0.590608
36.695 0.323155
36.700 0.485505
36.705 0.687201
36.710 0.772589
36.715 0.988563
36.720 0.908547
36.725 0.795132
36.730 0.620604
36.735 0.60024
36.740 0.702627
36.745 0.503682
36.750 0.576713
36.755 0.874244
36.760 1.076002
36.765 1.192626
36.770 1.202118
36.775 1.335587
36.780 1.507986
36.785 1.167254
36.790 0.601093
36.795 0.51868
36.800 0.658104
36.805 0.956957
36.810 0.807673
36.815 0.683861
36.820 0.352633
36.825 0.474259
36.830 0.733879
36.835 1.022782
36.840 1.000198
36.845 0.797085
36.850 1.112551
36.855 1.056786
36.860 1.164824
36.865 0.847436
36.870 0.651918
36.875 0.670238
36.880 0.535094
36.885 0.464164
36.890 0.544268
36.895 0.741807
36.900 0.617567
36.905 0.562928
36.910 0.574704
36.915 0.992707
36.920 1.211414
36.925 1.024281
36.930 0.814942
36.935 0.836851
36.940 0.862323
36.945 0.786294
36.950 0.402203
36.955 0.397092
36.960 0.306262
36.965 0.510252
36.970 0.701087
36.975 0.862196
36.980 1.0998
36.985 0.89055
36.990 0.864446
36.995 0.685939
37.000 0.858677
37.005 0.806584
37.010 0.819252
37.015 0.819267
37.020 1.191028
37.025 1.449664
37.030 2.07418
37.035 1.999855
37.040 1.97311
37.045 1.625633
37.050 1.069826
37.055 0.960505
37.060 0.825481
37.065 0.552952
37.070 0.533764
37.075 0.283666
37.080 0.705325
37.085 0.87668
37.090 1.063325
37.095 0.786383
37.100 0.711829
37.105 0.582849
37.110 0.735008
37.115 1.077899
37.120 1.332516
37.125 1.45778
37.130 1.493684
37.135 1.192095
37.140 1.017278
37.145 0.593453
37.150 0.591162
37.155 0.673276
37.160 0.843434
37.165 1.194162
37.170 1.546235
37.175 1.743558
37.180 1.792071
37.185 1.545391
37.190 1.77797
37.195 1.364589
37.200 1.612721
37.205 1.216388
37.210 1.536693
37.215 1.729827
37.220 1.210439
37.225 0.986328
37.230 0.919324
37.235 1.017683
37.240 1.240674
37.245 0.971214
37.250 0.801883
37.255 0.729858
37.260 0.564987
37.265 0.534872
37.270 0.520544
37.275 0.613871
37.280 0.723659
37.285 0.602096
37.290 0.573519
37.295 0.605747
37.300 0.823242
37.305 1.05857
37.310 1.224913
37.315 1.041003
37.320 0.732928
37.325 0.572192
37.330 1.055384
37.335 1.279383
37.340 1.187153
37.345 0.841465
37.350 0.475159
37.355 0.207394
37.360 0.14483
37.365 0.315967
37.370 0.455914
37.375 0.533787
37.380 0.354488
37.385 0.45619
37.390 0.994901
37.395 1.183432
37.400 1.297605
37.405 0.859443
37.410 0.865191
37.415 1.145819
37.420 1.345621
37.425 1.2172
37.430 0.995135
37.435 0.712365
37.440 0.733791
37.445 0.818155
37.450 0.634989
37.455 0.587502
37.460 0.311567
37.465 0.597108
37.470 1.016167
37.475 1.053351
37.480 1.000488
37.485 0.599201
37.490 0.683258
37.495 0.653984
37.500 0.809828
37.505 0.774126
37.510 0.740449
37.515 1.147535
37.520 0.999229
37.525 1.318434
37.530 1.193396
37.535 1.214164
37.540 0.918552
37.545 0.95656
37.550 1.233657
37.555 1.069983
37.560 1.063708
37.565 0.674295
37.570 0.497015
37.575 0.846123
37.580 0.763026
37.585 0.667649
37.590 0.608477
37.595 0.464388
37.600 0.673774
37.605 0.952698
37.610 0.916724
37.615 0.944087
37.620 0.605281
37.625 0.456537
37.630 0.583587
37.635 0.757456
37.640 0.738889
37.645 0.527251
37.650 0.18318
37.655 0.24166
37.660 0.270396
37.665 0.151891
37.670 0.169679
37.675 0.356976
37.680 0.91729
37.685 1.650398
37.690 1.928066
37.695 2.149302
37.700 2.084082
37.705 1.784261
37.710 1.608766
37.715 0.920385
37.720 0.538129
37.725 0.306887
37.730 0.624895
37.735 1.027281
37.740 1.579484
37.745 1.422674
37.750 1.062163
37.755 0.760174
37.760 0.462614
37.765 0.632302
37.770 0.961364
37.775 1.403229
37.780 1.917305
37.785 1.988278
37.790 1.554972
37.795 1.390193
37.800 1.026793
37.805 1.156604
37.810 1.237302
37.815 1.111821
37.820 1.238778
37.825 1.133173
37.830 0.883788
37.835 0.875381
37.840 0.477197
37.845 0.704695
37.850 0.943624
37.855 1.175212
37.860 1.297122
37.865 1.282304
37.870 1.060638
37.875 0.914264
37.880 0.634714
37.885 0.893449
37.890 0.815288
37.895 0.80812
37.900 0.492595
37.905 0.46942
37.910 0.408217
37.915 0.74432
37.920 0.717592
37.925 0.638802
37.930 0.289962
37.935 0.306312
37.940 0.322392
37.945 0.449136
37.950 0.559452
37.955 0.394291
37.960 0.856004
37.965 1.005325
37.970 1.358424
37.975 1.204243
37.980 1.01542
37.985 0.588098
37.990 0.730399
37.995 0.94984
38.000 1.18087
38.005 1.254543
38.010 0.596983
38.015 0.597264
38.020 0.990693
38.025 1.306657
38.030 1.710092
38.035 1.255424
38.040 1.089213
38.045 0.998053
38.050 1.351977
38.055 1.600914
38.060 1.532601
38.065 0.94058
38.070 0.723842
38.075 0.327551
38.080 0.312628
38.085 0.382218
38.090 0.715239
38.095 0.933873
38.100 1.092737
38.105 0.938523
38.110 0.695335
38.115 0.378468
38.120 0.27213
38.125 0.149389
38.130 0.206108
38.135 0.224143
38.140 0.151443
38.145 0.241745
38.150 0.481936
38.155 0.817715
38.160 1.26359
38.165 1.367907
38.170 1.589386
38.175 1.312478
38.180 1.007086
38.185 0.808671
38.190 0.808548
38.195 1.558006
38.200 1.905442
38.205 2.105922
38.210 1.478761
38.215 1.097489
38.220 0.62537
38.225 0.735481
38.230 0.758824
38.235 0.842598
38.240 0.793811
38.245 0.860161
