!@!!GADDS PLOTSO FILE: Chi integration type
!@!!Title/SampleName: LiMn2O4 Li1 to Li0 to Li0.8
!@!!Comment: ?. Sample cathode material from Argonne
!@!!User: Bruker Instrument Administrator
!@!!Site: University of Illinois Chicago
!@!!Frame: C:\Users\Bruker\Documents\wolf-research\LiMn2O4-preliminary\split-0_01_000.gfrm
!@!!Wavelengths    1.54184   1.54056   1.54439
!@!!Frame angles: 2Theta: 41.250 Omega: 30.000 Phi: 0.000 Chi: 90.000
!@!!Integration range: 2Theta: 32.500 to 52.500  Gamma: -97.000 to -83.100
!@!!Integration method: bin normalized
!@!N
!@!SS
!@!M
!@!L 0.0 0.0 0.0 0.0
!@!XDegrees
!@!YCounts
32.500 219.88913
32.505 221.781204
32.510 224.837982
32.515 221.687469
32.520 221.42569
32.525 215.571869
32.530 217.687698
32.535 218.583069
32.540 221.014282
32.545 225.302948
32.550 217.370911
32.555 212.205276
32.560 209.773132
32.565 213.906509
32.570 219.627914
32.575 224.497818
32.580 230.738113
32.585 228.346542
32.590 226.547012
32.595 217.206253
32.600 212.519348
32.605 222.817551
32.610 227.195175
32.615 231.981781
32.620 226.479675
32.625 226.479553
32.630 228.154236
32.635 226.627029
32.640 226.671143
32.645 219.167343
32.650 233.035202
32.655 243.501495
32.660 255.22403
32.665 255.346756
32.670 245.672195
32.675 244.668442
32.680 243.694717
32.685 240.667496
32.690 237.407608
32.695 239.473099
32.700 241.64888
32.705 241.238586
32.710 240.0858
32.715 241.297379
32.720 252.195999
32.725 257.334503
32.730 256.57074
32.735 244.789352
32.740 236.294312
32.745 228.843201
32.750 217.561768
32.755 222.069885
32.760 225.168671
32.765 239.256683
32.770 240.473618
32.775 243.488998
32.780 244.178345
32.785 238.846375
32.790 236.475449
32.795 230.471268
32.800 231.888138
32.805 234.600754
32.810 230.204025
32.815 225.774307
32.820 220.066574
32.825 218.669083
32.830 220.572601
32.835 219.973282
32.840 221.212006
32.845 225.289093
32.850 229.63942
32.855 237.39473
32.860 235.094315
32.865 233.861099
32.870 232.414597
32.875 234.328506
32.880 239.451614
32.885 245.671127
32.890 257.721222
32.895 257.979584
32.900 261.940704
32.905 254.265457
32.910 260.607574
32.915 262.623749
32.920 268.064453
32.925 259.657837
32.930 261.391724
32.935 265.735138
32.940 266.137268
32.945 266.605194
32.950 257.270996
32.955 252.115128
32.960 243.127594
32.965 240.387299
32.970 239.983612
32.975 240.709213
32.980 244.086655
32.985 251.792007
32.990 251.586945
32.995 250.651062
33.000 243.776459
33.005 241.589859
33.010 250.27681
33.015 257.551514
33.020 261.440521
33.025 257.240356
33.030 249.422028
33.035 244.341568
33.040 247.12529
33.045 244.277115
33.050 243.784531
33.055 240.117096
33.060 243.939453
33.065 246.333755
33.070 253.863647
33.075 251.884399
33.080 258.751709
33.085 260.01181
33.090 258.167755
33.095 262.99054
33.100 255.491959
33.105 256.577515
33.110 252.672318
33.115 253.523468
33.120 255.199936
33.125 258.358154
33.130 257.820343
33.135 257.991058
33.140 255.586868
33.145 258.440216
33.150 251.64267
33.155 246.718292
33.160 238.400665
33.165 228.568771
33.170 233.568878
33.175 238.419785
33.180 239.543777
33.185 251.954666
33.190 255.387512
33.195 256.78656
33.200 253.29451
33.205 254.130676
33.210 261.520294
33.215 268.086578
33.220 262.103333
33.225 247.394989
33.230 240.240555
33.235 240.307281
33.240 252.324844
33.245 262.923187
33.250 267.889404
33.255 266.097595
33.260 263.791107
33.265 260.28891
33.270 262.951233
33.275 254.812592
33.280 249.011581
33.285 254.665726
33.290 261.642029
33.295 263.41629
33.300 260.766998
33.305 257.533142
33.310 265.379791
33.315 270.776184
33.320 266.440948
33.325 269.531403
33.330 273.219086
33.335 279.470703
33.340 277.88739
33.345 269.699707
33.350 271.372955
33.355 275.121948
33.360 284.729584
33.365 277.915344
33.370 275.8862
33.375 264.875366
33.380 269.841705
33.385 275.187836
33.390 271.376892
33.395 276.217926
33.400 272.33017
33.405 268.246002
33.410 264.06778
33.415 258.31076
33.420 255.90097
33.425 262.980316
33.430 266.598816
33.435 261.42926
33.440 257.217957
33.445 253.923309
33.450 259.263397
33.455 265.608307
33.460 276.988525
33.465 282.860687
33.470 285.537415
33.475 291.055145
33.480 287.092896
33.485 284.584839
33.490 289.250305
33.495 277.712189
33.500 272.775574
33.505 256.167328
33.510 252.997253
33.515 250.710526
33.520 263.15921
33.525 270.402008
33.530 279.85611
33.535 280.348083
33.540 283.119537
33.545 278.662689
33.550 271.779327
33.555 263.907684
33.560 258.433838
33.565 267.233917
33.570 274.481689
33.575 271.708344
33.580 280.45697
33.585 277.533966
33.590 280.709381
33.595 277.503143
33.600 272.021332
33.605 267.328796
33.610 263.975983
33.615 260.519379
33.620 259.52356
33.625 268.066956
33.630 262.785095
33.635 256.015167
33.640 258.244141
33.645 264.923889
33.650 283.349884
33.655 287.413147
33.660 277.006683
33.665 268.302551
33.670 262.584686
33.675 266.808167
33.680 277.297424
33.685 284.195099
33.690 284.89682
33.695 278.925568
33.700 266.620789
33.705 266.77182
33.710 257.102509
33.715 260.133484
33.720 259.40506
33.725 265.96933
33.730 283.470398
33.735 292.237976
33.740 297.372345
33.745 293.638794
33.750 283.679626
33.755 281.440155
33.760 283.874084
33.765 282.616577
33.770 280.889618
33.775 278.41748
33.780 278.071747
33.785 298.185455
33.790 303.803711
33.795 299.793884
33.800 281.045471
33.805 272.54837
33.810 270.331207
33.815 277.969391
33.820 277.351044
33.825 279.223511
33.830 276.597168
33.835 279.075317
33.840 280.708405
33.845 277.142334
33.850 271.238037
33.855 271.414581
33.860 273.802979
33.865 280.599457
33.870 289.472137
33.875 283.579926
33.880 281.741669
33.885 282.928192
33.890 285.041443
33.895 291.93689
33.900 293.15802
33.905 290.79776
33.910 288.440216
33.915 283.814667
33.920 287.655823
33.925 288.81723
33.930 290.919617
33.935 286.397491
33.940 284.821045
33.945 288.691772
33.950 291.220795
33.955 290.351837
33.960 294.094818
33.965 290.394104
33.970 291.625122
33.975 294.51413
33.980 294.021973
33.985 297.93103
33.990 280.101776
33.995 277.38913
34.000 268.765564
34.005 271.852966
34.010 272.514923
34.015 276.152008
34.020 287.106201
34.025 294.732117
34.030 291.43634
34.035 282.693207
34.040 286.263214
34.045 293.013
34.050 297.580597
34.055 295.428192
34.060 285.738739
34.065 290.211243
34.070 288.485748
34.075 295.316956
34.080 297.439514
34.085 294.114105
34.090 294.50882
34.095 281.685333
34.100 285.340424
34.105 288.93277
34.110 294.834045
34.115 293.986053
34.120 283.280762
34.125 288.758881
34.130 295.793182
34.135 306.51767
34.140 303.584534
34.145 295.73941
34.150 294.252014
34.155 298.02359
34.160 296.311035
34.165 289.48938
34.170 284.384949
34.175 289.662506
34.180 298.82019
34.185 304.53418
34.190 304.419769
34.195 312.512451
34.200 316.278625
34.205 319.888489
34.210 320.123444
34.215 307.206757
34.220 299.904694
34.225 297.21521
34.230 300.420227
34.235 299.022888
34.240 293.853455
34.245 299.369263
34.250 300.104431
34.255 306.34906
34.260 306.955658
34.265 311.533325
34.270 312.811676
34.275 312.923126
34.280 311.268433
34.285 304.397583
34.290 309.145569
34.295 302.71933
34.300 306.559052
34.305 312.335541
34.310 312.248749
34.315 305.595673
34.320 290.544891
34.325 288.681274
34.330 291.249786
34.335 299.195007
34.340 297.957886
34.345 299.110321
34.350 306.859283
34.355 311.805054
34.360 315.388397
34.365 305.849609
34.370 296.565552
34.375 295.385437
34.380 310.407074
34.385 324.805115
34.390 332.035736
34.395 325.442993
34.400 325.693176
34.405 320.775177
34.410 330.833954
34.415 335.194122
34.420 334.772736
34.425 328.240509
34.430 321.599152
34.435 318.066101
34.440 318.649567
34.445 319.617279
34.450 314.798096
34.455 304.829773
34.460 299.552795
34.465 304.438873
34.470 313.909027
34.475 326.596497
34.480 323.063446
34.485 328.935669
34.490 324.947083
34.495 325.480988
34.500 310.043671
34.505 296.714447
34.510 297.765594
34.515 302.74176
34.520 316.947754
34.525 317.723022
34.530 319.959015
34.535 317.767487
34.540 321.084198
34.545 320.292236
34.550 314.783325
34.555 322.106232
34.560 323.393768
34.565 321.621124
34.570 322.592987
34.575 311.463654
34.580 320.16629
34.585 329.46109
34.590 335.103577
34.595 331.581116
34.600 322.076141
34.605 317.969574
34.610 315.603485
34.615 315.955566
34.620 317.118988
34.625 318.784546
34.630 325.651642
34.635 318.539459
34.640 329.303345
34.645 325.916107
34.650 332.040436
34.655 319.760651
34.660 317.858704
34.665 320.172394
34.670 321.505219
34.675 313.562988
34.680 306.620148
34.685 300.15271
34.690 306.208649
34.695 310.676971
34.700 312.610565
34.705 322.110199
34.710 319.712219
34.715 319.193329
34.720 319.736237
34.725 321.26062
34.730 325.159851
34.735 319.932587
34.740 318.558014
34.745 322.424866
34.750 326.950867
34.755 331.357971
34.760 327.067657
34.765 322.938385
34.770 318.91983
34.775 315.733521
34.780 314.377625
34.785 312.999786
34.790 311.626984
34.795 312.726227
34.800 317.614319
34.805 319.429749
34.810 320.686432
34.815 320.180298
34.820 321.123993
34.825 322.088226
34.830 323.907501
34.835 319.183838
34.840 318.466766
34.845 314.477173
34.850 317.482391
34.855 314.80899
34.860 311.830872
34.865 322.053375
34.870 324.881165
34.875 328.724548
34.880 327.436707
34.885 321.086975
34.890 323.397217
34.895 316.907715
34.900 315.599182
34.905 322.027527
34.910 314.729736
34.915 311.558746
34.920 298.359467
34.925 305.587738
34.930 308.639221
34.935 322.763214
34.940 328.818176
34.945 334.890137
34.950 334.057953
34.955 331.393372
34.960 337.863983
34.965 335.670471
34.970 337.571106
34.975 339.749725
34.980 336.245514
34.985 334.652344
34.990 338.286407
34.995 339.608704
35.000 340.737183
35.005 339.598358
35.010 325.876984
35.015 324.137634
35.020 330.860229
35.025 330.360382
35.030 334.612549
35.035 324.725372
35.040 332.026855
35.045 325.695496
35.050 334.000122
35.055 328.382172
35.060 322.449585
35.065 325.988159
35.070 335.881653
35.075 346.639984
35.080 339.94455
35.085 337.399994
35.090 329.278748
35.095 341.986694
35.100 341.791809
35.105 338.962311
35.110 332.744873
35.115 333.507965
35.120 338.876221
35.125 346.847717
35.130 349.708618
35.135 339.719147
35.140 337.313538
35.145 339.764984
35.150 342.04248
35.155 346.006683
35.160 332.816681
35.165 324.775787
35.170 322.315369
35.175 334.503265
35.180 353.105804
35.185 361.844849
35.190 365.494843
35.195 359.622345
35.200 360.199341
35.205 352.973663
35.210 353.696289
35.215 344.843445
35.220 348.747803
35.225 351.592407
35.230 363.225739
35.235 359.339264
35.240 353.824738
35.245 344.711365
35.250 340.618591
35.255 345.371399
35.260 348.612579
35.265 343.265015
35.270 338.819031
35.275 324.364899
35.280 325.254303
35.285 320.116394
35.290 332.720093
35.295 339.656097
35.300 348.165527
35.305 344.324799
35.310 340.694946
35.315 333.920349
35.320 336.669708
35.325 333.358917
35.330 337.296295
35.335 344.398438
35.340 344.346527
35.345 344.069946
35.350 339.814484
35.355 341.238007
35.360 350.110809
35.365 353.600128
35.370 355.447998
35.375 356.703827
35.380 354.442291
35.385 343.579407
35.390 328.5289
35.395 315.696472
35.400 322.148041
35.405 327.851837
35.410 332.352875
35.415 337.504913
35.420 341.903412
35.425 343.962402
35.430 344.86557
35.435 335.43573
35.440 331.970734
35.445 326.565674
35.450 328.989532
35.455 328.36261
35.460 329.410767
35.465 334.309998
35.470 329.029053
35.475 339.852448
35.480 344.982574
35.485 343.882813
35.490 343.510376
35.495 332.20575
35.500 334.509705
35.505 340.654388
35.510 351.698822
35.515 354.698792
35.520 359.601318
35.525 355.304047
35.530 355.249451
35.535 358.204926
35.540 363.599762
35.545 372.52121
35.550 368.770203
35.555 354.220978
35.560 341.343323
35.565 327.265472
35.570 338.92926
35.575 348.578308
35.580 362.698425
35.585 376.766083
35.590 380.035828
35.595 377.51535
35.600 362.980927
35.605 359.881592
35.610 363.953949
35.615 365.9841
35.620 358.271698
35.625 343.114563
35.630 342.006256
35.635 353.120331
35.640 361.274292
35.645 368.275208
35.650 371.224548
35.655 374.951416
35.660 363.403503
35.665 365.937622
35.670 368.644531
35.675 384.308655
35.680 383.928711
35.685 372.54953
35.690 359.907135
35.695 360.101685
35.700 369.056549
35.705 376.483154
35.710 379.948059
35.715 382.841431
35.720 402.100067
35.725 403.576324
35.730 404.372772
35.735 400.205688
35.740 412.478149
35.745 410.871063
35.750 412.756439
35.755 415.548859
35.760 414.088776
35.765 418.973846
35.770 414.7883
35.775 412.303406
35.780 422.364899
35.785 436.594849
35.790 451.5383
35.795 459.431396
35.800 469.368378
35.805 475.795227
35.810 473.402466
35.815 476.949951
35.820 462.919739
35.825 461.385071
35.830 460.769623
35.835 466.560486
35.840 469.485535
35.845 467.075134
35.850 468.802765
35.855 469.862152
35.860 475.871033
35.865 476.708069
35.870 475.495789
35.875 483.814514
35.880 478.60907
35.885 475.310608
35.890 461.271667
35.895 451.816528
35.900 437.950775
35.905 428.653381
35.910 418.25824
35.915 428.515594
35.920 439.227234
35.925 451.022034
35.930 453.288513
35.935 452.657623
35.940 452.080017
35.945 455.43576
35.950 454.893463
35.955 445.53833
35.960 435.863037
35.965 429.977814
35.970 425.615906
35.975 414.494232
35.980 411.132019
35.985 409.083435
35.990 415.271362
35.995 417.526794
36.000 412.26001
36.005 414.067902
36.010 418.002045
36.015 415.333191
36.020 414.861969
36.025 413.983154
36.030 395.57962
36.035 391.389618
36.040 387.556335
36.045 386.097168
36.050 384.078033
36.055 361.799469
36.060 362.002686
36.065 363.571106
36.070 376.309723
36.075 373.972015
36.080 369.354034
36.085 373.514557
36.090 383.679352
36.095 392.987946
36.100 388.877655
36.105 378.071594
36.110 377.741211
36.115 379.491425
36.120 389.723999
36.125 387.313812
36.130 386.979248
36.135 390.34256
36.140 395.022614
36.145 401.062286
36.150 405.799133
36.155 404.493744
36.160 408.4198
36.165 407.658844
36.170 399.209869
36.175 399.044983
36.180 393.473938
36.185 406.282745
36.190 420.516205
36.195 418.288605
36.200 424.819458
36.205 414.174896
36.210 420.804352
36.215 428.657623
36.220 434.616028
36.225 438.398499
36.230 438.883972
36.235 452.118866
36.240 464.436035
36.245 474.220123
36.250 487.871155
36.255 490.508392
36.260 487.798309
36.265 491.844604
36.270 496.514954
36.275 500.856812
36.280 499.316742
36.285 490.530731
36.290 479.683105
36.295 483.980011
36.300 482.078064
36.305 482.391388
36.310 489.474091
36.315 475.230042
36.320 480.85144
36.325 472.753479
36.330 473.222046
36.335 468.628998
36.340 470.529999
36.345 471.07959
36.350 468.459167
36.355 463.336029
36.360 446.161774
36.365 438.982391
36.370 437.108063
36.375 437.910156
36.380 438.154205
36.385 444.986359
36.390 443.567017
36.395 448.103333
36.400 461.216064
36.405 453.550873
36.410 448.836487
36.415 444.110748
36.420 434.997589
36.425 430.618378
36.430 425.704498
36.435 425.218262
36.440 420.297028
36.445 417.833496
36.450 420.872192
36.455 417.125427
36.460 416.190033
36.465 406.092529
36.470 400.696198
36.475 400.162262
36.480 399.734192
36.485 393.998932
36.490 388.853302
36.495 380.905762
36.500 371.182343
36.505 369.105927
36.510 359.808899
36.515 365.423279
36.520 364.994904
36.525 367.143829
36.530 371.117828
36.535 374.977386
36.540 387.298065
36.545 390.153442
36.550 393.813232
36.555 390.19632
36.560 388.981628
36.565 387.698303
36.570 388.438446
36.575 398.361908
36.580 395.537933
36.585 387.175934
36.590 376.514313
36.595 360.647552
36.600 355.387054
36.605 367.777832
36.610 371.674225
36.615 385.808075
36.620 382.530243
36.625 377.624176
36.630 382.971649
36.635 386.666077
36.640 392.263
36.645 387.635376
36.650 385.791626
36.655 371.697784
36.660 374.855255
36.665 367.596985
36.670 363.289764
36.675 359.517639
36.680 359.222504
36.685 363.052155
36.690 378.500092
36.695 382.009857
36.700 382.386536
36.705 378.595093
36.710 367.931183
36.715 370.505219
36.720 370.390991
36.725 370.537933
36.730 369.394714
36.735 365.6763
36.740 362.185028
36.745 362.248322
36.750 354.10733
36.755 361.028351
36.760 374.296844
36.765 373.349792
36.770 369.7836
36.775 351.209473
36.780 340.220978
36.785 351.9021
36.790 359.256531
36.795 361.976074
36.800 352.683838
36.805 347.159668
36.810 360.530701
36.815 361.313843
36.820 370.828949
36.825 372.893646
36.830 368.657806
36.835 368.264252
36.840 365.026978
36.845 367.66391
36.850 380.460754
36.855 373.457184
36.860 367.965973
36.865 358.444305
36.870 367.799469
36.875 370.950623
36.880 368.776184
36.885 358.778046
36.890 354.008972
36.895 364.709869
36.900 381.12561
36.905 387.216522
36.910 384.683197
36.915 370.045837
36.920 365.676819
36.925 374.14267
36.930 386.309631
36.935 391.630981
36.940 383.886353
36.945 367.706757
36.950 356.698364
36.955 362.202087
36.960 366.192627
36.965 378.488251
36.970 379.95929
36.975 372.927521
36.980 371.130096
36.985 366.847961
36.990 377.708954
36.995 384.960144
37.000 384.421509
37.005 378.502747
37.010 370.538147
37.015 367.362335
37.020 367.577972
37.025 364.983063
37.030 368.307861
37.035 365.109802
37.040 369.515625
37.045 381.363861
37.050 379.615753
37.055 387.752411
37.060 378.302368
37.065 369.417816
37.070 365.982544
37.075 360.588074
37.080 364.688599
37.085 364.717499
37.090 368.470673
37.095 366.964355
37.100 367.199249
37.105 360.521057
37.110 367.260132
37.115 369.608551
37.120 372.299622
37.125 372.543762
37.130 357.458069
37.135 355.922791
37.140 359.303375
37.145 370.310791
37.150 381.282715
37.155 382.91803
37.160 382.942322
37.165 384.098999
37.170 390.720154
37.175 388.700775
37.180 382.01181
37.185 373.367371
37.190 370.219818
37.195 367.498871
37.200 373.457092
37.205 373.6922
37.210 363.492218
37.215 353.677551
37.220 349.161285
37.225 356.516052
37.230 372.863525
37.235 388.094482
37.240 393.677856
37.245 400.368866
37.250 397.922363
37.255 394.40686
37.260 384.50174
37.265 380.945679
37.270 372.480408
37.275 368.79303
37.280 369.988281
37.285 364.002747
37.290 364.011932
37.295 363.943176
37.300 365.472504
37.305 370.126099
37.310 371.904083
37.315 371.296295
37.320 365.654938
37.325 362.013977
37.330 356.127045
37.335 361.21225
37.340 365.136536
37.345 372.129669
37.350 379.239899
37.355 390.689301
37.360 391.371399
37.365 392.555878
37.370 378.217438
37.375 370.389557
37.380 382.024292
37.385 380.767029
37.390 390.451385
37.395 391.210785
37.400 392.212158
37.405 392.506958
37.410 383.269623
37.415 380.587585
37.420 379.596436
37.425 378.147644
37.430 378.138611
37.435 379.018433
37.440 398.192444
37.445 407.763855
37.450 402.881012
37.455 397.839264
37.460 390.669098
37.465 395.905579
37.470 398.040894
37.475 390.639679
37.480 382.890778
37.485 367.85791
37.490 371.196228
37.495 397.825439
37.500 421.36438
37.505 433.854584
37.510 427.968903
37.515 414.557861
37.520 411.619812
37.525 413.459656
37.530 391.142365
37.535 386.213776
37.540 377.089142
37.545 384.808472
37.550 391.004333
37.555 394.849518
37.560 401.766632
37.565 413.10257
37.570 420.948181
37.575 417.510254
37.580 416.880432
37.585 407.298401
37.590 404.291687
37.595 409.118164
37.600 408.969177
37.605 414.673065
37.610 415.424072
37.615 412.441864
37.620 416.446503
