!@!!GADDS PLOTSO FILE: Chi integration type
!@!!Title/SampleName: map-130
!@!!Comment: ?
!@!!User: Bruker Instrument Administrator
!@!!Site: University of Illinois Chicago
!@!!Frame: map-130_01_000.gfrm
!@!!Wavelengths    1.54184   1.54056   1.54439
!@!!Frame angles: 2Theta: 63.000 Omega: 50.000 Phi: 0.000 Chi: 90.000
!@!!Integration range: 2Theta: 53.000 to 73.000  Gamma: -105.000 to -75.000
!@!!Integration method: bin normalized
!@!N
!@!SS
!@!M
!@!L 0.0 0.0 0.0 0.0
!@!XDegrees
!@!YCounts
53.000 4.358088
53.005 4.236742
53.010 4.59827
53.015 4.811852
53.020 4.721538
53.025 4.95366
53.030 5.096629
53.035 5.221196
53.040 5.049995
53.045 4.637601
53.050 4.256951
53.055 4.015581
53.060 3.752026
53.065 3.820405
53.070 3.740528
53.075 3.652202
53.080 3.56615
53.085 3.771809
53.090 3.755901
53.095 3.849108
53.100 3.743059
53.105 3.636121
53.110 4.022324
53.115 4.037345
53.120 4.198446
53.125 4.249718
53.130 4.116978
53.135 4.070851
53.140 4.34445
53.145 4.38004
53.150 4.532282
53.155 4.241965
53.160 4.266636
53.165 4.247077
53.170 4.12346
53.175 3.972878
53.180 3.801601
53.185 3.494221
53.190 3.536829
53.195 3.619239
53.200 3.746409
53.205 3.716643
53.210 3.653094
53.215 3.917013
53.220 4.108124
53.225 4.231076
53.230 4.416126
53.235 4.396303
53.240 4.339798
53.245 4.617008
53.250 4.722574
53.255 4.954594
53.260 5.071987
53.265 5.40758
53.270 5.309984
53.275 5.470129
53.280 5.25447
53.285 5.118948
53.290 4.97481
53.295 4.780548
53.300 4.444908
53.305 4.34265
53.310 4.052202
53.315 3.933151
53.320 4.043479
53.325 4.224973
53.330 3.982939
53.335 4.052155
53.340 4.161854
53.345 4.309229
53.350 4.436174
53.355 4.198657
53.360 4.024663
53.365 4.287828
53.370 4.204491
53.375 4.19535
53.380 4.006919
53.385 4.008153
53.390 4.184458
53.395 4.231751
53.400 4.211228
53.405 4.438317
53.410 4.355256
53.415 4.142015
53.420 3.692275
53.425 3.682753
53.430 3.82284
53.435 3.54986
53.440 3.507903
53.445 3.656373
53.450 3.945307
53.455 4.314147
53.460 4.274715
53.465 3.960455
53.470 4.054499
53.475 4.045286
53.480 3.833756
53.485 3.940321
53.490 3.975754
53.495 4.229564
53.500 4.427697
53.505 4.351135
53.510 4.598925
53.515 4.83366
53.520 4.563655
53.525 4.173793
53.530 4.158494
53.535 4.269369
53.540 4.087379
53.545 3.919894
53.550 4.206697
53.555 4.410542
53.560 4.523888
53.565 4.443661
53.570 4.318629
53.575 4.652972
53.580 4.472283
53.585 4.094098
53.590 4.396143
53.595 4.361495
53.600 4.500152
53.605 4.473108
53.610 4.270304
53.615 4.359835
53.620 4.432145
53.625 4.148931
53.630 4.175737
53.635 4.132792
53.640 4.104448
53.645 3.8748
53.650 3.905844
53.655 3.857491
53.660 3.74221
53.665 3.899937
53.670 3.871474
53.675 4.131901
53.680 4.466107
53.685 4.427037
53.690 5.118708
53.695 5.150424
53.700 5.03915
53.705 5.288881
53.710 5.101647
53.715 5.126666
53.720 5.284781
53.725 4.731603
53.730 4.866273
53.735 4.870111
53.740 4.717744
53.745 4.790565
53.750 4.68502
53.755 4.871406
53.760 4.901035
53.765 4.843479
53.770 5.068754
53.775 5.249389
53.780 5.480853
53.785 5.395498
53.790 5.099528
53.795 5.296832
53.800 5.383383
53.805 5.188151
53.810 5.177339
53.815 5.337742
53.820 5.489489
53.825 5.370214
53.830 4.88915
53.835 4.867154
53.840 4.809651
53.845 4.564945
53.850 4.389225
53.855 4.52295
53.860 4.955524
53.865 5.215961
53.870 5.21416
53.875 5.384171
53.880 5.2567
53.885 4.90679
53.890 4.429629
53.895 3.822803
53.900 3.72429
53.905 3.618583
53.910 3.714825
53.915 3.957418
53.920 4.129041
53.925 4.469469
53.930 4.902981
53.935 5.012615
53.940 4.923758
53.945 4.75579
53.950 4.938922
53.955 5.091221
53.960 4.929935
53.965 4.931938
53.970 4.918582
53.975 4.882236
53.980 4.975425
53.985 4.862431
53.990 4.868206
53.995 4.935589
54.000 5.053705
54.005 5.150929
54.010 5.325414
54.015 4.92093
54.020 4.957903
54.025 5.033991
54.030 4.955632
54.035 4.736707
54.040 4.67611
54.045 4.417495
54.050 4.80493
54.055 4.728928
54.060 4.698384
54.065 4.880134
54.070 4.754669
54.075 4.685328
54.080 5.084609
54.085 5.007963
54.090 5.258395
54.095 5.100829
54.100 4.978577
54.105 5.071997
54.110 4.901791
54.115 4.907734
54.120 4.804241
54.125 4.879124
54.130 4.900651
54.135 4.883079
54.140 5.060869
54.145 5.432203
54.150 5.404582
54.155 5.27194
54.160 5.238714
54.165 5.358467
54.170 5.454619
54.175 5.412861
54.180 4.89551
54.185 5.029633
54.190 5.378404
54.195 5.451606
54.200 5.549645
54.205 5.76672
54.210 6.017351
54.215 5.835253
54.220 5.211959
54.225 5.12104
54.230 5.170392
54.235 5.393716
54.240 5.173188
54.245 4.919718
54.250 5.631154
54.255 5.832204
54.260 5.685567
54.265 5.647104
54.270 5.479281
54.275 5.663849
54.280 5.852487
54.285 5.671712
54.290 5.875878
54.295 5.894936
54.300 5.744041
54.305 5.649459
54.310 5.459662
54.315 5.343681
54.320 5.180143
54.325 5.020316
54.330 5.021918
54.335 4.849616
54.340 4.980381
54.345 5.328742
54.350 5.306994
54.355 5.306173
54.360 5.428515
54.365 5.318854
54.370 5.395805
54.375 4.95627
54.380 4.591788
54.385 4.920125
54.390 4.772018
54.395 4.884828
54.400 5.282824
54.405 5.571628
54.410 6.104069
54.415 6.02444
54.420 5.666107
54.425 5.579831
54.430 5.482457
54.435 5.073262
54.440 4.704783
54.445 4.450264
54.450 4.524021
54.455 4.588944
54.460 4.940398
54.465 5.20997
54.470 5.361572
54.475 5.55396
54.480 5.97385
54.485 6.564499
54.490 6.697659
54.495 6.216306
54.500 6.177854
54.505 6.228117
54.510 5.965215
54.515 5.699085
54.520 5.131397
54.525 5.148875
54.530 5.282118
54.535 5.24365
54.540 5.258297
54.545 5.006422
54.550 4.852524
54.555 5.180314
54.560 5.256999
54.565 5.276722
54.570 5.209809
54.575 5.176396
54.580 5.367393
54.585 5.517238
54.590 5.214341
54.595 5.102002
54.600 5.289666
54.605 5.395505
54.610 5.577277
54.615 5.539925
54.620 5.796872
54.625 6.254763
54.630 6.342277
54.635 6.069632
54.640 6.212699
54.645 6.264876
54.650 6.21751
54.655 5.745976
54.660 5.489248
54.665 5.614706
54.670 5.811231
54.675 5.696292
54.680 5.661548
54.685 5.613567
54.690 5.562521
54.695 5.357864
54.700 5.320175
54.705 5.232834
54.710 5.229607
54.715 5.256501
54.720 5.227663
54.725 5.200925
54.730 5.031862
54.735 4.823978
54.740 4.766806
54.745 4.68314
54.750 4.416934
54.755 4.650099
54.760 4.807702
54.765 5.044286
54.770 5.234454
54.775 5.374017
54.780 5.385052
54.785 5.695842
54.790 5.830066
54.795 5.70727
54.800 5.798295
54.805 5.429451
54.810 5.3742
54.815 5.297517
54.820 5.373476
54.825 5.321804
54.830 5.275774
54.835 5.363392
54.840 5.315343
54.845 5.493039
54.850 5.449743
54.855 5.491539
54.860 5.803488
54.865 5.966372
54.870 5.968135
54.875 6.189878
54.880 6.44799
54.885 6.519181
54.890 6.144751
54.895 6.196523
54.900 6.37345
54.905 6.215782
54.910 5.957327
54.915 6.144646
54.920 6.142642
54.925 6.263865
54.930 6.082262
54.935 6.313203
54.940 6.509336
54.945 6.590993
54.950 6.724519
54.955 6.880799
54.960 6.681397
54.965 6.6423
54.970 6.507342
54.975 6.304512
54.980 5.891122
54.985 5.409896
54.990 5.166955
54.995 5.05681
55.000 4.563024
55.005 4.29909
55.010 4.21861
55.015 4.221992
55.020 4.55238
55.025 4.817793
55.030 5.197401
55.035 5.351161
55.040 5.833984
55.045 6.119346
55.050 6.193033
55.055 5.9187
55.060 5.522624
55.065 5.268659
55.070 5.366949
55.075 5.438598
55.080 5.840679
55.085 5.811321
55.090 5.721113
55.095 6.087685
55.100 6.425872
55.105 6.497478
55.110 6.248339
55.115 5.865123
55.120 5.995527
55.125 6.158642
55.130 5.853796
55.135 5.775968
55.140 5.724195
55.145 5.60675
55.150 5.472264
55.155 5.526916
55.160 5.458131
55.165 5.302954
55.170 5.368635
55.175 5.459064
55.180 5.499645
55.185 5.666184
55.190 5.775929
55.195 6.095398
55.200 6.501398
55.205 6.113554
55.210 6.014178
55.215 6.451735
55.220 6.285093
55.225 6.03192
55.230 5.97911
55.235 5.874201
55.240 6.074152
55.245 6.008746
55.250 5.966968
55.255 6.069452
55.260 6.284152
55.265 6.22806
55.270 6.015121
55.275 5.988934
55.280 5.88813
55.285 5.620805
55.290 5.297047
55.295 5.63173
55.300 5.686581
55.305 5.724045
55.310 5.933055
55.315 6.034083
55.320 6.323349
55.325 6.342838
55.330 5.787628
55.335 5.95046
55.340 5.786662
55.345 5.537401
55.350 5.720075
55.355 6.206985
55.360 6.447277
55.365 6.577473
55.370 6.326611
55.375 6.620196
55.380 6.663333
55.385 6.621845
55.390 6.327934
55.395 6.594431
55.400 6.61788
55.405 6.405808
55.410 6.231225
55.415 6.069531
55.420 5.786555
55.425 5.98968
55.430 5.913712
55.435 5.977664
55.440 6.098617
55.445 6.13758
55.450 5.908237
55.455 5.673895
55.460 5.439932
55.465 4.799271
55.470 4.74811
55.475 5.036695
55.480 4.713216
55.485 5.007246
55.490 5.401175
55.495 5.214031
55.500 5.453063
55.505 5.477249
55.510 5.528298
55.515 5.90568
55.520 5.684356
55.525 5.367428
55.530 5.420007
55.535 5.61614
55.540 5.520336
55.545 5.609224
55.550 5.567918
55.555 5.588923
55.560 5.763728
55.565 6.070617
55.570 6.041886
55.575 6.198157
55.580 6.193616
55.585 6.143516
55.590 6.224603
55.595 6.072187
55.600 5.621529
55.605 5.497419
55.610 5.601474
55.615 5.518322
55.620 5.426286
55.625 5.169514
55.630 5.320887
55.635 5.581804
55.640 5.762224
55.645 5.376095
55.650 5.562906
55.655 5.817645
55.660 6.486672
55.665 6.644978
55.670 6.531786
55.675 6.818297
55.680 6.824677
55.685 6.55646
55.690 6.440436
55.695 6.127374
55.700 6.423812
55.705 6.41572
55.710 6.167027
55.715 6.416923
55.720 6.532452
55.725 6.612227
55.730 6.51538
55.735 6.50026
55.740 6.492372
55.745 6.143207
55.750 5.899211
55.755 6.080697
55.760 6.178741
55.765 6.288379
55.770 6.003355
55.775 6.172456
55.780 6.356623
55.785 6.35113
55.790 6.000227
55.795 5.815054
55.800 5.621426
55.805 5.604509
55.810 5.727841
55.815 5.978648
55.820 6.182905
55.825 6.544601
55.830 6.887094
55.835 7.180907
55.840 7.202781
55.845 7.300078
55.850 6.971147
55.855 6.480268
55.860 6.133379
55.865 6.085439
55.870 6.097064
55.875 5.900758
55.880 5.793638
55.885 6.234264
55.890 6.42814
55.895 6.332529
55.900 6.251798
55.905 6.134695
55.910 6.123022
55.915 6.124539
55.920 6.074222
55.925 6.179718
55.930 6.344293
55.935 6.378915
55.940 6.734004
55.945 7.260904
55.950 7.351452
55.955 7.515759
55.960 7.817893
55.965 7.713583
55.970 7.471798
55.975 7.22716
55.980 6.865937
55.985 6.489989
55.990 6.299565
55.995 6.032368
56.000 6.20667
56.005 6.313108
56.010 6.349808
56.015 6.121191
56.020 6.110332
56.025 6.157362
56.030 6.641544
56.035 6.600499
56.040 6.571336
56.045 6.324288
56.050 6.317104
56.055 6.784995
56.060 6.607459
56.065 6.109606
56.070 5.924466
56.075 5.888831
56.080 6.326222
56.085 6.395635
56.090 6.083408
56.095 5.977057
56.100 5.998434
56.105 6.088525
56.110 6.316817
56.115 6.617154
56.120 6.685561
56.125 7.188941
56.130 7.254922
56.135 7.50507
56.140 7.575102
56.145 7.208289
56.150 6.52838
56.155 6.245057
56.160 5.80481
56.165 5.81782
56.170 5.517722
56.175 5.231348
56.180 5.276868
56.185 5.594015
56.190 5.83599
56.195 6.144325
56.200 6.097538
56.205 6.215352
56.210 6.454385
56.215 6.914023
56.220 7.218974
56.225 7.065612
56.230 6.988194
56.235 6.946031
56.240 6.948684
56.245 6.969528
56.250 6.897672
56.255 6.631245
56.260 6.543242
56.265 6.755908
56.270 6.740297
56.275 6.694498
56.280 6.30543
56.285 5.94015
56.290 5.852093
56.295 5.81665
56.300 5.750341
56.305 5.910323
56.310 6.271172
56.315 6.460564
56.320 6.565665
56.325 6.618008
56.330 6.352329
56.335 6.209193
56.340 6.080691
56.345 5.757032
56.350 5.739998
56.355 5.416209
56.360 5.42926
56.365 5.662271
56.370 5.732178
56.375 5.728935
56.380 5.95294
56.385 6.278836
56.390 6.612198
56.395 6.859681
56.400 6.800105
56.405 6.948441
56.410 6.793012
56.415 6.785856
56.420 7.068776
56.425 6.866085
56.430 6.942412
56.435 6.660347
56.440 6.759591
56.445 6.521317
56.450 6.196935
56.455 5.835592
56.460 5.986763
56.465 5.778221
56.470 6.16737
56.475 5.971631
56.480 6.49749
56.485 6.525114
56.490 6.625328
56.495 6.902068
56.500 7.031879
56.505 6.718517
56.510 7.055979
56.515 6.969802
56.520 7.37724
56.525 7.488293
56.530 6.827929
56.535 6.787725
56.540 6.635247
56.545 6.478331
56.550 6.443913
56.555 6.044308
56.560 5.965092
56.565 6.199434
56.570 5.989889
56.575 5.959875
56.580 5.907881
56.585 6.248617
56.590 6.494874
56.595 6.747312
56.600 7.015037
56.605 7.286783
56.610 7.655606
56.615 7.659808
56.620 7.15755
56.625 6.660385
56.630 6.376734
56.635 6.139979
56.640 6.408541
56.645 6.454496
56.650 6.730123
56.655 6.97868
56.660 7.276336
56.665 7.422639
56.670 7.358811
56.675 6.779234
56.680 6.566807
56.685 6.237964
56.690 6.31563
56.695 6.221686
56.700 5.994497
56.705 6.183226
56.710 6.432265
56.715 6.467403
56.720 6.520049
56.725 6.264242
56.730 6.489218
56.735 6.854015
56.740 7.225771
56.745 7.391683
56.750 7.645156
56.755 8.062817
56.760 8.091787
56.765 7.86072
56.770 8.030697
56.775 7.63027
56.780 7.79375
56.785 7.570762
56.790 7.403669
56.795 7.543323
56.800 8.1052
56.805 8.257599
56.810 8.474242
56.815 8.225411
56.820 8.078172
56.825 8.26614
56.830 8.690774
56.835 8.531899
56.840 8.134163
56.845 8.019876
56.850 8.218433
56.855 8.560081
56.860 8.07301
56.865 7.306127
56.870 6.758821
56.875 6.538104
56.880 6.399859
56.885 6.157952
56.890 6.156638
56.895 6.489353
56.900 6.732802
56.905 6.981336
56.910 7.493963
56.915 7.680308
56.920 7.539288
56.925 7.269925
56.930 7.233591
56.935 7.073289
56.940 6.780847
56.945 6.562326
56.950 6.490478
56.955 6.676428
56.960 6.701619
56.965 6.727775
56.970 7.10351
56.975 7.289205
56.980 7.212461
56.985 7.232684
56.990 7.191192
56.995 7.339347
57.000 7.422658
57.005 7.793432
57.010 7.621956
57.015 7.521898
57.020 7.875957
57.025 8.060282
57.030 7.819975
57.035 7.63289
57.040 7.429576
57.045 7.664296
57.050 7.423371
57.055 7.013738
57.060 6.936192
57.065 6.996391
57.070 7.007813
57.075 6.819045
57.080 7.253751
57.085 7.279236
57.090 7.29425
57.095 7.35963
57.100 7.326296
57.105 7.237843
57.110 7.218598
57.115 6.947369
57.120 7.198617
57.125 7.596094
57.130 7.71232
57.135 7.891066
57.140 7.792931
57.145 7.650684
57.150 7.842274
57.155 7.981514
57.160 7.685867
57.165 7.572393
57.170 7.796986
57.175 8.12466
57.180 8.006592
57.185 7.497625
57.190 7.413174
57.195 7.161343
57.200 7.061498
57.205 6.864221
57.210 6.436338
57.215 6.059807
57.220 6.060651
57.225 5.765733
57.230 5.764023
57.235 5.522191
57.240 5.516757
57.245 5.959168
57.250 6.29722
57.255 6.440607
57.260 7.111516
57.265 7.714817
57.270 7.953689
57.275 7.878119
57.280 7.477985
57.285 7.552727
57.290 7.571048
57.295 7.272206
57.300 6.943365
57.305 6.828562
57.310 6.579594
57.315 7.333019
57.320 7.844131
57.325 7.609703
57.330 7.451012
57.335 7.414566
57.340 7.593496
57.345 7.863244
57.350 7.329022
57.355 7.22248
57.360 7.382222
57.365 7.738829
57.370 7.918149
57.375 7.782544
57.380 8.041648
57.385 7.910128
57.390 7.681962
57.395 8.053918
57.400 7.927475
57.405 7.578141
57.410 7.472663
57.415 7.284159
57.420 7.739834
57.425 8.011407
57.430 7.496799
57.435 7.486211
57.440 7.993267
57.445 8.400809
57.450 8.648088
57.455 8.304713
57.460 7.995986
57.465 8.028885
57.470 8.04137
57.475 7.591795
57.480 7.465331
57.485 7.397633
57.490 7.520784
57.495 7.706119
57.500 7.655366
57.505 7.591473
57.510 7.757051
57.515 7.616203
57.520 6.921542
57.525 6.634813
57.530 6.633181
57.535 6.929301
57.540 7.394782
57.545 7.567438
57.550 7.679226
57.555 8.218509
57.560 8.317268
57.565 8.368536
57.570 8.00542
57.575 7.425291
57.580 7.52978
57.585 7.420987
57.590 7.367451
57.595 7.221265
57.600 7.137452
57.605 7.226243
57.610 7.268251
57.615 7.170342
57.620 7.654471
57.625 7.933153
57.630 8.336095
57.635 8.5747
57.640 8.682866
57.645 8.956615
57.650 8.867229
57.655 8.770994
57.660 8.864262
57.665 8.836564
57.670 8.538715
57.675 8.222128
57.680 8.260004
57.685 8.429894
57.690 8.222829
57.695 7.706443
57.700 7.598825
57.705 7.814567
57.710 8.097329
57.715 7.857236
57.720 8.187063
57.725 8.142904
57.730 8.479944
57.735 8.561483
57.740 8.157045
57.745 7.823928
57.750 7.526298
57.755 7.429513
57.760 7.799978
57.765 7.590446
57.770 7.468011
57.775 7.752529
57.780 7.983472
57.785 8.004713
57.790 7.627511
57.795 7.454089
57.800 7.730076
57.805 7.538338
57.810 7.467355
57.815 7.67214
57.820 7.503975
57.825 7.382677
57.830 7.589417
57.835 7.360163
57.840 7.800567
57.845 7.740239
57.850 7.393319
57.855 7.604889
57.860 7.582527
57.865 7.474434
57.870 7.827454
57.875 7.686561
57.880 8.155038
57.885 8.386118
57.890 8.571528
57.895 8.660164
57.900 8.747948
57.905 8.614364
57.910 8.358697
57.915 8.111594
57.920 8.362908
57.925 8.599899
57.930 8.515646
57.935 8.15386
57.940 8.282906
57.945 8.465496
57.950 8.600262
57.955 8.511502
57.960 8.465075
57.965 8.844882
57.970 9.186273
57.975 9.159429
57.980 9.407489
57.985 9.323301
57.990 9.153261
57.995 9.12538
58.000 8.907077
58.005 8.368656
58.010 8.232846
58.015 7.85464
58.020 7.678952
58.025 7.620317
58.030 7.562182
58.035 7.833303
58.040 8.233262
58.045 8.43253
58.050 9.112019
58.055 9.280659
58.060 9.512061
58.065 9.846796
58.070 9.904108
58.075 9.636704
58.080 9.233839
58.085 8.687457
58.090 8.756114
58.095 8.485753
58.100 8.311902
58.105 8.538454
58.110 8.906381
58.115 9.359601
58.120 9.850574
58.125 9.777514
58.130 10.157825
58.135 9.887917
58.140 9.701186
58.145 9.850364
58.150 9.630742
58.155 9.473
58.160 9.519037
58.165 9.231962
58.170 9.463341
58.175 9.144018
58.180 8.736876
58.185 9.15029
58.190 8.83549
58.195 8.728893
58.200 8.809156
58.205 9.12739
58.210 9.523696
58.215 9.531992
58.220 9.432055
58.225 10.09755
58.230 10.278292
58.235 10.120254
58.240 9.738508
58.245 9.64518
58.250 9.901501
58.255 9.967634
58.260 9.843816
58.265 9.455014
58.270 9.387738
58.275 9.65783
58.280 9.797801
58.285 9.946948
58.290 9.731035
58.295 9.709721
58.300 9.782871
58.305 9.795576
58.310 9.318023
58.315 9.179741
58.320 8.818057
58.325 8.583633
58.330 8.712964
58.335 9.06151
58.340 8.980543
58.345 9.322195
58.350 9.80365
58.355 10.493254
58.360 10.811807
58.365 10.730502
58.370 10.942367
58.375 11.137059
58.380 10.887116
58.385 10.797751
58.390 10.248715
58.395 10.346195
58.400 10.82605
58.405 10.815147
58.410 10.910045
58.415 11.251155
58.420 11.43577
58.425 11.960909
58.430 12.149049
58.435 11.962206
58.440 12.136474
58.445 12.452576
58.450 13.039549
58.455 13.699022
58.460 13.99933
58.465 13.670198
58.470 13.540917
58.475 13.696142
58.480 12.952416
58.485 12.393486
58.490 11.822775
58.495 11.772003
58.500 12.316748
58.505 12.266645
58.510 12.477502
58.515 13.265561
58.520 13.796759
58.525 14.200755
58.530 14.025267
58.535 13.798202
58.540 14.228396
58.545 14.247912
58.550 14.420187
58.555 14.432502
58.560 15.261883
58.565 16.001394
58.570 16.881079
58.575 17.610506
58.580 18.113373
58.585 18.171537
58.590 18.272614
58.595 17.242918
58.600 16.908155
58.605 16.752893
58.610 16.212315
58.615 16.205744
58.620 16.314939
58.625 16.789543
58.630 17.993189
58.635 18.30917
58.640 18.458622
58.645 18.529217
58.650 18.190443
58.655 17.997665
58.660 17.823376
58.665 17.415562
58.670 17.57518
58.675 17.478754
58.680 17.580791
58.685 17.906073
58.690 18.171728
58.695 18.439951
58.700 18.640259
58.705 18.528286
58.710 18.464993
58.715 18.241419
58.720 18.273441
58.725 18.496773
58.730 18.176826
58.735 17.653738
58.740 17.49086
