!@!!GADDS PLOTSO FILE: Chi integration type
!@!!Title/SampleName: map-5a
!@!!Comment: ?
!@!!User: Bruker Instrument Administrator
!@!!Site: University of Illinois Chicago
!@!!Frame: map-5a_01_000.gfrm
!@!!Wavelengths    1.54184   1.54056   1.54439
!@!!Frame angles: 2Theta: 63.000 Omega: 50.000 Phi: 0.000 Chi: 90.000
!@!!Integration range: 2Theta: 53.000 to 73.000  Gamma: -105.000 to -75.000
!@!!Integration method: bin normalized
!@!N
!@!SS
!@!M
!@!L 0.0 0.0 0.0 0.0
!@!XDegrees
!@!YCounts
53.000 7.36463
53.005 7.056488
53.010 7.012746
53.015 6.868756
53.020 6.551141
53.025 6.443923
53.030 6.381493
53.035 6.453558
53.040 6.747513
53.045 6.322837
53.050 5.86634
53.055 6.033112
53.060 6.385819
53.065 6.303363
53.070 6.355178
53.075 6.479939
53.080 6.817082
53.085 6.91541
53.090 6.91046
53.095 7.130242
53.100 7.348545
53.105 7.375393
53.110 7.396829
53.115 7.523694
53.120 7.472177
53.125 7.244077
53.130 6.994021
53.135 6.887709
53.140 6.677061
53.145 6.361064
53.150 6.39675
53.155 6.307728
53.160 6.470774
53.165 6.382045
53.170 6.698253
53.175 6.924726
53.180 7.433598
53.185 8.369831
53.190 8.464458
53.195 8.203019
53.200 8.289698
53.205 8.378465
53.210 8.564377
53.215 7.896477
53.220 7.341711
53.225 7.345741
53.230 8.053551
53.235 7.989092
53.240 7.79643
53.245 7.639682
53.250 7.645156
53.255 8.011689
53.260 7.86301
53.265 7.29902
53.270 7.103559
53.275 6.925373
53.280 7.028468
53.285 7.202952
53.290 6.959643
53.295 6.930532
53.300 6.886896
53.305 7.211298
53.310 7.340215
53.315 7.132649
53.320 7.409199
53.325 7.335886
53.330 7.947681
53.335 7.873776
53.340 7.419474
53.345 7.641887
53.350 7.544915
53.355 7.204416
53.360 7.142039
53.365 6.815276
53.370 7.103813
53.375 7.237464
53.380 6.88234
53.385 6.899917
53.390 7.384406
53.395 7.774495
53.400 7.784343
53.405 7.648169
53.410 7.536926
53.415 8.046532
53.420 7.925885
53.425 7.45559
53.430 7.017433
53.435 7.017789
53.440 6.978964
53.445 6.802798
53.450 6.698689
53.455 7.190806
53.460 7.191268
53.465 7.276622
53.470 7.198714
53.475 7.423614
53.480 7.723954
53.485 7.263713
53.490 6.760044
53.495 6.818543
53.500 6.674442
53.505 7.00534
53.510 6.981849
53.515 6.860587
53.520 6.896135
53.525 6.976639
53.530 7.237207
53.535 7.345727
53.540 7.084824
53.545 7.345631
53.550 7.98032
53.555 8.150721
53.560 8.010014
53.565 8.039321
53.570 8.19539
53.575 8.333481
53.580 7.968051
53.585 7.311914
53.590 7.49953
53.595 7.817359
53.600 8.068086
53.605 7.879154
53.610 7.771764
53.615 7.998286
53.620 8.588237
53.625 8.28061
53.630 8.314056
53.635 7.989912
53.640 8.254873
53.645 8.478153
53.650 8.45401
53.655 8.371209
53.660 8.627192
53.665 8.392728
53.670 8.870024
53.675 9.103856
53.680 8.89405
53.685 8.665665
53.690 8.585309
53.695 8.743446
53.700 8.457126
53.705 8.12095
53.710 7.654374
53.715 7.468522
53.720 7.646714
53.725 7.212561
53.730 7.097195
53.735 6.849343
53.740 6.551096
53.745 6.840555
53.750 6.897911
53.755 6.567183
53.760 6.813787
53.765 7.317027
53.770 7.907111
53.775 8.1972
53.780 8.670651
53.785 9.048978
53.790 9.474679
53.795 9.298717
53.800 8.991985
53.805 8.505498
53.810 8.390403
53.815 8.296299
53.820 8.235229
53.825 8.201905
53.830 8.151604
53.835 8.002808
53.840 7.832113
53.845 7.58412
53.850 7.369824
53.855 7.436352
53.860 7.17609
53.865 6.813663
53.870 7.191288
53.875 7.629821
53.880 8.000031
53.885 8.277178
53.890 8.412962
53.895 8.5756
53.900 8.532132
53.905 8.469763
53.910 8.175613
53.915 7.644184
53.920 7.52653
53.925 7.768094
53.930 8.323483
53.935 8.442907
53.940 8.017588
53.945 7.737158
53.950 7.915242
53.955 7.764356
53.960 7.298254
53.965 7.167195
53.970 7.268981
53.975 7.53966
53.980 7.724536
53.985 7.42486
53.990 7.455493
53.995 7.692646
54.000 7.436039
54.005 7.467757
54.010 7.341342
54.015 7.534925
54.020 7.44856
54.025 7.287447
54.030 7.466863
54.035 7.681121
54.040 7.726906
54.045 7.940601
54.050 7.885225
54.055 7.927818
54.060 8.077264
54.065 8.094904
54.070 8.210019
54.075 8.25406
54.080 8.201065
54.085 8.061971
54.090 8.481271
54.095 8.757159
54.100 8.716909
54.105 8.693583
54.110 8.617547
54.115 8.849258
54.120 9.399031
54.125 9.194324
54.130 9.0278
54.135 9.264616
54.140 9.305869
54.145 8.893727
54.150 8.415115
54.155 8.187481
54.160 7.92095
54.165 7.937856
54.170 7.913376
54.175 7.949949
54.180 8.281927
54.185 8.720194
54.190 8.876237
54.195 9.282117
54.200 8.955296
54.205 9.123035
54.210 9.323321
54.215 9.125318
54.220 9.034743
54.225 8.883862
54.230 8.732618
54.235 9.539525
54.240 9.684992
54.245 9.68754
54.250 9.236046
54.255 8.556603
54.260 8.828807
54.265 8.712485
54.270 7.852923
54.275 7.26577
54.280 7.177258
54.285 7.763022
54.290 8.199928
54.295 8.409409
54.300 8.839672
54.305 9.126418
54.310 9.80283
54.315 10.468347
54.320 10.363121
54.325 10.167447
54.330 10.171604
54.335 10.240054
54.340 10.560865
54.345 10.616776
54.350 10.400599
54.355 10.285669
54.360 10.326641
54.365 9.641223
54.370 9.934469
54.375 9.769023
54.380 9.411552
54.385 9.352394
54.390 9.352703
54.395 9.390078
54.400 9.424726
54.405 8.911674
54.410 8.905234
54.415 9.143877
54.420 9.255328
54.425 9.199647
54.430 9.086406
54.435 8.773686
54.440 8.510772
54.445 8.561307
54.450 8.213535
54.455 8.322305
54.460 8.525731
54.465 8.939106
54.470 9.443147
54.475 9.678185
54.480 9.520723
54.485 9.196459
54.490 8.953315
54.495 8.928749
54.500 8.694839
54.505 8.042107
54.510 8.20572
54.515 8.539132
54.520 8.649262
54.525 8.664165
54.530 8.412487
54.535 8.388527
54.540 8.336167
54.545 8.092294
54.550 8.44243
54.555 8.416374
54.560 8.237391
54.565 8.347359
54.570 8.553072
54.575 8.825995
54.580 8.812917
54.585 8.615253
54.590 9.142246
54.595 9.43817
54.600 9.192215
54.605 9.167211
54.610 8.958773
54.615 8.961922
54.620 9.238069
54.625 9.159257
54.630 9.032266
54.635 9.255148
54.640 9.218654
54.645 8.851035
54.650 8.533911
54.655 8.36202
54.660 8.125607
54.665 8.278737
54.670 8.070969
54.675 8.186337
54.680 8.226475
54.685 8.404431
54.690 8.148995
54.695 8.200964
54.700 8.202078
54.705 8.313514
54.710 8.445803
54.715 8.468476
54.720 8.089602
54.725 8.51518
54.730 8.411892
54.735 8.14668
54.740 8.35755
54.745 8.650761
54.750 8.679635
54.755 8.900079
54.760 9.136628
54.765 9.559417
54.770 9.851096
54.775 9.662534
54.780 9.327785
54.785 9.500536
54.790 9.506968
54.795 9.303839
54.800 9.061818
54.805 9.237952
54.810 9.508463
54.815 9.77243
54.820 9.602448
54.825 9.421073
54.830 9.217484
54.835 9.126568
54.840 8.394876
54.845 8.425323
54.850 8.483035
54.855 8.469016
54.860 8.487255
54.865 8.408573
54.870 8.816838
54.875 9.331152
54.880 9.629723
54.885 9.762383
54.890 10.096648
54.895 10.647155
54.900 10.8661
54.905 10.455498
54.910 10.197088
54.915 9.758637
54.920 10.078504
54.925 9.933483
54.930 9.890357
54.935 10.015193
54.940 10.172864
54.945 10.025702
54.950 10.090272
54.955 9.739001
54.960 9.35533
54.965 8.693005
54.970 8.362956
54.975 8.294344
54.980 8.387902
54.985 8.444207
54.990 8.689942
54.995 8.822774
55.000 9.138934
55.005 9.389585
55.010 9.681184
55.015 9.785289
55.020 9.88649
55.025 9.791204
55.030 9.856017
55.035 9.697763
55.040 9.615197
55.045 9.556666
55.050 9.245713
55.055 9.184316
55.060 9.268234
55.065 9.312944
55.070 9.729961
55.075 9.670464
55.080 9.877279
55.085 9.84387
55.090 9.681439
55.095 9.825516
55.100 9.867073
55.105 9.723268
55.110 9.444997
55.115 9.116803
55.120 9.512428
55.125 9.96234
55.130 10.460713
55.135 10.268881
55.140 10.450509
55.145 10.880908
55.150 10.950582
55.155 10.775148
55.160 10.080588
55.165 9.498528
55.170 9.010283
55.175 8.724191
55.180 8.971664
55.185 9.347448
55.190 9.604469
55.195 9.477625
55.200 9.960691
55.205 10.547168
55.210 10.241375
55.215 9.580518
55.220 9.629937
55.225 9.689035
55.230 9.909696
55.235 9.654554
55.240 9.625422
55.245 9.961595
55.250 10.058576
55.255 10.000834
55.260 9.788463
55.265 9.982862
55.270 9.579909
55.275 9.542752
55.280 9.459031
55.285 9.325443
55.290 9.195899
55.295 9.366047
55.300 9.232031
55.305 9.508077
55.310 9.286679
55.315 9.128071
55.320 9.048352
55.325 9.043749
55.330 9.264029
55.335 9.475666
55.340 9.624296
55.345 10.124996
55.350 10.189472
55.355 10.177199
55.360 10.225575
55.365 9.88319
55.370 10.078428
55.375 10.242357
55.380 9.989525
55.385 9.868149
55.390 9.986104
55.395 10.137019
55.400 10.023655
55.405 9.518341
55.410 9.233352
55.415 9.483745
55.420 9.550625
55.425 9.066198
55.430 9.433306
55.435 9.725165
55.440 9.728045
55.445 9.969921
55.450 10.194577
55.455 10.338367
55.460 10.390697
55.465 10.052025
55.470 10.04434
55.475 10.381379
55.480 10.278348
55.485 10.395726
55.490 10.741224
55.495 10.57624
55.500 10.339355
55.505 10.154407
55.510 9.973291
55.515 9.889746
55.520 9.774939
55.525 9.646442
55.530 10.262294
55.535 10.891812
55.540 11.410292
55.545 11.439035
55.550 11.423664
55.555 11.457197
55.560 11.150832
55.565 10.685683
55.570 10.587761
55.575 9.871035
55.580 9.491317
55.585 9.234669
55.590 9.03396
55.595 9.230614
55.600 9.403417
55.605 9.065042
55.610 9.615568
55.615 9.744267
55.620 9.807943
55.625 9.782887
55.630 9.509583
55.635 9.055151
55.640 9.124539
55.645 8.993224
55.650 9.23105
55.655 9.037627
55.660 8.993337
55.665 9.375317
55.670 9.68591
55.675 9.525361
55.680 9.268222
55.685 9.231585
55.690 9.755708
55.695 10.083878
55.700 10.078027
55.705 9.978188
55.710 10.28005
55.715 10.527577
55.720 10.511691
55.725 10.641091
55.730 10.389849
55.735 10.716107
55.740 11.186809
55.745 11.897475
55.750 12.324836
55.755 12.593718
55.760 12.268573
55.765 12.232552
55.770 12.169021
55.775 11.540747
55.780 10.902989
55.785 10.439586
55.790 10.211733
55.795 10.04778
55.800 9.787042
55.805 9.622256
55.810 10.115662
55.815 10.272639
55.820 10.572283
55.825 10.930137
55.830 11.400048
55.835 11.824844
55.840 11.978226
55.845 11.556544
55.850 11.060896
55.855 10.640318
55.860 10.224826
55.865 10.000871
55.870 9.664289
55.875 9.868011
55.880 9.746459
55.885 10.216872
55.890 10.687619
55.895 10.956085
55.900 11.053354
55.905 11.179105
55.910 11.038438
55.915 11.331463
55.920 11.33771
55.925 10.938735
55.930 11.227974
55.935 11.181843
55.940 10.713328
55.945 10.658425
55.950 10.690642
55.955 10.273691
55.960 10.070292
55.965 9.632104
55.970 9.442915
55.975 9.71594
55.980 9.729925
55.985 9.748359
55.990 9.747961
55.995 9.873673
56.000 9.859874
56.005 10.083136
56.010 10.236656
56.015 9.773462
56.020 9.723877
56.025 9.735456
56.030 9.675945
56.035 9.684598
56.040 10.013852
56.045 10.18246
56.050 10.56846
56.055 10.865262
56.060 11.207477
56.065 11.604453
56.070 11.321177
56.075 10.989739
56.080 10.980865
56.085 10.987164
56.090 10.771317
56.095 10.829604
56.100 10.835671
56.105 11.100918
56.110 11.00255
56.115 10.667809
56.120 10.334301
56.125 9.871616
56.130 9.867052
56.135 9.839095
56.140 9.753554
56.145 9.774906
56.150 10.157639
56.155 10.467266
56.160 10.86772
56.165 10.860395
56.170 10.939527
56.175 10.891534
56.180 10.881024
56.185 10.875021
56.190 10.75513
56.195 10.477997
56.200 10.548647
56.205 10.7407
56.210 10.458501
56.215 10.491346
56.220 10.888076
56.225 11.29117
56.230 11.922644
56.235 11.823426
56.240 11.583987
56.245 11.953017
56.250 11.886358
56.255 11.133532
56.260 10.709093
56.265 10.225016
56.270 10.228304
56.275 10.80763
56.280 10.790865
56.285 11.017561
56.290 11.207382
56.295 10.843555
56.300 10.8094
56.305 10.888434
56.310 10.292087
56.315 10.420847
56.320 10.585363
56.325 11.253796
56.330 11.579
56.335 11.510224
56.340 11.629539
56.345 11.985989
56.350 11.693316
56.355 11.952587
56.360 11.471376
56.365 11.417212
56.370 11.307846
56.375 11.014904
56.380 11.125611
56.385 10.920302
56.390 10.207839
56.395 10.39703
56.400 10.461508
56.405 10.422409
56.410 11.007611
56.415 11.150552
56.420 11.167907
56.425 11.46903
56.430 11.564029
56.435 11.784954
56.440 11.70739
56.445 11.046566
56.450 10.794564
56.455 11.133524
56.460 11.229198
56.465 11.380168
56.470 11.274526
56.475 11.467185
56.480 12.231855
56.485 12.093569
56.490 11.982345
56.495 11.508527
56.500 11.443389
56.505 12.085503
56.510 12.251559
56.515 11.396843
56.520 11.767717
56.525 11.625093
56.530 12.047732
56.535 12.092875
56.540 11.503167
56.545 11.032684
56.550 10.892621
56.555 10.344171
56.560 10.280837
56.565 10.488758
56.570 10.119593
56.575 10.012827
56.580 10.617174
56.585 11.000698
56.590 11.408988
56.595 11.13286
56.600 10.94765
56.605 10.878369
56.610 10.884974
56.615 10.338614
56.620 10.212285
56.625 10.077712
56.630 10.338643
56.635 10.633488
56.640 11.140043
56.645 11.535716
56.650 11.760478
56.655 11.803815
56.660 12.293477
56.665 12.333582
56.670 12.094131
56.675 12.231089
56.680 12.286891
56.685 13.093526
56.690 13.399407
56.695 12.970103
56.700 12.634555
56.705 12.731662
56.710 12.277347
56.715 12.283467
56.720 11.941316
56.725 12.260502
56.730 12.726973
56.735 13.033028
56.740 12.828398
56.745 12.938071
56.750 12.819907
56.755 12.39809
56.760 12.238531
56.765 12.091107
56.770 12.172037
56.775 12.29283
56.780 12.317169
56.785 12.465832
56.790 12.540937
56.795 12.124343
56.800 12.314904
56.805 12.467876
56.810 12.560435
56.815 12.6296
56.820 12.704394
56.825 13.120125
56.830 13.34187
56.835 13.220586
56.840 13.361247
56.845 13.571244
56.850 13.205961
56.855 12.561339
56.860 12.244886
56.865 12.431695
56.870 12.354201
56.875 12.075572
56.880 11.991144
56.885 12.267656
56.890 12.661114
56.895 12.841845
56.900 12.533756
56.905 12.419256
56.910 12.600063
56.915 12.426682
56.920 12.513278
56.925 12.243171
56.930 11.724832
56.935 11.882324
56.940 11.579041
56.945 11.188992
56.950 10.846295
56.955 10.872894
56.960 10.997855
56.965 11.10091
56.970 11.032303
56.975 11.434548
56.980 11.687604
56.985 12.057456
56.990 12.145347
56.995 12.400624
57.000 12.42764
57.005 12.886201
57.010 13.078683
57.015 13.379066
57.020 13.216342
57.025 12.990346
57.030 12.728529
57.035 13.077369
57.040 12.294227
57.045 11.963575
57.050 11.494903
57.055 11.196974
57.060 11.10175
57.065 10.76052
57.070 10.980045
57.075 11.620854
57.080 11.642578
57.085 12.186561
57.090 12.357308
57.095 12.94108
57.100 13.049397
57.105 13.139725
57.110 12.907987
57.115 12.917724
57.120 12.664484
57.125 12.600474
57.130 12.322289
57.135 12.667597
57.140 12.612476
57.145 12.436582
57.150 12.029856
57.155 12.000503
57.160 12.295914
57.165 12.508653
57.170 13.000085
57.175 13.506301
57.180 13.719065
57.185 13.91704
57.190 14.20445
57.195 14.034179
57.200 13.739868
57.205 13.132175
57.210 12.358877
57.215 12.044878
57.220 12.084972
57.225 12.111718
57.230 12.195748
57.235 12.340307
57.240 12.651406
57.245 12.986044
57.250 13.41883
57.255 13.164365
57.260 12.545491
57.265 12.280073
57.270 12.361149
57.275 11.884123
57.280 11.576798
57.285 11.951265
57.290 12.572478
57.295 13.387854
57.300 13.09504
57.305 12.568059
57.310 12.82973
57.315 13.600001
57.320 13.544466
57.325 13.282648
57.330 13.112259
57.335 13.508344
57.340 13.81579
57.345 13.960931
57.350 13.523774
57.355 13.23303
57.360 13.116989
57.365 12.854916
57.370 12.408232
57.375 12.26294
57.380 11.876085
57.385 11.369998
57.390 11.013631
57.395 11.108652
57.400 11.57295
57.405 11.712699
57.410 11.151932
57.415 11.145554
57.420 11.42487
57.425 11.673618
57.430 11.762292
57.435 11.562921
57.440 11.827457
57.445 12.220541
57.450 12.227688
57.455 12.437416
57.460 12.222408
57.465 12.255286
57.470 12.041648
57.475 12.306804
57.480 12.381861
57.485 12.964614
57.490 12.773066
57.495 12.774673
57.500 12.676557
57.505 12.985862
57.510 12.544094
57.515 12.030062
57.520 12.520665
57.525 12.805331
57.530 12.936314
57.535 12.920467
57.540 12.801394
57.545 13.8908
57.550 14.105844
57.555 13.509466
57.560 13.4505
57.565 13.572055
57.570 13.819436
57.575 13.823377
57.580 13.485728
57.585 13.478699
57.590 13.186094
57.595 12.84094
57.600 12.753348
57.605 13.263549
57.610 13.012928
57.615 12.906502
57.620 12.984261
57.625 13.466491
57.630 13.841002
57.635 13.775203
57.640 13.08486
57.645 13.000863
57.650 13.104942
57.655 13.437496
57.660 13.113524
57.665 13.154109
57.670 12.500635
57.675 12.906279
57.680 12.811444
57.685 12.40601
57.690 12.199172
57.695 12.340766
57.700 12.241272
57.705 12.566404
57.710 11.991674
57.715 12.204364
57.720 12.131925
57.725 11.934071
57.730 11.869637
57.735 11.65168
57.740 11.960153
57.745 12.247148
57.750 12.298241
57.755 12.255908
57.760 12.202459
57.765 12.118865
57.770 12.534773
57.775 12.269138
57.780 12.072361
57.785 12.371023
57.790 12.3232
57.795 12.088077
57.800 11.901947
57.805 11.844975
57.810 12.153636
57.815 12.58336
57.820 12.210699
57.825 12.319399
57.830 12.811488
57.835 12.69649
57.840 12.657277
57.845 12.715976
57.850 12.479591
57.855 12.667326
57.860 12.997707
57.865 12.744304
57.870 12.856308
57.875 12.733947
57.880 12.312411
57.885 12.386189
57.890 12.134788
57.895 12.056002
57.900 12.276541
57.905 12.196117
57.910 12.006452
57.915 11.933445
57.920 11.901225
57.925 12.107996
57.930 11.860634
57.935 11.421003
57.940 11.301818
57.945 11.785247
57.950 11.853526
57.955 12.131227
57.960 11.998459
57.965 12.256393
57.970 13.051832
57.975 12.77747
57.980 12.906455
57.985 12.959374
57.990 12.658472
57.995 12.643996
58.000 12.575213
58.005 12.566153
58.010 13.120688
58.015 13.146138
58.020 13.30579
58.025 13.584795
58.030 13.696967
58.035 13.646759
58.040 13.585349
58.045 13.805155
58.050 13.406456
58.055 13.622186
58.060 13.579921
58.065 13.53028
58.070 13.28354
58.075 13.715477
58.080 13.078702
58.085 13.117437
58.090 12.778378
58.095 12.975587
58.100 12.960788
58.105 13.410085
58.110 13.028696
58.115 13.118831
58.120 13.121785
58.125 13.261684
58.130 12.94599
58.135 13.220234
58.140 13.236509
58.145 13.487347
58.150 14.019053
58.155 13.981579
58.160 14.186257
58.165 14.954192
58.170 14.393075
58.175 14.022324
58.180 13.972885
58.185 14.428047
58.190 14.08616
58.195 13.485033
58.200 12.659561
58.205 12.742653
58.210 12.491668
58.215 12.079785
58.220 11.762114
58.225 11.840499
58.230 11.805699
58.235 12.099752
58.240 12.310067
58.245 12.707373
58.250 13.149559
58.255 13.389836
58.260 13.811031
58.265 14.106005
58.270 14.088851
58.275 14.32848
58.280 14.429646
58.285 14.076726
58.290 13.598808
58.295 13.840341
58.300 14.093719
58.305 14.249625
58.310 14.367481
58.315 14.118169
58.320 13.888152
58.325 14.100187
58.330 13.828554
58.335 13.635791
58.340 13.247829
58.345 13.312108
58.350 13.724216
58.355 14.231773
58.360 14.419069
58.365 14.933419
58.370 15.286257
58.375 15.617023
58.380 15.397567
58.385 15.000797
58.390 14.776828
58.395 14.700893
58.400 13.904666
58.405 13.582038
58.410 12.927958
58.415 12.82534
58.420 12.774584
58.425 12.374002
58.430 12.351012
58.435 12.311302
58.440 12.58491
58.445 13.11859
58.450 13.014766
58.455 13.721346
58.460 14.151606
58.465 14.882515
58.470 15.05718
58.475 14.95265
58.480 15.451671
58.485 15.734103
58.490 15.39049
58.495 15.437327
58.500 14.963826
58.505 14.923247
58.510 14.754955
58.515 14.867374
58.520 14.998372
58.525 14.433855
58.530 14.034399
58.535 14.005055
58.540 14.024748
58.545 14.383693
58.550 14.063075
58.555 13.437504
58.560 13.438862
58.565 13.456584
58.570 13.458497
58.575 14.07828
58.580 14.386394
