!@!!GADDS PLOTSO FILE: Chi integration type
!@!!Title/SampleName: map-a5
!@!!Comment: ?
!@!!User: Bruker Instrument Administrator
!@!!Site: University of Illinois Chicago
!@!!Frame: map-a5_01_000.gfrm
!@!!Wavelengths    1.54184   1.54056   1.54439
!@!!Frame angles: 2Theta: 63.000 Omega: 50.000 Phi: 0.000 Chi: 90.000
!@!!Integration range: 2Theta: 53.000 to 73.000  Gamma: -105.000 to -75.000
!@!!Integration method: bin normalized
!@!N
!@!SS
!@!M
!@!L 0.0 0.0 0.0 0.0
!@!XDegrees
!@!YCounts
53.000 6.476531
53.005 6.50822
53.010 6.464435
53.015 6.391407
53.020 6.235026
53.025 6.304852
53.030 6.620261
53.035 6.594768
53.040 6.410247
53.045 6.666253
53.050 6.837137
53.055 6.901469
53.060 7.028604
53.065 6.977069
53.070 7.15178
53.075 7.599939
53.080 7.583002
53.085 7.704631
53.090 7.927924
53.095 7.958167
53.100 7.701629
53.105 8.099969
53.110 8.061577
53.115 8.05989
53.120 7.816115
53.125 7.64813
53.130 7.770443
53.135 7.300133
53.140 6.888005
53.145 6.876744
53.150 7.263721
53.155 7.458458
53.160 6.868482
53.165 6.648956
53.170 6.810654
53.175 6.543415
53.180 6.117977
53.185 5.713981
53.190 5.73485
53.195 6.057245
53.200 5.955809
53.205 5.925841
53.210 6.216264
53.215 6.101331
53.220 6.182614
53.225 5.977152
53.230 6.359114
53.235 6.764966
53.240 6.832449
53.245 6.704071
53.250 7.400192
53.255 7.818043
53.260 8.06472
53.265 7.834769
53.270 8.034599
53.275 8.504061
53.280 9.078364
53.285 9.049745
53.290 9.072991
53.295 9.226341
53.300 9.293422
53.305 9.247234
53.310 9.128986
53.315 8.996814
53.320 8.913328
53.325 8.829659
53.330 8.561751
53.335 8.359268
53.340 7.464584
53.345 7.082187
53.350 7.267593
53.355 6.88799
53.360 6.978842
53.365 7.006793
53.370 7.148144
53.375 7.761856
53.380 7.644704
53.385 7.302233
53.390 7.656834
53.395 7.582661
53.400 7.537833
53.405 7.621412
53.410 7.292894
53.415 7.407189
53.420 7.22528
53.425 6.984263
53.430 7.361306
53.435 7.324499
53.440 7.125013
53.445 7.268928
53.450 7.56692
53.455 8.072002
53.460 8.003543
53.465 7.818171
53.470 7.928683
53.475 7.796245
53.480 7.695506
53.485 7.616577
53.490 7.317826
53.495 7.862076
53.500 8.027394
53.505 8.352403
53.510 8.276688
53.515 8.035532
53.520 8.206362
53.525 8.529408
53.530 8.078039
53.535 8.147488
53.540 8.159568
53.545 8.703903
53.550 8.755177
53.555 8.81453
53.560 8.587976
53.565 8.250868
53.570 8.422136
53.575 8.499346
53.580 8.697807
53.585 8.696719
53.590 8.346626
53.595 8.367743
53.600 8.567738
53.605 8.263905
53.610 8.085267
53.615 8.250634
53.620 8.133057
53.625 8.139279
53.630 8.005823
53.635 8.129344
53.640 8.336076
53.645 7.796287
53.650 7.379206
53.655 6.802752
53.660 6.54427
53.665 6.65057
53.670 6.254514
53.675 6.391341
53.680 6.564591
53.685 6.895188
53.690 7.316885
53.695 7.197507
53.700 7.284471
53.705 7.344825
53.710 7.117604
53.715 7.483069
53.720 7.707503
53.725 7.752774
53.730 7.947217
53.735 8.035242
53.740 8.363957
53.745 8.241656
53.750 7.983888
53.755 7.68831
53.760 8.29152
53.765 8.016762
53.770 7.800402
53.775 7.531501
53.780 7.566466
53.785 7.400753
53.790 7.33228
53.795 7.218297
53.800 7.459506
53.805 7.309099
53.810 7.149849
53.815 7.309824
53.820 7.429163
53.825 7.174184
53.830 6.898768
53.835 6.931555
53.840 7.065229
53.845 7.448477
53.850 7.314487
53.855 7.344238
53.860 7.4946
53.865 7.527431
53.870 7.177085
53.875 6.894512
53.880 7.077674
53.885 7.242851
53.890 7.534675
53.895 7.626885
53.900 7.730415
53.905 7.988474
53.910 7.667589
53.915 7.623526
53.920 7.669069
53.925 7.449547
53.930 7.134612
53.935 7.2275
53.940 7.251028
53.945 7.598616
53.950 7.665674
53.955 7.529569
53.960 8.067239
53.965 8.432947
53.970 8.332977
53.975 8.500019
53.980 8.279792
53.985 8.096015
53.990 8.261007
53.995 8.238193
54.000 8.340909
54.005 8.425861
54.010 8.793884
54.015 8.919949
54.020 9.214041
54.025 9.288014
54.030 9.343053
54.035 9.89029
54.040 9.817993
54.045 9.813831
54.050 10.066153
54.055 9.478385
54.060 9.128679
54.065 8.705817
54.070 8.023799
54.075 7.692269
54.080 7.061548
54.085 6.590713
54.090 6.836584
54.095 7.037611
54.100 6.962958
54.105 7.053121
54.110 7.398385
54.115 7.743417
54.120 7.887696
54.125 7.798852
54.130 7.724905
54.135 8.044369
54.140 8.327873
54.145 8.262859
54.150 8.131365
54.155 8.026035
54.160 8.116637
54.165 8.273862
54.170 7.857492
54.175 8.089028
54.180 8.260728
54.185 8.802017
54.190 9.043385
54.195 8.716453
54.200 9.220614
54.205 9.494025
54.210 9.455683
54.215 9.226529
54.220 9.05688
54.225 9.369164
54.230 9.776052
54.235 9.557754
54.240 9.546835
54.245 9.423779
54.250 9.483027
54.255 9.455792
54.260 9.116934
54.265 8.986108
54.270 9.033217
54.275 8.775766
54.280 8.827667
54.285 9.108492
54.290 8.801678
54.295 8.464378
54.300 8.304282
54.305 8.408845
54.310 8.602243
54.315 8.621373
54.320 8.815182
54.325 9.243359
54.330 9.715463
54.335 9.786298
54.340 9.426356
54.345 9.535545
54.350 9.364995
54.355 9.44617
54.360 8.960039
54.365 8.861118
54.370 8.835352
54.375 8.998717
54.380 8.824856
54.385 8.129778
54.390 8.156149
54.395 8.173096
54.400 7.954211
54.405 7.932182
54.410 8.172648
54.415 8.611588
54.420 8.632149
54.425 8.606403
54.430 8.588097
54.435 8.571947
54.440 8.537024
54.445 8.03383
54.450 8.093235
54.455 8.477004
54.460 8.398433
54.465 8.607522
54.470 8.942009
54.475 9.191835
54.480 9.257215
54.485 9.376263
54.490 9.207601
54.495 8.99181
54.500 8.691065
54.505 8.03842
54.510 7.685096
54.515 7.610651
54.520 7.081157
54.525 7.098752
54.530 7.26125
54.535 7.407062
54.540 7.734283
54.545 8.256814
54.550 8.591046
54.555 8.862247
54.560 9.042897
54.565 9.131197
54.570 9.082838
54.575 8.905541
54.580 9.02104
54.585 8.872362
54.590 8.655
54.595 8.648826
54.600 8.869356
54.605 9.17316
54.610 9.363186
54.615 9.115352
54.620 9.218785
54.625 9.703915
54.630 9.715074
54.635 9.555963
54.640 9.364412
54.645 8.847521
54.650 8.880707
54.655 8.542521
54.660 7.936792
54.665 7.669611
54.670 7.659489
54.675 7.634921
54.680 7.806241
54.685 8.251768
54.690 8.998933
54.695 9.359285
54.700 9.314185
54.705 9.206849
54.710 9.606348
54.715 9.320526
54.720 8.867899
54.725 8.39298
54.730 8.185996
54.735 8.213414
54.740 8.7205
54.745 9.063595
54.750 9.350007
54.755 9.270094
54.760 9.829357
54.765 9.672651
54.770 9.762032
54.775 9.238157
54.780 8.689947
54.785 8.914371
54.790 8.662226
54.795 8.484024
54.800 8.502314
54.805 8.911812
54.810 8.945593
54.815 8.62168
54.820 8.000742
54.825 7.902832
54.830 7.82988
54.835 8.155768
54.840 8.370244
54.845 8.893435
54.850 9.824123
54.855 10.239635
54.860 10.216973
54.865 10.041266
54.870 9.739652
54.875 9.491132
54.880 8.922384
54.885 8.747392
54.890 8.950223
54.895 9.866065
54.900 10.213401
54.905 10.536151
54.910 10.710751
54.915 10.454218
54.920 10.055101
54.925 10.202602
54.930 9.943764
54.935 9.938646
54.940 9.575868
54.945 9.719436
54.950 10.559463
54.955 11.032401
54.960 10.401014
54.965 9.997777
54.970 9.903241
54.975 9.703039
54.980 9.098745
54.985 8.603486
54.990 8.466298
54.995 8.636212
55.000 8.972462
55.005 9.188939
55.010 9.259682
55.015 9.444571
55.020 9.479922
55.025 9.706053
55.030 9.722627
55.035 9.313309
55.040 9.32303
55.045 9.442
55.050 9.61767
55.055 9.499961
55.060 9.742688
55.065 9.77419
55.070 9.644098
55.075 9.336708
55.080 9.050266
55.085 8.713377
55.090 8.422997
55.095 8.191878
55.100 8.586809
55.105 9.309108
55.110 10.066179
55.115 10.226919
55.120 10.677275
55.125 10.503191
55.130 10.638863
55.135 10.54751
55.140 10.243174
55.145 10.555429
55.150 10.852626
55.155 10.685508
55.160 10.777734
55.165 10.418139
55.170 10.023084
55.175 9.662953
55.180 9.231766
55.185 9.086581
55.190 9.299728
55.195 9.843644
55.200 10.112981
55.205 10.383456
55.210 10.695162
55.215 10.793567
55.220 10.821727
55.225 10.547116
55.230 10.245784
55.235 10.33898
55.240 10.215557
55.245 10.026175
55.250 9.849546
55.255 9.819658
55.260 10.047738
55.265 9.996129
55.270 10.546124
55.275 11.008978
55.280 10.970989
55.285 11.004358
55.290 10.746427
55.295 10.428551
55.300 9.957817
55.305 8.922729
55.310 8.437617
55.315 8.303246
55.320 8.418895
55.325 9.167633
55.330 9.194777
55.335 9.425715
55.340 10.386501
55.345 10.413613
55.350 10.467439
55.355 10.831344
55.360 10.583441
55.365 10.388414
55.370 10.03535
55.375 9.651045
55.380 10.01799
55.385 10.607834
55.390 10.375627
55.395 11.150782
55.400 11.729276
55.405 12.080336
55.410 12.189895
55.415 11.986122
55.420 11.680914
55.425 11.325023
55.430 10.524704
55.435 10.488608
55.440 10.375837
55.445 10.256598
55.450 10.39798
55.455 10.256483
55.460 10.444955
55.465 10.705336
55.470 10.633967
55.475 10.743832
55.480 10.663623
55.485 10.242898
55.490 10.195592
55.495 9.883686
55.500 9.951348
55.505 9.650841
55.510 9.209704
55.515 9.238349
55.520 9.626341
55.525 9.955078
55.530 10.545568
55.535 10.736081
55.540 10.802173
55.545 11.122458
55.550 11.146202
55.555 10.533725
55.560 10.479996
55.565 10.456277
55.570 10.218863
55.575 10.350913
55.580 10.500607
55.585 10.850124
55.590 11.419146
55.595 11.258087
55.600 11.126266
55.605 10.714817
55.610 10.635794
55.615 10.359972
55.620 10.317089
55.625 10.406441
55.630 10.539333
55.635 10.677572
55.640 11.334203
55.645 11.517966
55.650 11.833753
55.655 11.637271
55.660 11.446868
55.665 10.848292
55.670 11.00182
55.675 10.549441
55.680 10.250289
55.685 9.776043
55.690 9.593396
55.695 9.737808
55.700 10.270068
55.705 10.278674
55.710 10.636305
55.715 10.804617
55.720 11.192695
55.725 11.273563
55.730 10.904576
55.735 10.217937
55.740 10.105012
55.745 9.807748
55.750 9.430729
55.755 9.274504
55.760 9.35796
55.765 9.931797
55.770 10.486961
55.775 10.048919
55.780 9.921938
55.785 9.99381
55.790 9.948198
55.795 9.527848
55.800 9.040888
55.805 8.977118
55.810 9.395538
55.815 9.694891
55.820 9.929906
55.825 10.243329
55.830 10.802621
55.835 10.75761
55.840 11.293987
55.845 11.211921
55.850 10.671036
55.855 9.939258
55.860 9.539941
55.865 9.493299
55.870 9.233552
55.875 8.514938
55.880 9.343062
55.885 10.168696
55.890 10.727646
55.895 10.940407
55.900 10.955058
55.905 11.533086
55.910 11.897027
55.915 11.200542
55.920 11.096608
55.925 11.236309
55.930 11.359237
55.935 12.075006
55.940 11.999246
55.945 11.255402
55.950 11.036058
55.955 11.165318
55.960 11.018921
55.965 10.364703
55.970 9.868355
55.975 9.940842
55.980 10.607361
55.985 10.758465
55.990 10.485809
55.995 11.467068
56.000 12.059869
56.005 11.566896
56.010 11.426435
56.015 11.613854
56.020 11.405411
56.025 11.596563
56.030 10.499365
56.035 10.271781
56.040 10.73926
56.045 10.97378
56.050 11.322712
56.055 11.189685
56.060 11.025806
56.065 11.104096
56.070 10.920043
56.075 10.427213
56.080 9.983312
56.085 9.864415
56.090 10.196465
56.095 9.911709
56.100 10.226809
56.105 10.760324
56.110 11.381631
56.115 11.51049
56.120 11.790214
56.125 11.929649
56.130 12.119845
56.135 11.634303
56.140 11.136346
56.145 10.797211
56.150 11.078461
56.155 11.08457
56.160 10.728788
56.165 10.726478
56.170 11.017412
56.175 11.341837
56.180 10.952479
56.185 9.769693
56.190 9.035658
56.195 9.408566
56.200 9.944112
56.205 9.949965
56.210 9.79783
56.215 10.036793
56.220 10.720939
56.225 10.734811
56.230 10.337583
56.235 10.061184
56.240 9.725751
56.245 9.981168
56.250 9.668887
56.255 9.829647
56.260 10.166074
56.265 10.224445
56.270 10.512325
56.275 10.909541
56.280 11.025156
56.285 11.615571
56.290 11.744454
56.295 11.935381
56.300 11.711166
56.305 11.638594
56.310 11.42258
56.315 10.927006
56.320 10.642488
56.325 10.369466
56.330 10.376896
56.335 10.078649
56.340 9.769513
56.345 9.989243
56.350 9.565292
56.355 9.415286
56.360 8.901884
56.365 9.073634
56.370 9.412763
56.375 9.369764
56.380 9.39081
56.385 10.061074
56.390 10.229063
56.395 10.524658
56.400 10.295276
56.405 10.336981
56.410 10.636614
56.415 10.491915
56.420 10.795449
56.425 11.033521
56.430 11.310168
56.435 11.532256
56.440 11.673148
56.445 12.018951
56.450 12.344875
56.455 12.158355
56.460 12.694659
56.465 12.752903
56.470 12.233872
56.475 12.087492
56.480 11.562478
56.485 11.277754
56.490 11.599489
56.495 11.139015
56.500 11.075109
56.505 11.499772
56.510 11.153795
56.515 11.023496
56.520 11.143801
56.525 10.787447
56.530 11.013888
56.535 11.47671
56.540 11.949264
56.545 12.195292
56.550 12.308922
56.555 12.487444
56.560 12.542533
56.565 12.240422
56.570 11.57794
56.575 10.86214
56.580 10.932793
56.585 10.619884
56.590 10.625355
56.595 11.197994
56.600 11.663408
56.605 11.508574
56.610 11.515035
56.615 11.695741
56.620 12.124283
56.625 12.203767
56.630 11.502944
56.635 11.43443
56.640 11.817945
56.645 11.675045
56.650 11.542475
56.655 11.217495
56.660 10.866672
56.665 10.920388
56.670 10.438289
56.675 10.851525
56.680 11.34219
56.685 11.510369
56.690 11.986598
56.695 12.430212
56.700 12.686079
56.705 12.80156
56.710 12.327819
56.715 12.339272
56.720 12.345986
56.725 12.13567
56.730 11.780744
56.735 11.750349
56.740 11.853105
56.745 11.767962
56.750 11.571465
56.755 11.54364
56.760 11.289185
56.765 11.478999
56.770 11.736225
56.775 12.032103
56.780 12.235413
56.785 11.96355
56.790 11.567509
56.795 11.799916
56.800 11.368088
56.805 11.137868
56.810 11.034863
56.815 10.83712
56.820 10.994095
56.825 11.168983
56.830 10.843984
56.835 11.532605
56.840 12.012992
56.845 11.766323
56.850 12.017294
56.855 12.098082
56.860 12.360776
56.865 12.480214
56.870 12.274785
56.875 12.026318
56.880 12.556859
56.885 12.901345
56.890 12.902409
56.895 13.108397
56.900 13.56157
56.905 13.450936
56.910 13.211981
56.915 12.892509
56.920 12.963161
56.925 13.171177
56.930 12.978059
56.935 12.554366
56.940 12.902392
56.945 13.335421
56.950 13.095517
56.955 12.85951
56.960 12.808913
56.965 12.505433
56.970 12.227208
56.975 11.34267
56.980 11.340117
56.985 11.40451
56.990 10.917147
56.995 10.932642
57.000 11.160175
57.005 11.673388
57.010 12.106795
57.015 12.411449
57.020 12.619043
57.025 13.291795
57.030 13.621304
57.035 13.356104
57.040 13.068875
57.045 12.323053
57.050 11.760042
57.055 11.504236
57.060 10.90152
57.065 10.568292
57.070 10.699291
57.075 11.492662
57.080 12.403883
57.085 12.833014
57.090 12.859088
57.095 12.932631
57.100 13.048244
57.105 12.716904
57.110 11.84856
57.115 11.811028
57.120 11.75034
57.125 11.618976
57.130 11.223326
57.135 11.090647
57.140 11.29181
57.145 11.332183
57.150 10.834128
57.155 10.930839
57.160 11.205162
57.165 11.432799
57.170 11.620158
57.175 11.697583
57.180 11.803208
57.185 11.879208
57.190 11.91547
57.195 12.167461
57.200 12.173615
57.205 11.948286
57.210 11.803591
57.215 11.457766
57.220 11.197882
57.225 10.544887
57.230 10.198299
57.235 10.168825
57.240 10.508417
57.245 10.668553
57.250 10.68297
57.255 10.796422
57.260 11.35772
57.265 11.737514
57.270 11.911173
57.275 11.893613
57.280 11.755855
57.285 11.748411
57.290 12.209394
57.295 12.183647
57.300 11.782513
57.305 11.791868
57.310 11.641253
57.315 11.490946
57.320 11.657625
57.325 11.299013
57.330 11.333378
57.335 11.673841
57.340 11.83165
57.345 11.933503
57.350 12.477322
57.355 12.649817
57.360 12.944856
57.365 13.30055
57.370 13.411726
57.375 13.100434
57.380 13.344852
57.385 12.934111
57.390 13.042655
57.395 13.131835
57.400 13.032532
57.405 12.788385
57.410 12.817348
57.415 12.834001
57.420 13.562792
57.425 13.412657
57.430 13.027117
57.435 12.67241
57.440 12.803384
57.445 12.882586
57.450 12.958561
57.455 13.283499
57.460 13.053498
57.465 13.035658
57.470 13.197281
57.475 12.492536
57.480 11.948292
57.485 11.351603
57.490 10.742867
57.495 11.328169
57.500 11.431138
57.505 12.042973
57.510 12.853983
57.515 12.836948
57.520 13.077031
57.525 13.382478
57.530 12.98487
57.535 12.785819
57.540 12.242176
57.545 12.253364
57.550 12.783258
57.555 12.623044
57.560 12.813423
57.565 13.260147
57.570 13.275048
57.575 13.112095
57.580 12.972171
57.585 13.02602
57.590 12.854371
57.595 12.218871
57.600 12.078169
57.605 11.786333
57.610 11.955456
57.615 12.063824
57.620 11.641248
57.625 11.911429
57.630 12.354677
57.635 12.186478
57.640 12.603961
57.645 12.338037
57.650 12.0712
57.655 12.146656
57.660 11.944862
57.665 11.698092
57.670 11.727471
57.675 11.285522
57.680 11.586561
57.685 11.610639
57.690 11.972218
57.695 12.294193
57.700 12.333445
57.705 12.403854
57.710 12.949628
57.715 12.860385
57.720 13.497285
57.725 13.198336
57.730 13.093713
57.735 13.188829
57.740 13.499903
57.745 13.076018
57.750 13.207224
57.755 13.105249
57.760 12.97031
57.765 12.885745
57.770 13.082977
57.775 13.158645
57.780 13.247659
57.785 13.409915
57.790 13.336228
57.795 13.559496
57.800 13.224485
57.805 12.860672
57.810 12.712685
57.815 13.144066
57.820 12.623493
57.825 12.133475
57.830 11.883786
57.835 12.20895
57.840 12.376268
57.845 12.201273
57.850 12.40167
57.855 13.031444
57.860 13.747118
57.865 14.658139
57.870 14.569918
57.875 14.496782
57.880 14.464001
57.885 13.830782
57.890 13.650259
57.895 13.167731
57.900 12.198025
57.905 11.924298
57.910 11.967196
57.915 12.099421
57.920 12.315525
57.925 12.15151
57.930 12.196744
57.935 12.11534
57.940 12.307561
57.945 11.896605
57.950 12.0296
57.955 11.998368
57.960 12.335633
57.965 12.761905
57.970 13.735929
57.975 14.221067
57.980 14.700412
57.985 14.904616
57.990 14.915777
57.995 14.751177
58.000 14.572762
58.005 14.230033
58.010 13.944342
58.015 13.496894
58.020 13.02096
58.025 12.583685
58.030 12.487205
58.035 12.894321
58.040 12.806898
58.045 12.81185
58.050 13.015474
58.055 13.673571
58.060 13.774533
58.065 13.519231
58.070 12.925082
58.075 12.955264
58.080 13.331403
58.085 13.36717
58.090 13.055403
58.095 13.499734
58.100 13.975703
58.105 14.133333
58.110 13.570843
58.115 13.803943
58.120 14.006416
58.125 14.043848
58.130 13.716458
58.135 13.624144
58.140 13.842285
58.145 14.283422
58.150 13.675034
58.155 13.609372
58.160 13.475939
58.165 13.522108
58.170 13.712672
58.175 13.982632
58.180 13.414904
58.185 13.591952
58.190 13.706944
58.195 13.948894
58.200 13.973289
58.205 14.081109
58.210 14.167454
58.215 14.135689
58.220 13.958422
58.225 13.688066
58.230 13.692985
58.235 13.835183
58.240 13.680508
58.245 14.030072
58.250 14.236798
58.255 14.087395
58.260 13.994534
58.265 13.405929
58.270 13.115208
58.275 12.411824
58.280 11.501981
58.285 11.63201
58.290 11.89074
58.295 12.329666
58.300 12.93502
58.305 13.364906
58.310 13.866193
58.315 14.904669
58.320 14.755107
58.325 14.510766
58.330 14.020556
58.335 13.729764
58.340 12.923742
58.345 12.955476
58.350 12.40387
58.355 12.559048
58.360 12.709737
58.365 12.708676
58.370 12.681845
58.375 12.732568
58.380 12.060308
58.385 12.537946
58.390 12.778714
58.395 12.828112
58.400 12.840081
58.405 13.10055
58.410 13.730062
58.415 14.336516
58.420 14.190082
58.425 13.837176
58.430 13.564258
58.435 13.778793
58.440 13.897618
58.445 13.649942
58.450 13.223059
58.455 13.123865
58.460 13.451908
58.465 13.995163
58.470 13.859119
58.475 13.631004
58.480 13.752141
58.485 13.847285
58.490 13.817043
58.495 13.641862
58.500 13.060758
58.505 12.828307
58.510 12.559589
58.515 12.884253
58.520 13.117251
58.525 12.777659
58.530 12.989698
58.535 12.937504
58.540 13.238577
58.545 13.38952
58.550 13.04373
58.555 12.947423
58.560 13.596024
58.565 13.94211
58.570 14.26626
