!@!!GADDS PLOTSO FILE: Chi integration type
!@!!Title/SampleName: map-c4
!@!!Comment: ?
!@!!User: Bruker Instrument Administrator
!@!!Site: University of Illinois Chicago
!@!!Frame: map-c4_01_000.gfrm
!@!!Wavelengths    1.54184   1.54056   1.54439
!@!!Frame angles: 2Theta: 63.000 Omega: 50.000 Phi: 0.000 Chi: 90.000
!@!!Integration range: 2Theta: 53.000 to 73.000  Gamma: -105.000 to -75.000
!@!!Integration method: bin normalized
!@!N
!@!SS
!@!M
!@!L 0.0 0.0 0.0 0.0
!@!XDegrees
!@!YCounts
53.000 7.577328
53.005 7.317295
53.010 7.228644
53.015 6.880513
53.020 7.244537
53.025 7.54359
53.030 7.229811
53.035 7.238553
53.040 7.413939
53.045 7.480228
53.050 8.030569
53.055 8.054432
53.060 8.258142
53.065 8.618402
53.070 8.182031
53.075 8.22474
53.080 8.959126
53.085 9.116428
53.090 9.424941
53.095 9.561282
53.100 9.527983
53.105 9.641936
53.110 9.168984
53.115 8.674049
53.120 8.694495
53.125 8.620376
53.130 8.898598
53.135 9.069361
53.140 9.535957
53.145 9.70584
53.150 9.553355
53.155 9.445994
53.160 9.372936
53.165 9.077229
53.170 8.951095
53.175 8.39054
53.180 8.578541
53.185 8.315532
53.190 7.939458
53.195 8.046784
53.200 8.212574
53.205 8.298737
53.210 8.307754
53.215 7.968283
53.220 8.142081
53.225 8.151314
53.230 7.919428
53.235 7.805864
53.240 7.899957
53.245 8.12988
53.250 8.34021
53.255 8.158891
53.260 8.44392
53.265 8.326777
53.270 8.197925
53.275 8.140796
53.280 8.235898
53.285 8.278937
53.290 8.568439
53.295 8.345347
53.300 8.154022
53.305 8.333155
53.310 8.57169
53.315 8.791306
53.320 8.818543
53.325 8.946118
53.330 8.913355
53.335 9.255679
53.340 9.337979
53.345 8.878629
53.350 8.864237
53.355 9.104221
53.360 9.247798
53.365 9.730185
53.370 9.980121
53.375 9.783171
53.380 10.064084
53.385 9.707388
53.390 9.293892
53.395 9.161174
53.400 8.538767
53.405 8.153883
53.410 8.335054
53.415 8.282497
53.420 8.421077
53.425 8.035943
53.430 7.994277
53.435 8.213838
53.440 7.737605
53.445 7.584864
53.450 8.016276
53.455 8.28909
53.460 8.275126
53.465 7.69045
53.470 7.463252
53.475 7.653646
53.480 7.277634
53.485 6.914596
53.490 6.887862
53.495 7.73247
53.500 8.480124
53.505 9.092521
53.510 9.363094
53.515 9.293488
53.520 9.171923
53.525 8.90085
53.530 8.555652
53.535 8.236653
53.540 7.925072
53.545 7.653933
53.550 7.668023
53.555 8.040753
53.560 8.153204
53.565 8.20399
53.570 8.723548
53.575 9.1109
53.580 9.617086
53.585 9.556584
53.590 9.310994
53.595 9.413629
53.600 9.324113
53.605 9.281675
53.610 9.153795
53.615 9.047342
53.620 9.128094
53.625 9.103765
53.630 9.084487
53.635 8.860766
53.640 8.720597
53.645 8.591535
53.650 8.404737
53.655 8.361609
53.660 8.491187
53.665 9.065964
53.670 9.24819
53.675 9.372505
53.680 9.734251
53.685 10.071486
53.690 10.015872
53.695 10.101413
53.700 9.677985
53.705 9.345874
53.710 8.979895
53.715 8.748365
53.720 8.602451
53.725 8.51507
53.730 8.310624
53.735 8.536466
53.740 8.936177
53.745 8.933615
53.750 9.219666
53.755 9.345983
53.760 9.766532
53.765 9.57002
53.770 9.333175
53.775 9.345337
53.780 9.592937
53.785 9.564582
53.790 9.357599
53.795 9.467206
53.800 9.656449
53.805 9.766306
53.810 9.894209
53.815 9.63818
53.820 9.830362
53.825 9.463179
53.830 9.322618
53.835 9.062107
53.840 8.443283
53.845 8.279583
53.850 8.736281
53.855 9.032945
53.860 9.963822
53.865 9.94768
53.870 10.127612
53.875 10.470922
53.880 10.817291
53.885 10.500837
53.890 10.280603
53.895 10.112309
53.900 10.410316
53.905 10.447088
53.910 10.454646
53.915 10.172024
53.920 9.940398
53.925 9.935514
53.930 9.610312
53.935 9.323745
53.940 9.611148
53.945 9.655812
53.950 9.672111
53.955 9.711165
53.960 9.475455
53.965 9.785712
53.970 9.836074
53.975 9.751109
53.980 9.684247
53.985 9.690232
53.990 9.926259
53.995 10.460793
54.000 10.225057
54.005 10.124738
54.010 10.040508
54.015 9.810099
54.020 9.477126
54.025 8.94458
54.030 8.595913
54.035 8.43218
54.040 8.702935
54.045 8.663787
54.050 8.634558
54.055 8.970105
54.060 9.167706
54.065 9.356647
54.070 9.562946
54.075 9.38742
54.080 9.56273
54.085 9.402631
54.090 9.536287
54.095 9.762538
54.100 9.623506
54.105 9.792575
54.110 9.654142
54.115 9.844875
54.120 9.862869
54.125 9.34597
54.130 9.095003
54.135 8.912575
54.140 8.621989
54.145 9.031106
54.150 9.420354
54.155 9.329677
54.160 9.161463
54.165 9.523279
54.170 10.099872
54.175 10.159812
54.180 10.019046
54.185 9.683642
54.190 9.76834
54.195 9.86421
54.200 9.924212
54.205 9.515061
54.210 9.366732
54.215 9.213799
54.220 9.314235
54.225 9.592059
54.230 9.552407
54.235 9.340837
54.240 9.439142
54.245 9.528646
54.250 9.428331
54.255 9.182134
54.260 9.225478
54.265 9.093295
54.270 9.4309
54.275 9.576053
54.280 9.389499
54.285 9.453932
54.290 9.391921
54.295 9.167893
54.300 9.46759
54.305 9.176966
54.310 9.584711
54.315 10.030029
54.320 10.369558
54.325 10.375924
54.330 10.450442
54.335 10.304613
54.340 10.280738
54.345 9.730045
54.350 9.653564
54.355 10.024026
54.360 10.306048
54.365 10.55096
54.370 10.428364
54.375 10.568001
54.380 10.692178
54.385 10.759805
54.390 10.730321
54.395 11.060168
54.400 11.289868
54.405 11.365009
54.410 11.31391
54.415 11.297812
54.420 11.22944
54.425 11.076497
54.430 10.731798
54.435 10.411129
54.440 10.342933
54.445 10.265605
54.450 10.118827
54.455 9.860927
54.460 9.544799
54.465 10.171658
54.470 10.634279
54.475 10.380269
54.480 10.208617
54.485 10.109241
54.490 9.807063
54.495 9.72683
54.500 9.153217
54.505 8.65283
54.510 9.233357
54.515 10.031397
54.520 10.29707
54.525 10.610511
54.530 10.435088
54.535 10.669758
54.540 11.025206
54.545 10.68507
54.550 10.21252
54.555 10.155367
54.560 9.936507
54.565 10.347712
54.570 10.395888
54.575 10.094323
54.580 10.052643
54.585 10.094287
54.590 10.139277
54.595 10.15055
54.600 9.875935
54.605 9.823977
54.610 9.88448
54.615 10.00166
54.620 10.224212
54.625 10.529451
54.630 10.350603
54.635 10.323414
54.640 10.568706
54.645 10.818546
54.650 10.577117
54.655 10.598913
54.660 10.681013
54.665 11.602355
54.670 11.794552
54.675 11.58799
54.680 11.318362
54.685 11.649242
54.690 11.269443
54.695 10.952216
54.700 9.943704
54.705 9.681457
54.710 9.896322
54.715 9.69913
54.720 9.049811
54.725 9.070834
54.730 9.063512
54.735 9.586765
54.740 9.781404
54.745 9.570835
54.750 10.024526
54.755 10.490148
54.760 10.856196
54.765 10.916916
54.770 10.838711
54.775 11.207911
54.780 11.492627
54.785 11.107445
54.790 10.638064
54.795 10.555844
54.800 10.376155
54.805 9.87892
54.810 9.144587
54.815 8.952739
54.820 9.058466
54.825 9.154981
54.830 9.115075
54.835 9.07524
54.840 9.08512
54.845 9.3768
54.850 9.487148
54.855 9.56627
54.860 9.888834
54.865 10.158766
54.870 10.435878
54.875 10.506757
54.880 10.505195
54.885 9.9647
54.890 9.864841
54.895 10.024329
54.900 10.233021
54.905 10.682811
54.910 10.70755
54.915 10.705731
54.920 11.060276
54.925 11.058161
54.930 10.274908
54.935 10.13903
54.940 9.577839
54.945 10.038662
54.950 10.869311
54.955 10.757771
54.960 11.090333
54.965 11.261813
54.970 11.456283
54.975 11.801214
54.980 11.279532
54.985 11.427408
54.990 11.927622
54.995 12.190378
55.000 12.473416
55.005 12.571793
55.010 12.460331
55.015 12.046174
55.020 11.392763
55.025 11.485093
55.030 11.132838
55.035 10.700984
55.040 10.372779
55.045 10.082825
55.050 10.580111
55.055 10.747694
55.060 10.600657
55.065 10.766643
55.070 10.819269
55.075 10.963599
55.080 11.043552
55.085 10.885029
55.090 10.917809
55.095 11.129163
55.100 10.699391
55.105 10.860651
55.110 11.312799
55.115 11.748933
55.120 11.817026
55.125 11.58673
55.130 11.647925
55.135 12.451354
55.140 12.633282
55.145 12.169565
55.150 11.732014
55.155 12.093436
55.160 12.343163
55.165 12.49445
55.170 11.767297
55.175 11.280605
55.180 11.297956
55.185 11.574924
55.190 11.129919
55.195 10.694122
55.200 10.289943
55.205 10.581588
55.210 11.270072
55.215 11.707397
55.220 11.684312
55.225 11.569836
55.230 11.393833
55.235 11.861939
55.240 11.457574
55.245 11.030403
55.250 10.807942
55.255 10.737781
55.260 10.780656
55.265 10.829486
55.270 10.294509
55.275 10.305508
55.280 10.1745
55.285 10.219647
55.290 10.292184
55.295 10.191689
55.300 10.120671
55.305 9.953057
55.310 10.004973
55.315 10.030058
55.320 9.961706
55.325 10.014687
55.330 10.233164
55.335 10.84071
55.340 11.115028
55.345 10.943583
55.350 11.429404
55.355 11.709649
55.360 11.511032
55.365 11.496192
55.370 11.405576
55.375 12.00022
55.380 12.241397
55.385 12.039605
55.390 12.080729
55.395 12.085205
55.400 11.709208
55.405 11.592072
55.410 11.110797
55.415 11.161271
55.420 11.154003
55.425 11.252276
55.430 11.823773
55.435 11.741739
55.440 11.318665
55.445 10.812878
55.450 10.602383
55.455 10.41315
55.460 10.108271
55.465 9.721575
55.470 9.634229
55.475 10.168607
55.480 10.538276
55.485 10.34007
55.490 10.182855
55.495 10.470324
55.500 10.667216
55.505 11.007608
55.510 11.003519
55.515 10.888723
55.520 11.229
55.525 11.484633
55.530 10.760576
55.535 10.827174
55.540 10.685795
55.545 10.680409
55.550 11.215731
55.555 11.278124
55.560 11.34056
55.565 12.051411
55.570 11.847299
55.575 12.070337
55.580 11.718063
55.585 11.19065
55.590 10.78365
55.595 10.245621
55.600 10.092865
55.605 10.090862
55.610 9.938181
55.615 10.450657
55.620 10.552299
55.625 10.928483
55.630 11.230358
55.635 11.180902
55.640 10.966913
55.645 10.910478
55.650 10.771706
55.655 10.78166
55.660 10.932593
55.665 11.182198
55.670 11.104591
55.675 11.023932
55.680 11.07497
55.685 11.004197
55.690 11.036148
55.695 10.738654
55.700 10.490732
55.705 10.750312
55.710 10.771434
55.715 10.467408
55.720 10.096121
55.725 10.068131
55.730 10.065588
55.735 10.437888
55.740 10.854179
55.745 11.450164
55.750 12.303168
55.755 12.671789
55.760 12.570451
55.765 12.697898
55.770 12.604509
55.775 12.239408
55.780 11.800306
55.785 11.616867
55.790 11.823835
55.795 11.730363
55.800 11.079326
55.805 10.366846
55.810 9.82289
55.815 9.758604
55.820 9.328097
55.825 9.215413
55.830 9.450806
55.835 10.120024
55.840 10.134966
55.845 11.117776
55.850 11.008689
55.855 10.899291
55.860 10.646413
55.865 10.740324
55.870 10.520229
55.875 10.780345
55.880 10.448956
55.885 10.66122
55.890 10.491091
55.895 10.911497
55.900 10.952511
55.905 11.391298
55.910 12.087586
55.915 12.399668
55.920 13.037168
55.925 13.278154
55.930 12.599517
55.935 12.917002
55.940 13.018764
55.945 12.734925
55.950 12.486208
55.955 12.228767
55.960 12.814746
55.965 13.188736
55.970 12.942288
55.975 12.386184
55.980 12.237141
55.985 12.379798
55.990 12.243547
55.995 12.30444
56.000 12.08147
56.005 12.063941
56.010 12.896774
56.015 12.932696
56.020 12.791155
56.025 12.861415
56.030 12.221524
56.035 12.138438
56.040 11.629428
56.045 10.877277
56.050 10.573958
56.055 10.713111
56.060 10.841311
56.065 11.219759
56.070 11.489377
56.075 11.579646
56.080 11.899751
56.085 12.263927
56.090 12.211207
56.095 12.023835
56.100 11.884113
56.105 12.015362
56.110 12.350804
56.115 12.066655
56.120 11.950409
56.125 11.996568
56.130 12.121579
56.135 12.570106
56.140 12.604066
56.145 12.676302
56.150 12.829349
56.155 13.09677
56.160 13.167977
56.165 12.814232
56.170 12.454881
56.175 12.477685
56.180 11.918234
56.185 12.078425
56.190 11.908445
56.195 11.623782
56.200 11.707012
56.205 11.660938
56.210 11.33233
56.215 11.254671
56.220 10.89319
56.225 11.499778
56.230 12.018231
56.235 12.342688
56.240 12.351151
56.245 12.528688
56.250 12.480858
56.255 12.035804
56.260 11.47598
56.265 11.550793
56.270 11.388502
56.275 11.52034
56.280 11.588519
56.285 11.980857
56.290 12.568882
56.295 12.204512
56.300 11.851716
56.305 12.023735
56.310 12.092668
56.315 12.679117
56.320 13.27728
56.325 13.24333
56.330 13.208052
56.335 13.282484
56.340 13.343354
56.345 13.716681
56.350 13.601362
56.355 13.45566
56.360 13.255492
56.365 13.682527
56.370 13.253378
56.375 12.85033
56.380 12.506421
56.385 12.425528
56.390 12.058797
56.395 11.787504
56.400 11.503103
56.405 12.010527
56.410 12.029119
56.415 11.641362
56.420 11.153794
56.425 11.324869
56.430 12.038314
56.435 11.908929
56.440 11.354486
56.445 11.414974
56.450 12.230972
56.455 12.277211
56.460 12.099663
56.465 11.853539
56.470 12.332477
56.475 12.529349
56.480 12.218044
56.485 11.166362
56.490 10.997422
56.495 11.012301
56.500 10.57417
56.505 10.511108
56.510 10.252883
56.515 10.214297
56.520 10.647878
56.525 10.583597
56.530 10.710584
56.535 11.118166
56.540 10.889441
56.545 11.110725
56.550 11.153658
56.555 10.907254
56.560 11.02457
56.565 11.392357
56.570 11.751433
56.575 12.591337
56.580 12.913056
56.585 13.019665
56.590 13.671661
56.595 14.150621
56.600 13.532269
56.605 13.270733
56.610 12.858079
56.615 12.901902
56.620 12.853763
56.625 12.779291
56.630 12.718074
56.635 13.088784
56.640 13.235911
56.645 13.269736
56.650 13.241917
56.655 13.42132
56.660 13.81971
56.665 13.955236
56.670 13.773021
56.675 13.475493
56.680 13.262194
56.685 13.262841
56.690 13.453182
56.695 13.800881
56.700 14.14614
56.705 14.237978
56.710 14.393717
56.715 14.721861
56.720 14.669974
56.725 14.065928
56.730 12.69323
56.735 12.505715
56.740 12.898235
56.745 13.045433
56.750 12.412793
56.755 12.338417
56.760 12.530991
56.765 12.717162
56.770 12.193094
56.775 11.856695
56.780 12.046766
56.785 12.614564
56.790 12.866407
56.795 13.250728
56.800 13.685376
56.805 14.037455
56.810 14.183084
56.815 14.189553
56.820 14.42444
56.825 14.233672
56.830 13.634069
56.835 13.569658
56.840 13.81641
56.845 13.618673
56.850 13.107539
56.855 12.702235
56.860 12.885343
56.865 12.9429
56.870 12.602393
56.875 12.634653
56.880 13.114752
56.885 13.482495
56.890 13.367213
56.895 13.267874
56.900 13.064183
56.905 13.114397
56.910 12.469302
56.915 11.917042
56.920 11.602012
56.925 11.775816
56.930 12.047188
56.935 11.884593
56.940 11.48035
56.945 11.573442
56.950 11.629669
56.955 11.621156
56.960 11.516031
56.965 10.97638
56.970 10.983904
56.975 11.486955
56.980 11.97244
56.985 11.982217
56.990 11.788932
56.995 11.685574
57.000 11.870033
57.005 12.570416
57.010 12.406197
57.015 12.029096
57.020 12.069954
57.025 12.352139
57.030 12.302684
57.035 12.733121
57.040 12.585649
57.045 12.604758
57.050 13.227452
57.055 13.069083
57.060 13.203036
57.065 12.760374
57.070 12.55847
57.075 12.070287
57.080 12.565346
57.085 12.294781
57.090 12.695224
57.095 12.839128
57.100 13.303104
57.105 13.066865
57.110 13.207506
57.115 12.93618
57.120 13.002137
57.125 12.707644
57.130 12.501353
57.135 12.56882
57.140 12.75036
57.145 12.875612
57.150 12.582343
57.155 12.613387
57.160 12.654196
57.165 13.086152
57.170 13.573298
57.175 13.61248
57.180 13.335008
57.185 13.271414
57.190 13.684464
57.195 13.380635
57.200 12.994473
57.205 12.439644
57.210 12.381444
57.215 12.354492
57.220 12.245761
57.225 12.139966
57.230 12.130612
57.235 12.473127
57.240 12.705424
57.245 13.272589
57.250 13.940735
57.255 14.130431
57.260 14.052825
57.265 14.353226
57.270 14.217283
57.275 13.950339
57.280 13.521201
57.285 13.436431
57.290 13.450297
57.295 13.266548
57.300 12.85872
57.305 13.010675
57.310 13.412563
57.315 13.663533
57.320 13.165365
57.325 13.446118
57.330 13.66449
57.335 13.775463
57.340 13.674742
57.345 13.249224
57.350 13.259118
57.355 13.953491
57.360 14.122981
57.365 14.656775
57.370 14.726375
57.375 14.945079
57.380 15.239104
57.385 14.823103
57.390 14.117459
57.395 14.097022
57.400 13.938054
57.405 13.875143
57.410 13.642579
57.415 13.342155
57.420 13.026712
57.425 13.386439
57.430 13.292975
57.435 13.508511
57.440 13.670317
57.445 13.941984
57.450 14.245573
57.455 14.723653
57.460 14.922802
57.465 14.428574
57.470 14.028258
57.475 13.797688
57.480 13.696942
57.485 13.682165
57.490 13.295929
57.495 13.029155
57.500 13.586117
57.505 13.62442
57.510 13.804476
57.515 13.655548
57.520 13.535497
57.525 13.905042
57.530 13.917865
57.535 13.725365
57.540 14.053461
57.545 13.972633
57.550 14.377624
57.555 14.524269
57.560 14.397651
57.565 14.603481
57.570 14.624896
57.575 14.12561
57.580 14.113594
57.585 13.937582
57.590 13.600025
57.595 13.231026
57.600 13.068927
57.605 12.932217
57.610 13.048799
57.615 13.011047
57.620 12.670007
57.625 12.801595
57.630 13.074527
57.635 13.493701
57.640 13.232691
57.645 13.19635
57.650 13.193576
57.655 13.839161
57.660 13.723356
57.665 12.7334
57.670 12.402217
57.675 12.313121
57.680 12.299902
57.685 12.672327
57.690 12.604511
57.695 13.171018
57.700 13.487143
57.705 13.768456
57.710 14.102158
57.715 14.332524
57.720 13.955195
57.725 13.896823
57.730 13.642029
57.735 13.767312
57.740 13.621471
57.745 13.469982
57.750 13.151003
57.755 13.57957
57.760 13.603506
57.765 14.085369
57.770 13.960195
57.775 14.203392
57.780 14.655694
57.785 14.90772
57.790 14.502864
57.795 14.363942
57.800 14.346855
57.805 14.610764
57.810 14.134742
57.815 14.236094
57.820 14.200656
57.825 14.351017
57.830 14.466512
57.835 14.444515
57.840 14.346688
57.845 14.353579
57.850 14.075046
57.855 13.861937
57.860 13.884826
57.865 13.848241
57.870 13.6622
57.875 13.931324
57.880 13.725351
57.885 13.675498
57.890 13.806001
57.895 13.63346
57.900 13.734583
57.905 13.605259
57.910 13.525255
57.915 13.635259
57.920 13.356353
57.925 13.551126
57.930 13.390127
57.935 12.886332
57.940 12.734442
57.945 12.466799
57.950 13.013416
57.955 13.414261
57.960 13.656219
57.965 14.021124
57.970 14.857364
57.975 15.321271
57.980 16.068148
57.985 16.699305
57.990 16.658117
57.995 16.281481
58.000 16.559071
58.005 16.968721
58.010 17.303932
58.015 16.779871
58.020 15.727204
58.025 15.999482
58.030 16.439024
58.035 16.228205
58.040 16.261347
58.045 16.205894
58.050 16.153429
58.055 16.536167
58.060 16.211405
58.065 15.866071
58.070 15.761975
58.075 15.265738
58.080 15.109571
58.085 15.186106
58.090 15.427303
58.095 15.317476
58.100 15.491507
58.105 15.342345
58.110 15.38044
58.115 15.692776
58.120 15.82223
58.125 16.345968
58.130 16.416943
58.135 16.148237
58.140 16.56665
58.145 16.344095
58.150 15.592606
58.155 15.66895
58.160 15.57878
58.165 16.181093
58.170 16.637125
58.175 16.735443
58.180 17.180319
58.185 18.001364
58.190 17.822004
58.195 17.305534
58.200 16.781023
58.205 16.649847
58.210 16.197004
58.215 16.008808
58.220 15.526276
58.225 15.414804
58.230 15.60232
58.235 15.919328
58.240 15.915295
58.245 15.981748
58.250 15.790473
58.255 16.060913
58.260 15.965796
58.265 15.531998
58.270 15.266575
58.275 15.866503
58.280 16.088728
58.285 16.181307
58.290 16.314125
58.295 16.62891
58.300 17.046131
58.305 16.936422
58.310 16.078896
58.315 16.467203
58.320 16.899097
58.325 16.823763
58.330 16.867559
58.335 16.5578
58.340 16.396334
58.345 16.578224
58.350 16.488188
58.355 16.694132
58.360 17.67844
58.365 18.01816
58.370 18.622185
58.375 19.11282
58.380 19.209091
58.385 18.93401
58.390 18.657167
58.395 17.888922
58.400 17.865173
58.405 17.686058
58.410 17.865175
58.415 18.305668
58.420 18.952255
58.425 18.830826
58.430 19.25437
58.435 19.387482
58.440 19.580469
58.445 19.225183
58.450 19.231916
58.455 19.389277
58.460 19.79101
58.465 20.080397
58.470 21.115911
58.475 21.74564
58.480 22.443699
58.485 22.915209
58.490 23.512566
58.495 24.131031
58.500 24.736269
58.505 24.879778
58.510 25.686453
58.515 26.289961
58.520 26.843693
58.525 27.013227
