!@!!GADDS PLOTSO FILE: Chi integration type
!@!!Title/SampleName: map-5
!@!!Comment: ?
!@!!User: Bruker Instrument Administrator
!@!!Site: University of Illinois Chicago
!@!!Frame: map-5_01_000.gfrm
!@!!Wavelengths    1.54184   1.54056   1.54439
!@!!Frame angles: 2Theta: 63.000 Omega: 50.000 Phi: 0.000 Chi: 90.000
!@!!Integration range: 2Theta: 53.000 to 73.000  Gamma: -105.000 to -75.000
!@!!Integration method: bin normalized
!@!N
!@!SS
!@!M
!@!L 0.0 0.0 0.0 0.0
!@!XDegrees
!@!YCounts
53.000 9.225891
53.005 9.244728
53.010 9.046409
53.015 8.601865
53.020 8.189216
53.025 8.188538
53.030 8.361231
53.035 8.267674
53.040 8.289124
53.045 8.516759
53.050 8.739857
53.055 8.648758
53.060 8.553979
53.065 8.449635
53.070 8.525949
53.075 8.316331
53.080 7.914334
53.085 7.444649
53.090 7.553332
53.095 7.70998
53.100 8.056679
53.105 7.92639
53.110 8.374364
53.115 8.883992
53.120 8.867912
53.125 8.786277
53.130 8.525728
53.135 8.250556
53.140 8.308814
53.145 8.047366
53.150 7.786022
53.155 8.18691
53.160 8.250634
53.165 8.067882
53.170 8.037704
53.175 7.992914
53.180 7.643966
53.185 7.95165
53.190 7.889748
53.195 7.692122
53.200 7.43708
53.205 7.951802
53.210 8.690787
53.215 8.820192
53.220 8.397021
53.225 8.135637
53.230 8.265278
53.235 8.206129
53.240 7.765136
53.245 7.465579
53.250 7.446092
53.255 7.54208
53.260 7.886495
53.265 8.067461
53.270 8.23425
53.275 8.039142
53.280 7.961473
53.285 8.591486
53.290 8.957136
53.295 9.490491
53.300 9.544134
53.305 9.38764
53.310 9.636697
53.315 9.356879
53.320 9.025373
53.325 8.813608
53.330 8.458475
53.335 8.879694
53.340 8.920071
53.345 9.022096
53.350 9.565065
53.355 9.415059
53.360 9.633356
53.365 9.622812
53.370 9.146417
53.375 9.504354
53.380 9.22709
53.385 8.88868
53.390 8.642273
53.395 8.368578
53.400 8.236929
53.405 7.957317
53.410 7.798798
53.415 7.879635
53.420 7.746432
53.425 7.65448
53.430 7.799163
53.435 8.015533
53.440 8.339196
53.445 8.206634
53.450 8.237819
53.455 8.387897
53.460 8.682006
53.465 8.770338
53.470 8.861472
53.475 8.471074
53.480 8.691154
53.485 8.920701
53.490 9.431399
53.495 9.409013
53.500 9.238472
53.505 9.459566
53.510 9.817947
53.515 9.640611
53.520 9.758212
53.525 9.59669
53.530 9.326734
53.535 9.092785
53.540 9.169572
53.545 9.028854
53.550 9.124816
53.555 8.762656
53.560 8.982533
53.565 9.27968
53.570 9.766315
53.575 9.71242
53.580 9.890126
53.585 9.875828
53.590 9.234076
53.595 8.982924
53.600 9.142129
53.605 8.459429
53.610 8.153398
53.615 8.073382
53.620 8.376291
53.625 8.977468
53.630 8.967997
53.635 8.695914
53.640 8.836975
53.645 8.619059
53.650 8.641278
53.655 8.489192
53.660 8.389526
53.665 8.379481
53.670 8.209384
53.675 8.384528
53.680 8.549767
53.685 8.331255
53.690 8.308036
53.695 7.729938
53.700 7.741087
53.705 8.140222
53.710 8.822592
53.715 8.963165
53.720 9.705883
53.725 10.603033
53.730 11.55458
53.735 11.635637
53.740 11.063412
53.745 10.429329
53.750 10.504048
53.755 9.760671
53.760 9.058382
53.765 8.463293
53.770 8.622103
53.775 8.816497
53.780 9.132073
53.785 9.317142
53.790 9.336426
53.795 9.767746
53.800 9.898814
53.805 9.687311
53.810 10.060061
53.815 10.041829
53.820 9.868078
53.825 9.940542
53.830 9.656087
53.835 9.42024
53.840 9.380939
53.845 8.801502
53.850 8.402643
53.855 8.593676
53.860 8.539827
53.865 8.608228
53.870 8.725557
53.875 8.985828
53.880 9.167163
53.885 9.292005
53.890 9.117568
53.895 9.192072
53.900 8.954521
53.905 9.213418
53.910 9.053123
53.915 9.386661
53.920 9.61064
53.925 9.355146
53.930 9.453313
53.935 9.789742
53.940 10.014626
53.945 9.967833
53.950 10.023718
53.955 10.08955
53.960 10.520875
53.965 10.988509
53.970 10.998218
53.975 10.654169
53.980 10.556036
53.985 10.149158
53.990 9.95607
53.995 9.724771
54.000 9.094515
54.005 8.796059
54.010 9.275516
54.015 9.342329
54.020 9.517407
54.025 9.65885
54.030 10.389782
54.035 10.805935
54.040 10.779255
54.045 10.549139
54.050 10.717564
54.055 10.845492
54.060 10.712512
54.065 10.232944
54.070 9.955386
54.075 10.033861
54.080 10.468302
54.085 10.613759
54.090 10.831202
54.095 10.743484
54.100 11.266532
54.105 11.638383
54.110 11.210193
54.115 10.611069
54.120 10.692335
54.125 10.463944
54.130 10.018439
54.135 9.297674
54.140 9.623076
54.145 9.994754
54.150 9.910633
54.155 10.11782
54.160 10.130936
54.165 10.581193
54.170 10.82271
54.175 10.641052
54.180 10.643325
54.185 10.537117
54.190 10.377914
54.195 10.870078
54.200 11.145617
54.205 11.14132
54.210 10.896684
54.215 11.068547
54.220 10.938764
54.225 10.786469
54.230 10.682318
54.235 10.939983
54.240 11.162141
54.245 10.976078
54.250 10.417242
54.255 10.458502
54.260 9.94987
54.265 9.097311
54.270 8.613172
54.275 8.433474
54.280 8.94123
54.285 9.224047
54.290 9.266045
54.295 9.469107
54.300 10.069455
54.305 10.388508
54.310 10.358834
54.315 9.943587
54.320 9.566758
54.325 9.522179
54.330 9.36507
54.335 9.284573
54.340 9.240368
54.345 8.933462
54.350 9.23545
54.355 9.390052
54.360 9.782003
54.365 9.977279
54.370 9.744172
54.375 10.037961
54.380 10.333436
54.385 9.916072
54.390 9.527201
54.395 9.401541
54.400 9.493342
54.405 9.786148
54.410 9.997755
54.415 10.257351
54.420 10.561335
54.425 10.767916
54.430 10.489861
54.435 10.314064
54.440 9.967119
54.445 9.586139
54.450 9.763556
54.455 9.899783
54.460 10.384216
54.465 10.536148
54.470 11.038399
54.475 11.460401
54.480 11.839135
54.485 11.535789
54.490 11.828576
54.495 11.811055
54.500 11.822712
54.505 10.948902
54.510 10.709314
54.515 10.618641
54.520 10.370902
54.525 9.715139
54.530 9.089858
54.535 8.803039
54.540 9.24729
54.545 9.607938
54.550 9.664457
54.555 10.045051
54.560 10.356071
54.565 10.537524
54.570 10.544538
54.575 10.087563
54.580 9.904516
54.585 9.955276
54.590 9.989813
54.595 10.108171
54.600 10.889444
54.605 10.940709
54.610 11.110078
54.615 10.877916
54.620 11.287922
54.625 11.066017
54.630 10.598498
54.635 10.19799
54.640 10.401301
54.645 10.779045
54.650 11.022044
54.655 10.420102
54.660 10.377712
54.665 10.609392
54.670 10.410678
54.675 9.838788
54.680 9.678287
54.685 9.826054
54.690 10.495847
54.695 10.617231
54.700 10.633132
54.705 11.311271
54.710 11.596114
54.715 11.321649
54.720 11.301708
54.725 10.783772
54.730 10.491463
54.735 10.751301
54.740 11.137632
54.745 11.255512
54.750 11.504428
54.755 11.229928
54.760 11.850663
54.765 12.237413
54.770 11.913774
54.775 11.782489
54.780 12.015227
54.785 11.802938
54.790 11.532435
54.795 11.143732
54.800 10.777496
54.805 10.758474
54.810 10.497538
54.815 10.228915
54.820 9.832648
54.825 10.302657
54.830 10.581381
54.835 10.436891
54.840 10.202288
54.845 9.909307
54.850 10.136094
54.855 10.99507
54.860 10.826311
54.865 10.88074
54.870 11.004631
54.875 11.303832
54.880 11.294627
54.885 11.058573
54.890 10.984234
54.895 10.988264
54.900 10.767368
54.905 11.103586
54.910 11.250028
54.915 11.495915
54.920 11.582943
54.925 11.347754
54.930 12.044518
54.935 12.622029
54.940 12.128654
54.945 12.589299
54.950 12.90337
54.955 12.631776
54.960 12.258841
54.965 11.340473
54.970 10.734522
54.975 10.588159
54.980 9.728674
54.985 9.613578
54.990 9.283869
54.995 9.627024
55.000 10.113185
55.005 10.202823
55.010 10.026834
55.015 10.246415
55.020 9.949286
55.025 10.313347
55.030 10.402186
55.035 10.335449
55.040 10.61933
55.045 11.417591
55.050 11.76487
55.055 12.107507
55.060 12.154295
55.065 12.011192
55.070 11.808384
55.075 11.461231
55.080 11.037097
55.085 10.53688
55.090 10.655625
55.095 10.4341
55.100 10.459419
55.105 10.562709
55.110 10.754594
55.115 10.829927
55.120 11.247436
55.125 11.167301
55.130 11.155807
55.135 11.14901
55.140 11.318655
55.145 11.362327
55.150 11.598558
55.155 11.160762
55.160 11.07104
55.165 11.480847
55.170 11.536598
55.175 11.388321
55.180 11.288448
55.185 10.996406
55.190 11.023309
55.195 10.766537
55.200 10.317038
55.205 10.719567
55.210 11.061013
55.215 10.826463
55.220 10.860607
55.225 10.975451
55.230 11.010046
55.235 11.160377
55.240 10.754181
55.245 10.498809
55.250 10.357409
55.255 10.652409
55.260 11.005195
55.265 11.114313
55.270 11.076291
55.275 11.331562
55.280 11.75305
55.285 12.014906
55.290 11.763698
55.295 11.57076
55.300 11.796617
55.305 11.880574
55.310 11.743516
55.315 11.815804
55.320 11.924517
55.325 12.2702
55.330 12.145895
55.335 12.287825
55.340 12.187134
55.345 12.755493
55.350 13.0962
55.355 12.753164
55.360 12.44988
55.365 12.868478
55.370 12.744423
55.375 12.329637
55.380 11.659234
55.385 11.149179
55.390 11.430726
55.395 11.452634
55.400 11.347303
55.405 11.335394
55.410 11.30948
55.415 11.586062
55.420 11.988962
55.425 11.638573
55.430 11.534695
55.435 11.430626
55.440 11.330982
55.445 11.239614
55.450 11.000582
55.455 10.936934
55.460 11.39574
55.465 11.613122
55.470 11.678973
55.475 11.838263
55.480 12.344589
55.485 12.134581
55.490 12.392204
55.495 12.263159
55.500 12.16232
55.505 12.206754
55.510 12.108377
55.515 12.411537
55.520 12.503767
55.525 12.468864
55.530 12.11033
55.535 11.941686
55.540 11.77089
55.545 11.531681
55.550 11.285073
55.555 11.250865
55.560 11.403984
55.565 11.90118
55.570 12.2783
55.575 12.731195
55.580 12.789942
55.585 12.492571
55.590 12.287875
55.595 11.774968
55.600 11.137478
55.605 10.907389
55.610 11.381694
55.615 11.711786
55.620 11.902379
55.625 11.527336
55.630 11.279051
55.635 11.507115
55.640 10.986851
55.645 10.437869
55.650 10.008045
55.655 9.544107
55.660 9.763015
55.665 9.982396
55.670 10.043523
55.675 9.849795
55.680 9.465416
55.685 9.810893
55.690 10.489732
55.695 10.778056
55.700 10.699429
55.705 10.94091
55.710 11.358585
55.715 11.620625
55.720 11.309268
55.725 11.129638
55.730 11.126705
55.735 11.500489
55.740 11.741133
55.745 11.645099
55.750 11.589686
55.755 11.624966
55.760 11.597271
55.765 11.818665
55.770 11.590858
55.775 11.066661
55.780 11.548368
55.785 12.069354
55.790 11.996137
55.795 11.829597
55.800 11.934563
55.805 12.294759
55.810 12.260076
55.815 11.736026
55.820 11.467811
55.825 11.980058
55.830 12.005793
55.835 12.169475
55.840 12.042908
55.845 12.034246
55.850 11.879843
55.855 11.698767
55.860 11.432068
55.865 11.415595
55.870 10.843087
55.875 10.739042
55.880 11.564389
55.885 11.688981
55.890 11.623313
55.895 11.852964
55.900 11.690622
55.905 11.603951
55.910 11.841377
55.915 11.608712
55.920 11.760433
55.925 11.983231
55.930 11.515068
55.935 11.862618
55.940 12.487247
55.945 12.498992
55.950 12.4659
55.955 12.589206
55.960 12.337792
55.965 12.647564
55.970 12.2703
55.975 12.308469
55.980 11.94624
55.985 11.761008
55.990 12.083284
55.995 12.403973
56.000 12.614213
56.005 12.679491
56.010 12.558245
56.015 12.863585
56.020 12.312392
56.025 11.890256
56.030 12.068737
56.035 11.878455
56.040 12.111671
56.045 12.441552
56.050 12.46058
56.055 13.076749
56.060 12.968783
56.065 12.892994
56.070 13.138118
56.075 12.696784
56.080 12.18308
56.085 12.177109
56.090 11.82099
56.095 12.056043
56.100 11.73404
56.105 11.431324
56.110 11.719869
56.115 11.764605
56.120 11.724303
56.125 12.02919
56.130 11.680396
56.135 11.769052
56.140 11.776456
56.145 12.211554
56.150 11.960011
56.155 12.328374
56.160 12.569094
56.165 13.180268
56.170 13.420498
56.175 13.802008
56.180 13.478248
56.185 13.749033
56.190 13.805674
56.195 13.505707
56.200 13.646813
56.205 13.605463
56.210 13.149679
56.215 13.568354
56.220 13.832535
56.225 13.846311
56.230 13.493196
56.235 13.677518
56.240 13.86231
56.245 13.992442
56.250 13.454927
56.255 12.945421
56.260 12.42756
56.265 12.38685
56.270 12.098346
56.275 12.503463
56.280 12.565945
56.285 12.427768
56.290 13.055259
56.295 13.479033
56.300 13.72016
56.305 14.049707
56.310 13.783721
56.315 13.759731
56.320 13.275547
56.325 13.173236
56.330 12.927889
56.335 12.960189
56.340 12.418879
56.345 12.253727
56.350 12.611876
56.355 13.01923
56.360 12.883866
56.365 12.878223
56.370 12.428509
56.375 12.506889
56.380 12.221117
56.385 12.069321
56.390 12.096149
56.395 12.189595
56.400 12.4053
56.405 12.710176
56.410 12.947889
56.415 12.897249
56.420 13.02281
56.425 13.14772
56.430 13.509833
56.435 13.409656
56.440 13.262125
56.445 13.273593
56.450 13.144263
56.455 12.580525
56.460 12.697933
56.465 12.641622
56.470 12.358892
56.475 11.76463
56.480 11.699941
56.485 11.931915
56.490 12.282196
56.495 11.432831
56.500 11.437794
56.505 12.076983
56.510 12.489628
56.515 12.664919
56.520 12.840024
56.525 12.917334
56.530 13.369958
56.535 12.758652
56.540 12.665115
56.545 12.681995
56.550 12.643419
56.555 12.638864
56.560 12.751838
56.565 12.464699
56.570 13.250677
56.575 13.332889
56.580 13.393426
56.585 13.49091
56.590 13.68833
56.595 13.653597
56.600 14.015235
56.605 13.736789
56.610 13.24726
56.615 13.04372
56.620 12.570737
56.625 12.221479
56.630 12.231094
56.635 12.320238
56.640 11.926261
56.645 11.766881
56.650 11.734782
56.655 12.234978
56.660 12.769756
56.665 12.734988
56.670 12.698003
56.675 13.461921
56.680 13.689348
56.685 13.755942
56.690 13.498076
56.695 13.65647
56.700 14.168647
56.705 14.351768
56.710 14.201028
56.715 14.536526
56.720 14.678647
56.725 14.826554
56.730 14.203723
56.735 13.670524
56.740 13.478846
56.745 13.247119
56.750 13.20029
56.755 12.852551
56.760 12.708715
56.765 12.680772
56.770 12.504897
56.775 12.167323
56.780 12.44145
56.785 12.564585
56.790 12.41616
56.795 12.219447
56.800 11.882058
56.805 12.05174
56.810 11.978236
56.815 11.642821
56.820 11.337136
56.825 11.755257
56.830 11.761078
56.835 12.843315
56.840 13.273205
56.845 13.76879
56.850 13.948372
56.855 14.278489
56.860 14.152062
56.865 14.592196
56.870 14.224139
56.875 13.93581
56.880 13.705241
56.885 13.497084
56.890 13.10019
56.895 12.615989
56.900 12.654078
56.905 12.846488
56.910 12.818123
56.915 12.832724
56.920 13.482306
56.925 13.664336
56.930 13.724733
56.935 13.253626
56.940 13.213443
56.945 13.365244
56.950 13.477773
56.955 13.147867
56.960 13.628467
56.965 13.466757
56.970 13.505774
56.975 13.725546
56.980 13.339948
56.985 13.427559
56.990 13.290675
56.995 13.541876
57.000 14.221514
57.005 14.737083
57.010 14.144758
57.015 14.549856
57.020 14.340959
57.025 14.184196
57.030 13.585409
57.035 13.016617
57.040 12.282099
57.045 12.206955
57.050 12.113628
57.055 11.984204
57.060 12.216327
57.065 12.380285
57.070 12.822014
57.075 12.862056
57.080 12.592925
57.085 12.720802
57.090 13.026127
57.095 12.947114
57.100 12.700915
57.105 12.373725
57.110 12.443924
57.115 12.907362
57.120 12.557878
57.125 12.222845
57.130 12.146791
57.135 12.158691
57.140 12.100922
57.145 12.406726
57.150 12.196908
57.155 12.558243
57.160 13.098544
57.165 13.298973
57.170 13.53662
57.175 13.500518
57.180 13.216963
57.185 13.296501
57.190 13.284956
57.195 13.622797
57.200 13.829278
57.205 14.243699
57.210 14.751973
57.215 15.438483
57.220 15.494528
57.225 15.122933
57.230 14.759255
57.235 14.837865
57.240 14.978436
57.245 14.913425
57.250 14.546564
57.255 14.900763
57.260 14.888951
57.265 14.198522
57.270 13.641483
57.275 12.870139
57.280 13.16883
57.285 13.557843
57.290 13.549026
57.295 13.76085
57.300 13.977006
57.305 14.353707
57.310 14.791458
57.315 14.906702
57.320 14.71176
57.325 14.332584
57.330 14.371146
57.335 14.679075
57.340 14.325641
57.345 13.989564
57.350 13.666967
57.355 13.44314
57.360 14.023145
57.365 14.315252
57.370 14.170336
57.375 14.483966
57.380 14.317609
57.385 14.292654
57.390 14.080856
57.395 13.625324
57.400 13.754287
57.405 13.811211
57.410 13.260702
57.415 13.005609
57.420 12.863256
57.425 13.471665
57.430 13.202264
57.435 13.387774
57.440 13.880946
57.445 14.200624
57.450 14.444931
57.455 14.171109
57.460 14.179173
57.465 14.401259
57.470 13.79915
57.475 13.726714
57.480 14.022107
57.485 14.245534
57.490 14.65298
57.495 14.651448
57.500 14.64535
57.505 14.926689
57.510 14.298399
57.515 14.296274
57.520 14.325336
57.525 14.750002
57.530 14.369125
57.535 14.006497
57.540 13.980658
57.545 14.529277
57.550 14.624022
57.555 14.431331
57.560 14.099187
57.565 14.396872
57.570 14.747174
57.575 14.522949
57.580 14.354374
57.585 14.402161
57.590 14.459112
57.595 14.473443
57.600 14.51258
57.605 14.9218
57.610 15.343891
57.615 15.349114
57.620 15.019557
57.625 14.725766
57.630 14.272249
57.635 14.184547
57.640 13.705138
57.645 13.335447
57.650 13.408799
57.655 13.762205
57.660 13.97122
57.665 14.24793
57.670 14.00453
57.675 14.071173
57.680 13.868214
57.685 13.588361
57.690 13.185736
57.695 13.13693
57.700 13.351984
57.705 13.468145
57.710 13.222672
57.715 13.473727
57.720 13.715418
57.725 14.425343
57.730 14.877694
57.735 14.632713
57.740 14.840299
57.745 15.311983
57.750 15.54003
57.755 15.152258
57.760 14.666746
57.765 14.54905
57.770 14.640549
57.775 14.495778
57.780 14.114945
57.785 13.901831
57.790 13.876636
57.795 13.715795
57.800 13.615483
57.805 13.546243
57.810 13.31223
57.815 13.425288
57.820 13.475686
57.825 14.19136
57.830 14.120547
57.835 13.54063
57.840 13.266943
57.845 13.117044
57.850 13.252089
57.855 13.191952
57.860 12.676243
57.865 13.108584
57.870 13.8182
57.875 14.197101
57.880 14.615208
57.885 14.030224
57.890 13.509101
57.895 13.408066
57.900 13.052518
57.905 12.239849
57.910 11.754758
57.915 11.610296
57.920 12.458907
57.925 13.164467
57.930 13.693368
57.935 14.15449
57.940 14.502213
57.945 14.953771
57.950 15.195037
57.955 14.825983
57.960 14.428249
57.965 14.277575
57.970 14.361873
57.975 14.433842
57.980 14.512496
57.985 14.222174
57.990 14.71348
57.995 14.712948
58.000 13.986394
58.005 13.76182
58.010 13.960888
58.015 14.030847
58.020 13.75526
58.025 13.293656
58.030 13.543436
58.035 14.134219
58.040 14.110865
58.045 13.5531
58.050 13.404037
58.055 13.85215
58.060 13.937131
58.065 13.430373
58.070 13.636835
58.075 14.36417
58.080 14.392751
58.085 14.528643
58.090 14.16517
58.095 14.389179
58.100 14.801293
58.105 14.73724
58.110 14.389651
58.115 14.814568
58.120 14.903392
58.125 15.259795
58.130 14.692716
58.135 14.694658
58.140 14.929943
58.145 15.451645
58.150 15.030652
58.155 14.582167
58.160 14.388724
58.165 15.014489
58.170 15.281805
58.175 15.014835
58.180 14.382019
58.185 14.706353
58.190 15.149299
58.195 15.236822
58.200 14.971071
58.205 14.606692
58.210 14.677671
58.215 15.200894
58.220 15.223825
58.225 15.236392
58.230 15.429952
58.235 15.502341
58.240 15.290001
58.245 15.091467
58.250 15.032907
58.255 14.673436
58.260 14.338603
58.265 13.905295
58.270 13.952841
58.275 14.240183
58.280 13.966556
58.285 14.175447
58.290 14.050014
58.295 13.678988
58.300 13.5256
58.305 13.703272
58.310 13.594554
58.315 13.316504
58.320 13.183494
58.325 13.659672
58.330 14.62613
58.335 15.129821
58.340 14.72098
58.345 14.869955
58.350 15.014933
58.355 14.450862
58.360 14.249591
58.365 13.7227
58.370 13.521152
58.375 13.69337
58.380 13.830028
58.385 13.96494
58.390 14.407367
58.395 14.243361
58.400 13.936857
58.405 13.819992
58.410 13.671959
58.415 13.39139
58.420 13.261814
58.425 13.448901
58.430 13.747408
58.435 14.028795
58.440 14.116
58.445 14.513848
58.450 14.880111
58.455 14.92845
58.460 14.574768
58.465 14.184774
58.470 13.939437
58.475 13.974497
58.480 13.5435
58.485 13.368018
58.490 13.611126
58.495 14.024998
58.500 14.735373
58.505 15.227565
58.510 15.322384
58.515 15.243387
