!@!!GADDS PLOTSO FILE: Chi integration type
!@!!Title/SampleName: map-8f
!@!!Comment: ?
!@!!User: Bruker Instrument Administrator
!@!!Site: University of Illinois Chicago
!@!!Frame: map-8f_01_000.gfrm
!@!!Wavelengths    1.54184   1.54056   1.54439
!@!!Frame angles: 2Theta: 63.000 Omega: 50.000 Phi: 0.000 Chi: 90.000
!@!!Integration range: 2Theta: 53.000 to 73.000  Gamma: -105.000 to -75.000
!@!!Integration method: bin normalized
!@!N
!@!SS
!@!M
!@!L 0.0 0.0 0.0 0.0
!@!XDegrees
!@!YCounts
53.000 8.981505
53.005 8.927549
53.010 8.738762
53.015 8.633474
53.020 8.950125
53.025 8.911079
53.030 8.778866
53.035 9.383704
53.040 9.181359
53.045 9.149342
53.050 8.771674
53.055 8.435698
53.060 8.816669
53.065 8.801056
53.070 8.098475
53.075 8.261975
53.080 8.173704
53.085 8.412766
53.090 8.398154
53.095 8.141753
53.100 8.344965
53.105 8.585814
53.110 8.68505
53.115 9.042542
53.120 9.066845
53.125 8.72998
53.130 8.899882
53.135 8.734012
53.140 8.6571
53.145 8.535181
53.150 8.42994
53.155 8.776427
53.160 9.227078
53.165 9.200045
53.170 9.063228
53.175 8.920517
53.180 8.740439
53.185 8.519778
53.190 7.893423
53.195 7.525988
53.200 7.744139
53.205 8.055061
53.210 8.582981
53.215 8.860046
53.220 8.854221
53.225 9.020946
53.230 9.248899
53.235 9.177804
53.240 8.941042
53.245 8.75904
53.250 8.723627
53.255 9.139741
53.260 9.333539
53.265 9.193462
53.270 9.075089
53.275 9.081315
53.280 9.148647
53.285 8.905128
53.290 8.425364
53.295 8.012112
53.300 8.019044
53.305 8.088425
53.310 7.851567
53.315 7.346506
53.320 7.357467
53.325 7.223741
53.330 7.742571
53.335 7.82306
53.340 7.648056
53.345 7.883982
53.350 8.029891
53.355 8.353043
53.360 8.547894
53.365 7.91081
53.370 7.927482
53.375 8.37844
53.380 8.265204
53.385 8.55469
53.390 8.964662
53.395 9.369645
53.400 9.391081
53.405 9.27403
53.410 9.139786
53.415 9.322196
53.420 8.950219
53.425 8.414848
53.430 8.341572
53.435 8.725757
53.440 8.780804
53.445 8.762722
53.450 8.604428
53.455 8.438184
53.460 8.565336
53.465 8.616796
53.470 8.532149
53.475 8.539115
53.480 8.56282
53.485 9.044073
53.490 8.789927
53.495 8.777117
53.500 9.230124
53.505 9.147636
53.510 8.843576
53.515 8.981289
53.520 8.867476
53.525 9.09901
53.530 8.69683
53.535 8.161239
53.540 8.599508
53.545 9.106554
53.550 8.991467
53.555 8.578266
53.560 8.80123
53.565 8.618923
53.570 8.762536
53.575 8.424196
53.580 8.038342
53.585 8.072091
53.590 8.410145
53.595 8.618938
53.600 8.889634
53.605 8.996559
53.610 8.811405
53.615 8.908175
53.620 8.747885
53.625 8.587029
53.630 8.409061
53.635 8.008973
53.640 7.509577
53.645 7.613518
53.650 7.923075
53.655 8.586735
53.660 9.116704
53.665 9.378055
53.670 9.694667
53.675 9.684483
53.680 9.72611
53.685 9.71685
53.690 9.263883
53.695 8.85669
53.700 9.117457
53.705 9.140621
53.710 9.307922
53.715 9.197328
53.720 9.070605
53.725 9.338031
53.730 9.045297
53.735 8.754761
53.740 8.824324
53.745 8.872153
53.750 9.005419
53.755 8.862124
53.760 9.070012
53.765 9.330713
53.770 9.198013
53.775 9.283977
53.780 9.133566
53.785 9.001624
53.790 9.272934
53.795 9.262211
53.800 9.369581
53.805 9.635495
53.810 9.671702
53.815 9.714933
53.820 9.974333
53.825 9.815538
53.830 9.845043
53.835 9.568222
53.840 9.428353
53.845 9.363468
53.850 9.283652
53.855 8.995337
53.860 8.452323
53.865 8.649998
53.870 9.265693
53.875 9.095254
53.880 8.969151
53.885 8.988594
53.890 9.042809
53.895 9.553629
53.900 9.529515
53.905 9.37669
53.910 9.729226
53.915 9.818465
53.920 10.107476
53.925 10.257065
53.930 9.815478
53.935 9.720965
53.940 9.39915
53.945 9.164074
53.950 9.439106
53.955 9.760308
53.960 9.551459
53.965 9.321335
53.970 9.242741
53.975 9.635394
53.980 9.711072
53.985 9.229405
53.990 8.558397
53.995 8.892529
54.000 9.441215
54.005 9.24679
54.010 9.219051
54.015 9.228351
54.020 9.589691
54.025 9.748655
54.030 9.412682
54.035 9.461776
54.040 9.598333
54.045 9.512052
54.050 9.885703
54.055 9.630474
54.060 9.636023
54.065 9.816465
54.070 9.725372
54.075 9.909719
54.080 9.736975
54.085 9.504202
54.090 9.812721
54.095 9.637392
54.100 9.340697
54.105 8.993648
54.110 9.038058
54.115 9.173902
54.120 9.259244
54.125 8.973414
54.130 9.155336
54.135 9.674502
54.140 9.936173
54.145 10.030348
54.150 9.822574
54.155 9.88393
54.160 10.059072
54.165 9.713865
54.170 9.221246
54.175 9.163366
54.180 8.929556
54.185 8.607927
54.190 8.632175
54.195 8.588004
54.200 8.952367
54.205 9.386905
54.210 9.150201
54.215 9.162145
54.220 8.999609
54.225 8.781927
54.230 9.000863
54.235 9.531219
54.240 9.894539
54.245 9.86976
54.250 10.077957
54.255 10.464829
54.260 10.68255
54.265 10.51112
54.270 9.690917
54.275 9.383039
54.280 9.636134
54.285 9.744804
54.290 9.701048
54.295 9.348656
54.300 9.314021
54.305 9.707334
54.310 9.95061
54.315 9.727352
54.320 9.635245
54.325 9.634057
54.330 9.821644
54.335 10.11287
54.340 10.044346
54.345 10.25948
54.350 10.766909
54.355 10.534555
54.360 10.200956
54.365 10.05365
54.370 10.126674
54.375 10.128129
54.380 9.734212
54.385 9.408591
54.390 10.025187
54.395 10.374554
54.400 10.309716
54.405 10.063777
54.410 9.808929
54.415 10.186633
54.420 10.235137
54.425 10.109774
54.430 10.5318
54.435 10.317214
54.440 10.4312
54.445 10.741174
54.450 10.533515
54.455 10.267247
54.460 9.993597
54.465 9.489925
54.470 9.142286
54.475 9.047963
54.480 9.518544
54.485 10.109734
54.490 10.458711
54.495 10.71854
54.500 10.680861
54.505 10.867917
54.510 10.873027
54.515 10.242831
54.520 9.822906
54.525 9.384553
54.530 9.27048
54.535 9.77545
54.540 9.769846
54.545 9.001668
54.550 8.836052
54.555 9.062513
54.560 9.396931
54.565 9.412406
54.570 9.410177
54.575 9.694267
54.580 9.881476
54.585 9.589439
54.590 9.006968
54.595 8.90247
54.600 8.801635
54.605 9.171061
54.610 9.730402
54.615 10.261584
54.620 10.588471
54.625 10.740512
54.630 11.119326
54.635 11.266296
54.640 10.792392
54.645 9.892659
54.650 9.629094
54.655 9.789746
54.660 10.21454
54.665 10.008538
54.670 9.858797
54.675 9.571536
54.680 9.812952
54.685 9.711258
54.690 9.808747
54.695 9.446198
54.700 9.049037
54.705 9.137834
54.710 9.284404
54.715 9.570319
54.720 9.612481
54.725 9.539946
54.730 9.998241
54.735 10.283802
54.740 10.30087
54.745 10.578782
54.750 10.305525
54.755 10.4758
54.760 10.497309
54.765 10.516566
54.770 10.510427
54.775 10.657312
54.780 10.91724
54.785 11.154354
54.790 10.815084
54.795 10.428923
54.800 9.926517
54.805 10.113435
54.810 9.747327
54.815 9.608587
54.820 9.502185
54.825 9.922444
54.830 9.79487
54.835 10.295371
54.840 10.178334
54.845 9.932946
54.850 9.657112
54.855 9.918575
54.860 10.12552
54.865 10.201882
54.870 9.87452
54.875 9.973327
54.880 10.578938
54.885 10.940349
54.890 10.415982
54.895 10.158151
54.900 10.249835
54.905 10.275897
54.910 10.222878
54.915 9.938194
54.920 9.967608
54.925 10.331145
54.930 10.203745
54.935 10.139075
54.940 10.333191
54.945 10.176136
54.950 10.145613
54.955 9.869522
54.960 9.958346
54.965 10.280066
54.970 10.061219
54.975 10.193264
54.980 10.244758
54.985 10.21775
54.990 9.891519
54.995 9.552755
55.000 9.553806
55.005 9.537983
55.010 9.531809
55.015 9.458652
55.020 9.084748
55.025 9.429168
55.030 9.611725
55.035 9.667086
55.040 9.604154
55.045 9.888978
55.050 9.919467
55.055 9.474554
55.060 9.378757
55.065 9.172895
55.070 9.046772
55.075 9.293206
55.080 9.083199
55.085 9.447615
55.090 9.907329
55.095 10.226086
55.100 10.439116
55.105 10.342124
55.110 9.889583
55.115 9.548181
55.120 9.839017
55.125 10.009982
55.130 9.701019
55.135 9.863268
55.140 10.148479
55.145 10.37399
55.150 10.626761
55.155 10.826198
55.160 10.63567
55.165 10.758498
55.170 11.282622
55.175 11.654376
55.180 11.96833
55.185 11.859135
55.190 11.695484
55.195 11.573681
55.200 11.10668
55.205 10.819536
55.210 10.684979
55.215 10.56179
55.220 10.609057
55.225 10.329495
55.230 10.438293
55.235 10.041199
55.240 9.485403
55.245 9.442274
55.250 9.446406
55.255 9.247585
55.260 9.110042
55.265 9.567947
55.270 10.146944
55.275 10.327029
55.280 10.047686
55.285 9.718052
55.290 9.804206
55.295 10.237952
55.300 10.359214
55.305 10.208496
55.310 10.049235
55.315 10.75788
55.320 11.194736
55.325 11.693784
55.330 11.950686
55.335 11.794649
55.340 12.146359
55.345 12.197746
55.350 12.171187
55.355 12.108963
55.360 11.654275
55.365 11.405816
55.370 11.500273
55.375 11.743384
55.380 11.569795
55.385 11.321485
55.390 11.541408
55.395 12.244058
55.400 12.270759
55.405 12.429375
55.410 12.126913
55.415 12.271016
55.420 12.677613
55.425 12.571947
55.430 12.275017
55.435 12.090409
55.440 12.094316
55.445 11.862711
55.450 11.689815
55.455 11.434746
55.460 11.519175
55.465 11.724374
55.470 12.084503
55.475 12.275385
55.480 12.83743
55.485 12.725724
55.490 12.714917
55.495 11.609179
55.500 10.995895
55.505 10.384282
55.510 9.743106
55.515 9.47394
55.520 9.54096
55.525 9.759058
55.530 10.29483
55.535 10.780123
55.540 10.853041
55.545 11.077857
55.550 11.407844
55.555 11.33843
55.560 11.202848
55.565 11.284924
55.570 11.777088
55.575 12.052224
55.580 11.948537
55.585 11.504265
55.590 11.298285
55.595 11.30193
55.600 10.950436
55.605 10.572049
55.610 10.701805
55.615 10.880561
55.620 11.338538
55.625 11.707903
55.630 11.958983
55.635 12.099768
55.640 12.065772
55.645 11.901538
55.650 12.171975
55.655 12.41062
55.660 12.483759
55.665 12.633832
55.670 12.314724
55.675 12.395061
55.680 12.721662
55.685 12.615033
55.690 12.199591
55.695 12.002048
55.700 11.971959
55.705 12.087605
55.710 12.17556
55.715 11.80143
55.720 11.814598
55.725 11.852732
55.730 11.762962
55.735 11.601227
55.740 11.446546
55.745 11.487329
55.750 11.640545
55.755 11.494442
55.760 11.317973
55.765 11.711056
55.770 12.475704
55.775 12.589386
55.780 12.645411
55.785 12.268993
55.790 12.302935
55.795 12.524172
55.800 12.210564
55.805 12.046604
55.810 12.040331
55.815 12.076042
55.820 12.203023
55.825 11.974836
55.830 11.614473
55.835 11.766708
55.840 11.484391
55.845 11.408623
55.850 11.585496
55.855 11.683467
55.860 12.003297
55.865 12.201147
55.870 11.721382
55.875 11.767838
55.880 11.351393
55.885 11.016744
55.890 10.899302
55.895 10.746897
55.900 10.781674
55.905 10.672363
55.910 11.104602
55.915 11.875533
55.920 12.149445
55.925 12.004009
55.930 12.547361
55.935 12.802623
55.940 12.996191
55.945 12.916701
55.950 12.863379
55.955 12.875298
55.960 12.763386
55.965 12.411661
55.970 12.237373
55.975 12.542842
55.980 12.280522
55.985 11.754272
55.990 11.810479
55.995 11.484015
56.000 11.429527
56.005 11.507414
56.010 11.258582
56.015 11.234001
56.020 11.527297
56.025 11.594531
56.030 12.141907
56.035 12.454004
56.040 11.989495
56.045 11.860195
56.050 12.289672
56.055 12.270616
56.060 12.27425
56.065 12.152964
56.070 12.163932
56.075 12.35161
56.080 12.464534
56.085 12.226998
56.090 12.584253
56.095 12.625605
56.100 12.4586
56.105 12.441936
56.110 11.949873
56.115 11.619313
56.120 11.17065
56.125 10.767205
56.130 10.526578
56.135 10.301332
56.140 10.407945
56.145 10.963217
56.150 11.261484
56.155 11.37351
56.160 11.754098
56.165 12.004411
56.170 12.171498
56.175 12.494223
56.180 12.583832
56.185 12.104119
56.190 11.626702
56.195 11.130601
56.200 10.97961
56.205 11.041527
56.210 10.984352
56.215 11.056569
56.220 11.294235
56.225 12.100713
56.230 12.204633
56.235 12.42065
56.240 12.243048
56.245 12.377267
56.250 12.596217
56.255 12.640269
56.260 12.665104
56.265 12.930624
56.270 12.700721
56.275 12.499281
56.280 11.746727
56.285 11.4827
56.290 11.513903
56.295 11.563702
56.300 11.679059
56.305 12.04737
56.310 12.060192
56.315 12.483312
56.320 12.666617
56.325 12.697237
56.330 12.555587
56.335 11.850826
56.340 11.402987
56.345 11.715576
56.350 11.763962
56.355 11.943995
56.360 11.75182
56.365 11.932803
56.370 12.58137
56.375 13.018966
56.380 13.206983
56.385 12.960629
56.390 12.671341
56.395 12.427836
56.400 11.971506
56.405 11.930613
56.410 11.566743
56.415 11.097171
56.420 11.262347
56.425 11.659373
56.430 12.172556
56.435 12.354159
56.440 12.516759
56.445 12.633076
56.450 13.281245
56.455 13.732887
56.460 14.101482
56.465 13.858126
56.470 13.768194
56.475 13.424213
56.480 13.291475
56.485 12.73937
56.490 12.768276
56.495 12.338677
56.500 12.37722
56.505 12.213295
56.510 12.589009
56.515 12.558269
56.520 12.970872
56.525 12.439254
56.530 12.452017
56.535 12.650893
56.540 12.653252
56.545 12.439214
56.550 12.208444
56.555 11.837912
56.560 11.166695
56.565 10.896391
56.570 11.136522
56.575 10.930742
56.580 11.112227
56.585 10.975766
56.590 10.845995
56.595 11.581318
56.600 11.670918
56.605 11.453544
56.610 11.324992
56.615 11.056818
56.620 10.94284
56.625 11.210603
56.630 11.046178
56.635 11.430012
56.640 11.203543
56.645 10.902872
56.650 10.80461
56.655 11.500458
56.660 11.609402
56.665 11.594568
56.670 11.346589
56.675 11.425692
56.680 12.031439
56.685 12.440915
56.690 12.087548
56.695 12.210992
56.700 12.191986
56.705 12.489382
56.710 13.149552
56.715 13.136035
56.720 13.467241
56.725 13.89661
56.730 14.327803
56.735 14.374418
56.740 14.230399
56.745 13.804066
56.750 13.485034
56.755 13.149566
56.760 12.73553
56.765 12.479488
56.770 12.725034
56.775 12.814034
56.780 13.034251
56.785 13.424805
56.790 13.14667
56.795 13.007942
56.800 13.101848
56.805 12.900057
56.810 13.171177
56.815 12.807798
56.820 12.830321
56.825 13.266622
56.830 13.491378
56.835 13.205144
56.840 13.245007
56.845 12.398223
56.850 12.340003
56.855 11.863834
56.860 11.562836
56.865 11.346748
56.870 11.162953
56.875 11.298681
56.880 11.907256
56.885 11.863261
56.890 12.575367
56.895 13.014625
56.900 13.240177
56.905 12.980283
56.910 12.814097
56.915 12.814433
56.920 13.023058
56.925 12.771865
56.930 12.063663
56.935 12.25939
56.940 13.072777
56.945 13.23875
56.950 13.383397
56.955 13.392455
56.960 12.890921
56.965 13.099881
56.970 12.770783
56.975 12.523511
56.980 12.667204
56.985 12.96896
56.990 13.578834
56.995 13.997475
57.000 13.725926
57.005 13.120613
57.010 12.724327
57.015 12.698474
57.020 12.041389
57.025 11.615066
57.030 11.13973
57.035 11.355168
57.040 11.654413
57.045 11.707409
57.050 11.734982
57.055 11.657688
57.060 11.567145
57.065 11.730085
57.070 12.094561
57.075 12.498049
57.080 12.14157
57.085 11.378822
57.090 11.192739
57.095 11.384366
57.100 11.881761
57.105 12.035542
57.110 12.199661
57.115 12.760231
57.120 13.196362
57.125 13.195641
57.130 13.015294
57.135 12.606081
57.140 12.079268
57.145 11.986853
57.150 12.319818
57.155 12.406817
57.160 12.632016
57.165 12.558834
57.170 12.668373
57.175 12.498229
57.180 12.55489
57.185 12.292276
57.190 12.296925
57.195 12.285891
57.200 12.154999
57.205 11.958512
57.210 11.478564
57.215 11.249496
57.220 11.009583
57.225 11.35347
57.230 11.473148
57.235 11.85499
57.240 12.090553
57.245 12.452554
57.250 12.543435
57.255 12.774802
57.260 13.037506
57.265 12.712391
57.270 12.608746
57.275 12.233663
57.280 12.683379
57.285 12.619124
57.290 12.427206
57.295 12.163547
57.300 12.169321
57.305 12.228562
57.310 12.471173
57.315 12.634764
57.320 13.291217
57.325 13.659514
57.330 13.771198
57.335 13.882672
57.340 14.240941
57.345 14.743813
57.350 14.355509
57.355 13.898498
57.360 13.550454
57.365 13.753519
57.370 13.879096
57.375 13.406755
57.380 13.190619
57.385 13.583155
57.390 13.796128
57.395 13.947824
57.400 13.651848
57.405 13.418124
57.410 13.554259
57.415 13.284912
57.420 13.036571
57.425 13.040295
57.430 13.201835
57.435 13.547232
57.440 13.885172
57.445 13.851687
57.450 14.038549
57.455 13.384573
57.460 13.079164
57.465 12.595257
57.470 12.288748
57.475 11.982499
57.480 12.287372
57.485 12.410913
57.490 13.116708
57.495 13.169621
57.500 13.034902
57.505 13.288153
57.510 13.06209
57.515 13.056808
57.520 12.830654
57.525 12.714828
57.530 12.952836
57.535 13.084002
57.540 13.345627
57.545 13.538239
57.550 13.73826
57.555 13.663264
57.560 13.575561
57.565 13.908305
57.570 14.338593
57.575 14.015171
57.580 13.528006
57.585 13.110662
57.590 12.910717
57.595 12.494231
57.600 12.254065
57.605 11.845821
57.610 11.896043
57.615 12.403771
57.620 12.524434
57.625 12.815639
57.630 12.917131
57.635 13.075176
57.640 13.063448
57.645 13.231012
57.650 12.922926
57.655 13.082625
57.660 13.37918
57.665 13.588474
57.670 13.314927
57.675 13.529971
57.680 13.286438
57.685 13.380761
57.690 13.244987
57.695 13.009653
57.700 13.279001
57.705 12.888674
57.710 12.529211
57.715 12.726646
57.720 13.069714
57.725 13.166841
57.730 13.772784
57.735 13.806309
57.740 14.044926
57.745 14.451547
57.750 14.556869
57.755 14.617829
57.760 15.052299
57.765 14.762581
57.770 14.664657
57.775 14.853607
57.780 15.158484
57.785 14.88017
57.790 14.904477
57.795 13.920568
57.800 13.381757
57.805 13.301471
57.810 13.046008
57.815 12.717913
57.820 13.266348
57.825 13.269693
57.830 14.004027
57.835 14.787057
57.840 15.164733
57.845 15.000078
57.850 14.890889
57.855 14.297215
57.860 14.121675
57.865 14.034928
57.870 14.001029
57.875 13.89215
57.880 14.551761
57.885 14.957468
57.890 14.474857
57.895 14.493276
57.900 13.991335
57.905 13.72427
57.910 13.403708
57.915 12.913146
57.920 13.066138
57.925 13.677547
57.930 14.029529
57.935 14.368721
57.940 14.697795
57.945 15.147432
57.950 15.45402
57.955 15.099295
57.960 15.249899
57.965 15.531663
57.970 15.58532
57.975 15.736021
57.980 15.910718
57.985 15.61614
57.990 15.684295
57.995 15.777991
58.000 15.813929
58.005 15.779938
58.010 15.09601
58.015 14.844475
58.020 15.135689
58.025 15.499504
58.030 15.032225
58.035 14.464207
58.040 14.780622
58.045 15.009649
58.050 15.403036
58.055 15.458927
58.060 15.121351
58.065 14.82229
58.070 14.733064
58.075 14.560113
58.080 14.596587
58.085 14.600666
58.090 14.788233
58.095 15.294756
58.100 15.972931
58.105 16.173859
58.110 16.559269
58.115 16.423498
58.120 15.969915
58.125 15.758601
58.130 15.491387
58.135 16.08283
58.140 15.661419
58.145 15.639228
58.150 15.739795
58.155 15.415453
58.160 15.185685
58.165 15.127837
58.170 14.63926
58.175 14.561525
58.180 13.578822
58.185 13.649722
58.190 13.907548
58.195 13.729151
58.200 13.808609
58.205 14.325315
58.210 15.392559
58.215 15.550906
58.220 15.638297
58.225 16.126726
58.230 16.922007
58.235 16.362288
58.240 16.076706
58.245 15.924204
58.250 16.094902
58.255 15.469624
58.260 14.980628
58.265 14.408628
58.270 14.843695
58.275 15.008226
58.280 15.563704
58.285 16.526667
58.290 17.571627
58.295 18.219744
58.300 18.219843
58.305 18.387815
58.310 18.461058
58.315 18.014254
58.320 17.778543
58.325 17.691082
58.330 17.916834
58.335 18.514109
58.340 18.471062
58.345 18.048756
58.350 17.757515
58.355 18.12166
58.360 18.185003
58.365 18.317327
58.370 18.27092
58.375 18.337986
58.380 18.760033
58.385 18.978678
58.390 18.643019
58.395 19.107874
58.400 19.352003
58.405 19.791687
58.410 19.801912
58.415 20.250921
58.420 20.915522
58.425 20.931427
58.430 20.815947
58.435 21.172562
58.440 21.480421
58.445 21.900131
58.450 22.188938
58.455 23.131517
58.460 23.67882
58.465 24.028622
58.470 23.389204
58.475 23.682842
58.480 24.385361
58.485 24.535967
58.490 24.517633
58.495 25.161936
58.500 25.728567
58.505 26.754847
58.510 27.329945
58.515 27.582132
58.520 28.140448
58.525 28.496666
58.530 28.987843
58.535 29.239567
