!@!!GADDS PLOTSO FILE: Chi integration type
!@!!Title/SampleName: map-16f
!@!!Comment: ?
!@!!User: Bruker Instrument Administrator
!@!!Site: University of Illinois Chicago
!@!!Frame: map-16f_01_000.gfrm
!@!!Wavelengths    1.54184   1.54056   1.54439
!@!!Frame angles: 2Theta: 63.000 Omega: 50.000 Phi: 0.000 Chi: 90.000
!@!!Integration range: 2Theta: 53.000 to 73.000  Gamma: -105.000 to -75.000
!@!!Integration method: bin normalized
!@!N
!@!SS
!@!M
!@!L 0.0 0.0 0.0 0.0
!@!XDegrees
!@!YCounts
53.000 3.950412
53.005 3.428176
53.010 3.259419
53.015 3.120309
53.020 3.299388
53.025 3.2375
53.030 3.188143
53.035 3.732517
53.040 3.830757
53.045 3.680611
53.050 3.641261
53.055 3.254817
53.060 3.11953
53.065 3.130764
53.070 2.757053
53.075 2.80533
53.080 3.136356
53.085 3.631106
53.090 3.954087
53.095 4.129282
53.100 3.842951
53.105 4.138985
53.110 4.408079
53.115 4.148844
53.120 4.107692
53.125 4.052317
53.130 4.003038
53.135 4.291886
53.140 4.00702
53.145 4.167599
53.150 4.550983
53.155 4.536475
53.160 4.394917
53.165 4.295774
53.170 4.305648
53.175 4.30115
53.180 4.273501
53.185 4.229189
53.190 4.264372
53.195 4.373328
53.200 4.639915
53.205 4.255323
53.210 4.232142
53.215 3.875853
53.220 3.656051
53.225 3.976139
53.230 3.769444
53.235 3.384421
53.240 3.747868
53.245 3.796185
53.250 3.666322
53.255 3.426466
53.260 3.432685
53.265 3.676621
53.270 3.941494
53.275 3.766589
53.280 3.806942
53.285 3.88556
53.290 3.861995
53.295 3.745906
53.300 3.78157
53.305 3.502127
53.310 3.379508
53.315 3.430257
53.320 3.664559
53.325 3.608394
53.330 3.746507
53.335 3.860628
53.340 3.603759
53.345 3.460928
53.350 3.445561
53.355 3.599428
53.360 3.751403
53.365 3.719301
53.370 3.977334
53.375 4.166195
53.380 4.307946
53.385 4.012161
53.390 3.658535
53.395 3.694275
53.400 3.340791
53.405 3.222105
53.410 3.247741
53.415 3.634321
53.420 3.99697
53.425 3.80863
53.430 3.56153
53.435 3.632493
53.440 3.630292
53.445 3.601716
53.450 3.141318
53.455 3.520643
53.460 3.607455
53.465 3.863417
53.470 3.898621
53.475 4.098254
53.480 4.124284
53.485 3.97747
53.490 3.705415
53.495 3.788109
53.500 3.858043
53.505 3.722591
53.510 3.693292
53.515 3.759412
53.520 4.016982
53.525 4.153362
53.530 4.292658
53.535 4.115244
53.540 4.207049
53.545 3.982802
53.550 3.665626
53.555 3.450836
53.560 3.13098
53.565 2.954091
53.570 2.937317
53.575 2.941209
53.580 3.0184
53.585 3.273628
53.590 3.599622
53.595 3.803965
53.600 3.905212
53.605 3.859326
53.610 3.827785
53.615 3.91589
53.620 3.813203
53.625 3.699709
53.630 3.581059
53.635 3.578815
53.640 3.819315
53.645 3.811994
53.650 3.671286
53.655 3.526573
53.660 3.441244
53.665 3.273655
53.670 3.108614
53.675 2.846369
53.680 3.243363
53.685 3.575352
53.690 3.626321
53.695 3.353911
53.700 3.21857
53.705 3.388605
53.710 3.500677
53.715 3.008838
53.720 2.71706
53.725 3.099422
53.730 3.182041
53.735 3.311944
53.740 3.161597
53.745 3.063532
53.750 3.113555
53.755 3.082929
53.760 3.102502
53.765 3.350441
53.770 3.566625
53.775 3.695295
53.780 3.626527
53.785 3.676674
53.790 3.605409
53.795 3.347009
53.800 3.159816
53.805 3.220225
53.810 3.260464
53.815 3.54363
53.820 3.690443
53.825 3.612287
53.830 3.592883
53.835 3.519561
53.840 3.410132
53.845 3.203812
53.850 3.161902
53.855 3.023264
53.860 3.073239
53.865 3.237283
53.870 3.443757
53.875 3.511321
53.880 3.665153
53.885 3.547685
53.890 3.583802
53.895 3.930675
53.900 3.741757
53.905 3.491742
53.910 3.420386
53.915 3.53415
53.920 3.513978
53.925 3.475934
53.930 3.018992
53.935 3.088825
53.940 3.131665
53.945 2.931726
53.950 2.82716
53.955 2.934761
53.960 3.261423
53.965 3.649576
53.970 3.71854
53.975 3.714387
53.980 3.642037
53.985 3.425913
53.990 3.420659
53.995 3.177086
54.000 3.424547
54.005 3.54711
54.010 3.398573
54.015 3.552511
54.020 3.586081
54.025 3.834656
54.030 4.114224
54.035 4.115597
54.040 4.100322
54.045 4.541277
54.050 4.712335
54.055 4.800354
54.060 4.586559
54.065 4.102353
54.070 3.938282
54.075 3.935527
54.080 3.647753
54.085 3.55826
54.090 3.561878
54.095 3.452422
54.100 3.472027
54.105 3.401238
54.110 3.402838
54.115 3.701752
54.120 3.71404
54.125 3.460264
54.130 3.392329
54.135 3.278862
54.140 3.497121
54.145 3.363347
54.150 3.066284
54.155 3.059286
54.160 3.115594
54.165 3.259259
54.170 3.391032
54.175 3.193926
54.180 3.441562
54.185 3.367517
54.190 3.297927
54.195 3.561811
54.200 3.461153
54.205 3.500711
54.210 3.528268
54.215 3.555571
54.220 3.701997
54.225 3.617182
54.230 3.559323
54.235 3.720974
54.240 3.832803
54.245 4.177834
54.250 4.249321
54.255 4.282782
54.260 4.53377
54.265 4.800139
54.270 4.739182
54.275 4.523056
54.280 3.982332
54.285 4.002852
54.290 3.994498
54.295 3.623468
54.300 3.226383
54.305 3.164215
54.310 3.127508
54.315 3.431759
54.320 3.246202
54.325 3.186424
54.330 3.303146
54.335 3.398679
54.340 3.17409
54.345 3.193002
54.350 3.096026
54.355 3.254693
54.360 3.323956
54.365 3.371548
54.370 3.466233
54.375 3.4563
54.380 3.314121
54.385 3.292306
54.390 3.315908
54.395 3.09172
54.400 3.066559
54.405 3.444587
54.410 3.802927
54.415 3.756039
54.420 3.824356
54.425 3.957782
54.430 4.090576
54.435 4.001498
54.440 3.826549
54.445 3.657756
54.450 3.661562
54.455 3.653557
54.460 3.697977
54.465 3.902132
54.470 3.609185
54.475 3.380852
54.480 3.188756
54.485 3.172042
54.490 2.859645
54.495 2.845631
54.500 2.864071
54.505 3.115477
54.510 3.421101
54.515 3.55954
54.520 3.462057
54.525 3.545432
54.530 3.420115
54.535 3.469948
54.540 3.371458
54.545 3.379645
54.550 3.372502
54.555 3.46818
54.560 3.686819
54.565 3.50335
54.570 3.282123
54.575 3.011615
54.580 2.89866
54.585 3.257628
54.590 3.313736
54.595 3.03496
54.600 3.132586
54.605 3.172417
54.610 3.37801
54.615 3.374492
54.620 3.132144
54.625 3.136936
54.630 3.248868
54.635 3.240866
54.640 3.331878
54.645 3.221312
54.650 3.259676
54.655 3.173279
54.660 3.030392
54.665 3.139804
54.670 3.167317
54.675 3.223169
54.680 3.552985
54.685 3.674818
54.690 3.812903
54.695 3.914844
54.700 3.782729
54.705 3.867228
54.710 3.86767
54.715 3.588404
54.720 3.371401
54.725 3.456741
54.730 3.629035
54.735 3.737196
54.740 3.761972
54.745 3.982624
54.750 4.06799
54.755 4.169194
54.760 4.185583
54.765 4.13282
54.770 4.211517
54.775 4.17788
54.780 4.060662
54.785 3.946199
54.790 4.034064
54.795 4.158089
54.800 4.154256
54.805 4.145362
54.810 3.976954
54.815 3.677944
54.820 3.551572
54.825 3.637989
54.830 3.421591
54.835 3.408745
54.840 3.294539
54.845 3.780772
54.850 4.037284
54.855 3.893067
54.860 3.799749
54.865 3.693791
54.870 3.739969
54.875 3.85531
54.880 3.882205
54.885 3.992011
54.890 4.172153
54.895 3.880229
54.900 3.693945
54.905 3.650264
54.910 3.3691
54.915 3.497177
54.920 3.559818
54.925 3.361636
54.930 3.354092
54.935 3.353577
54.940 3.293096
54.945 3.590081
54.950 3.634852
54.955 3.743788
54.960 3.854771
54.965 4.007637
54.970 4.146659
54.975 4.125496
54.980 3.697713
54.985 3.279603
54.990 3.136858
54.995 3.433927
55.000 3.663573
55.005 3.892173
55.010 3.991597
55.015 4.062825
55.020 4.256211
55.025 4.310419
55.030 3.989676
55.035 3.663849
55.040 3.458581
55.045 3.272932
55.050 2.97713
55.055 2.591213
55.060 2.753836
55.065 3.043167
55.070 2.990434
55.075 2.848876
55.080 3.118375
55.085 3.341028
55.090 3.621274
55.095 3.426213
55.100 3.353003
55.105 3.487521
55.110 3.597336
55.115 3.705909
55.120 3.766221
55.125 3.947863
55.130 4.074069
55.135 4.071599
55.140 4.109112
55.145 4.095768
55.150 4.175028
55.155 4.498955
55.160 4.514627
55.165 4.466522
55.170 4.577487
55.175 4.587283
55.180 4.390434
55.185 4.247039
55.190 3.676102
55.195 3.490809
55.200 3.638432
55.205 3.458434
55.210 3.630928
55.215 3.835038
55.220 3.921675
55.225 4.007727
55.230 3.617129
55.235 3.446811
55.240 3.450995
55.245 3.29711
55.250 3.161909
55.255 3.186266
55.260 3.667409
55.265 4.123676
55.270 4.373917
55.275 4.508454
55.280 4.3048
55.285 4.264239
55.290 4.012765
55.295 3.720937
55.300 3.465945
55.305 3.038812
55.310 2.847498
55.315 2.983516
55.320 3.082497
55.325 3.094754
55.330 3.172103
55.335 3.518543
55.340 3.943985
55.345 4.016581
55.350 3.96069
55.355 3.755511
55.360 3.962173
55.365 3.779818
55.370 3.542433
55.375 3.637547
55.380 3.68118
55.385 3.900132
55.390 4.088357
55.395 3.932456
55.400 4.030473
55.405 3.963369
55.410 3.677711
55.415 3.709743
55.420 3.646432
55.425 3.562318
55.430 3.617176
55.435 3.696789
55.440 3.890797
55.445 4.232207
55.450 4.234282
55.455 4.154672
55.460 4.208189
55.465 4.152328
55.470 3.946639
55.475 3.59314
55.480 3.383185
55.485 3.410638
55.490 3.433061
55.495 3.409858
55.500 3.640186
55.505 4.053599
55.510 4.415919
55.515 4.554984
55.520 4.888244
55.525 5.264395
55.530 5.319237
55.535 5.17163
55.540 4.876536
55.545 4.452961
55.550 4.018474
55.555 3.45543
55.560 3.188518
55.565 3.373823
55.570 3.266572
55.575 3.191583
55.580 3.396651
55.585 3.645838
55.590 3.944781
55.595 3.894646
55.600 3.729599
55.605 3.826372
55.610 3.85104
55.615 3.940221
55.620 3.946903
55.625 3.674192
55.630 3.187443
55.635 3.085057
55.640 3.108181
55.645 3.209234
55.650 3.042853
55.655 2.986572
55.660 3.093206
55.665 3.187552
55.670 3.208416
55.675 3.191727
55.680 3.071143
55.685 3.111827
55.690 3.291629
55.695 3.627547
55.700 3.978389
55.705 4.013142
55.710 4.099566
55.715 4.454716
55.720 4.22384
55.725 3.989858
55.730 3.825512
55.735 3.643285
55.740 3.874183
55.745 3.819122
55.750 3.638807
55.755 3.886379
55.760 3.9295
55.765 3.885821
55.770 3.689869
55.775 3.442424
55.780 3.195951
55.785 3.077291
55.790 3.016539
55.795 3.212139
55.800 3.283427
55.805 3.440981
55.810 3.131329
55.815 3.346867
55.820 3.517073
55.825 3.581338
55.830 3.709766
55.835 3.77924
55.840 3.75698
55.845 3.970127
55.850 4.118518
55.855 4.176129
55.860 3.710153
55.865 3.46681
55.870 3.362221
55.875 3.423636
55.880 3.238468
55.885 2.882448
55.890 3.047878
55.895 3.4226
55.900 3.456504
55.905 3.701888
55.910 4.002108
55.915 4.382356
55.920 4.51368
55.925 4.763373
55.930 5.086275
55.935 5.077826
55.940 4.945485
55.945 4.680214
55.950 4.552474
55.955 4.536067
55.960 4.023576
55.965 3.577337
55.970 3.397113
55.975 3.365574
55.980 3.360571
55.985 3.338915
55.990 3.366165
55.995 3.382428
56.000 3.724713
56.005 3.689635
56.010 3.547286
56.015 3.522885
56.020 3.696216
56.025 3.806988
56.030 3.832169
56.035 3.552356
56.040 3.759225
56.045 4.031468
56.050 4.108432
56.055 3.948899
56.060 3.990324
56.065 4.206754
56.070 4.404956
56.075 4.373294
56.080 4.261176
56.085 4.300181
56.090 4.374443
56.095 4.106169
56.100 3.983885
56.105 3.793672
56.110 3.796188
56.115 3.870992
56.120 4.023777
56.125 3.921339
56.130 3.719453
56.135 3.386896
56.140 3.316832
56.145 3.118243
56.150 3.086259
56.155 2.869878
56.160 2.987754
56.165 3.245298
56.170 3.498762
56.175 3.712276
56.180 3.997154
56.185 3.724037
56.190 3.571894
56.195 3.446726
56.200 3.4406
56.205 3.200901
56.210 3.13834
56.215 3.442608
56.220 3.447931
56.225 3.528701
56.230 3.583021
56.235 3.577471
56.240 3.779558
56.245 3.803023
56.250 3.737113
56.255 3.908606
56.260 3.844573
56.265 4.090152
56.270 4.44407
56.275 4.305351
56.280 4.013516
56.285 3.678314
56.290 3.54979
56.295 3.748686
56.300 3.522341
56.305 3.322605
56.310 3.487173
56.315 3.451573
56.320 3.695491
56.325 3.80907
56.330 3.652383
56.335 3.483167
56.340 3.491921
56.345 3.345639
56.350 3.328562
56.355 3.10025
56.360 3.187023
56.365 3.187978
56.370 3.395129
56.375 3.631536
56.380 3.752094
56.385 3.830632
56.390 3.598161
56.395 3.456804
56.400 3.637605
56.405 3.435086
56.410 3.288081
56.415 3.071182
56.420 3.225137
56.425 3.583481
56.430 3.675029
56.435 3.581716
56.440 3.812338
56.445 4.030253
56.450 4.222511
56.455 4.196256
56.460 4.176137
56.465 3.917676
56.470 4.087695
56.475 4.010431
56.480 3.946284
56.485 3.991429
56.490 3.920404
56.495 4.031265
56.500 4.146775
56.505 3.880318
56.510 3.981441
56.515 3.912607
56.520 3.843879
56.525 3.947062
56.530 4.051278
56.535 3.95422
56.540 3.997543
56.545 3.787526
56.550 4.016043
56.555 4.060368
56.560 4.004858
56.565 3.786444
56.570 3.702565
56.575 3.525423
56.580 3.547158
56.585 3.65959
56.590 3.714639
56.595 3.859033
56.600 4.208526
56.605 4.356757
56.610 4.389393
56.615 4.112453
56.620 3.707098
56.625 3.347249
56.630 2.880685
56.635 2.646672
56.640 2.569427
56.645 2.538239
56.650 2.67019
56.655 2.979015
56.660 3.330358
56.665 3.613675
56.670 3.699512
56.675 3.843773
56.680 4.068871
56.685 3.927914
56.690 3.70688
56.695 3.266928
56.700 3.120454
56.705 3.304955
56.710 3.066482
56.715 3.021426
56.720 3.420267
56.725 3.604221
56.730 4.157787
56.735 4.489563
56.740 4.316682
56.745 4.373694
56.750 4.498219
56.755 4.338595
56.760 4.331419
56.765 4.211323
56.770 3.821687
56.775 3.972855
56.780 3.944303
56.785 3.755943
56.790 3.701313
56.795 3.532546
56.800 3.554581
56.805 3.753746
56.810 3.708529
56.815 3.806051
56.820 4.01539
56.825 4.062413
56.830 4.105989
56.835 4.06523
56.840 4.310138
56.845 4.381287
56.850 4.439295
56.855 4.471756
56.860 4.4341
56.865 4.371989
56.870 4.238561
56.875 4.137981
56.880 3.898797
56.885 3.868533
56.890 3.746093
56.895 3.72906
56.900 3.74306
56.905 3.717437
56.910 3.651967
56.915 3.797991
56.920 3.533148
56.925 3.354603
56.930 3.414777
56.935 3.388058
56.940 3.760685
56.945 3.944677
56.950 4.005949
56.955 4.140268
56.960 4.134579
56.965 4.088931
56.970 3.824907
56.975 3.42139
56.980 3.416356
56.985 3.650954
56.990 3.937073
56.995 4.445164
57.000 4.837469
57.005 4.819654
57.010 4.536478
57.015 4.242284
57.020 3.834299
57.025 3.500605
57.030 3.259057
57.035 3.202374
57.040 3.602352
57.045 3.581169
57.050 3.707014
57.055 3.683068
57.060 3.829435
57.065 3.849206
57.070 3.86776
57.075 3.985454
57.080 4.424211
57.085 4.387837
57.090 4.582028
57.095 4.61471
57.100 4.453997
57.105 4.108495
57.110 3.931987
57.115 3.777903
57.120 3.686725
57.125 3.547741
57.130 3.557109
57.135 3.748696
57.140 3.787346
57.145 3.620824
57.150 3.898632
57.155 4.255787
57.160 4.278608
57.165 4.142847
57.170 4.029571
57.175 4.391686
57.180 4.598727
57.185 4.437607
57.190 4.410584
57.195 4.342951
57.200 4.43815
57.205 4.639245
57.210 4.665445
57.215 4.65767
57.220 4.357373
57.225 4.462138
57.230 4.652217
57.235 4.616536
57.240 4.406453
57.245 4.076438
57.250 3.900977
57.255 3.909552
57.260 3.445848
57.265 3.412024
57.270 3.207338
57.275 3.188389
57.280 3.424966
57.285 3.512302
57.290 3.585231
57.295 3.652014
57.300 3.600065
57.305 3.787506
57.310 3.764552
57.315 3.591238
57.320 3.609457
57.325 3.80991
57.330 3.653135
57.335 3.863826
57.340 4.11005
57.345 4.110452
57.350 4.354761
57.355 4.101458
57.360 4.076008
57.365 4.306748
57.370 4.063435
57.375 3.817631
57.380 3.9571
57.385 4.083944
57.390 4.373507
57.395 4.718319
57.400 4.708025
57.405 4.649363
57.410 4.65624
57.415 4.326851
57.420 4.069623
57.425 3.837859
57.430 3.26514
57.435 3.225292
57.440 3.297987
57.445 3.311944
57.450 3.156183
57.455 3.024606
57.460 3.032888
57.465 3.220792
57.470 3.092902
57.475 3.120162
57.480 3.195623
57.485 3.492799
57.490 4.010156
57.495 4.367287
57.500 4.630444
57.505 4.791578
57.510 4.894731
57.515 5.206278
57.520 5.029863
57.525 4.731827
57.530 4.677008
57.535 4.442489
57.540 4.455264
57.545 4.226575
57.550 4.228603
57.555 4.259394
57.560 4.241838
57.565 4.13721
57.570 4.227735
57.575 4.206024
57.580 4.289752
57.585 4.267885
57.590 4.566049
57.595 4.791542
57.600 4.819123
57.605 4.74045
57.610 4.696654
57.615 4.661004
57.620 4.47781
57.625 4.46866
57.630 4.403808
57.635 4.381772
57.640 4.335581
57.645 4.406711
57.650 4.466744
57.655 4.342071
57.660 3.942089
57.665 3.866192
57.670 4.034516
57.675 4.251823
57.680 4.166278
57.685 4.027379
57.690 4.2628
57.695 4.341432
57.700 4.047491
57.705 3.699735
57.710 3.521353
57.715 3.465395
57.720 3.766091
57.725 3.632514
57.730 3.610846
57.735 3.93136
57.740 3.959595
57.745 4.069108
57.750 3.995914
57.755 3.905269
57.760 4.224843
57.765 4.536436
57.770 4.577657
57.775 4.706317
57.780 4.70435
57.785 4.716341
57.790 4.59122
57.795 4.353004
57.800 4.429588
57.805 4.162385
57.810 3.948196
57.815 4.325054
57.820 4.342932
57.825 4.247842
57.830 4.252686
57.835 4.178144
57.840 4.503345
57.845 4.467069
57.850 4.09209
57.855 4.249174
57.860 4.184465
57.865 4.151835
57.870 4.186141
57.875 4.171462
57.880 4.448725
57.885 4.572215
57.890 4.745769
57.895 4.936416
57.900 4.991348
57.905 4.953554
57.910 4.880226
57.915 5.037758
57.920 4.993074
57.925 4.771703
57.930 4.753191
57.935 4.446877
57.940 4.133287
57.945 3.927293
57.950 3.669185
57.955 3.459725
57.960 3.534631
57.965 3.689922
57.970 3.87797
57.975 4.264187
57.980 4.219351
57.985 4.311822
57.990 4.430042
57.995 4.162944
58.000 4.104719
58.005 4.130903
58.010 3.901574
58.015 4.124247
58.020 4.113719
58.025 4.195302
58.030 4.545445
58.035 4.91058
58.040 4.886853
58.045 4.824216
58.050 4.657135
58.055 4.497427
58.060 4.321852
58.065 4.00498
58.070 3.579719
58.075 3.356137
58.080 3.651564
58.085 3.933892
58.090 4.057153
58.095 3.929521
58.100 3.674379
58.105 3.998208
58.110 4.348377
58.115 4.341261
58.120 4.272627
58.125 4.283886
58.130 4.473957
58.135 4.660937
58.140 4.575876
58.145 4.272602
58.150 4.258386
58.155 3.968311
58.160 3.769563
58.165 3.888138
58.170 3.879298
58.175 3.848515
58.180 3.810892
58.185 3.635926
58.190 3.711348
58.195 4.088838
58.200 4.019839
58.205 3.917392
58.210 3.696041
58.215 3.743032
58.220 3.826224
58.225 3.925858
58.230 3.820916
58.235 4.009271
58.240 4.247627
58.245 4.520964
58.250 4.424049
58.255 4.432973
58.260 4.374192
58.265 4.420455
58.270 4.463669
58.275 4.182836
58.280 4.128827
58.285 4.361083
58.290 4.245244
58.295 4.555505
58.300 4.43723
58.305 4.791148
58.310 5.175695
58.315 5.360869
58.320 5.364114
58.325 5.395181
58.330 5.068196
58.335 5.022017
58.340 4.569493
58.345 4.772075
58.350 4.448754
58.355 4.039339
58.360 4.289389
58.365 4.488472
58.370 4.435645
58.375 4.479871
58.380 4.196649
58.385 4.61343
58.390 4.967675
58.395 4.965813
58.400 5.090395
58.405 4.983342
58.410 4.841965
58.415 5.106615
58.420 5.535158
58.425 5.563682
58.430 5.185863
58.435 4.867934
58.440 5.202719
58.445 5.297846
58.450 4.871509
58.455 4.490103
58.460 4.347854
58.465 4.248794
58.470 4.216759
58.475 4.095822
58.480 4.157767
58.485 4.183272
58.490 4.340858
58.495 4.508721
58.500 4.886706
58.505 5.316475
58.510 5.554089
58.515 5.564201
58.520 5.583966
58.525 5.164539
58.530 5.169807
58.535 5.274537
58.540 4.75674
58.545 4.253275
58.550 4.127886
58.555 4.156832
58.560 4.601892
58.565 4.869586
58.570 4.898611
58.575 5.068906
58.580 5.208924
58.585 5.206231
58.590 5.19546
58.595 5.138816
58.600 4.8543
58.605 4.858583
58.610 5.087078
58.615 5.102271
58.620 5.056269
58.625 5.168103
58.630 5.106141
58.635 4.799285
58.640 4.608636
58.645 4.329423
58.650 4.390686
58.655 4.553161
58.660 4.264612
58.665 4.438436
58.670 5.081026
58.675 5.161962
58.680 5.200059
58.685 5.326561
58.690 5.276139
58.695 5.718568
58.700 5.59035
58.705 5.08395
58.710 4.983427
58.715 4.913774
58.720 4.820444
58.725 5.056975
58.730 4.836875
58.735 4.764603
58.740 5.016992
58.745 5.447784
58.750 5.934286
58.755 6.163157
