!@!!GADDS PLOTSO FILE: Chi integration type
!@!!Title/SampleName: map-5c
!@!!Comment: ?
!@!!User: Bruker Instrument Administrator
!@!!Site: University of Illinois Chicago
!@!!Frame: map-5c_01_000.gfrm
!@!!Wavelengths    1.54184   1.54056   1.54439
!@!!Frame angles: 2Theta: 63.000 Omega: 50.000 Phi: 0.000 Chi: 90.000
!@!!Integration range: 2Theta: 53.000 to 73.000  Gamma: -105.000 to -75.000
!@!!Integration method: bin normalized
!@!N
!@!SS
!@!M
!@!L 0.0 0.0 0.0 0.0
!@!XDegrees
!@!YCounts
53.000 8.138677
53.005 7.998334
53.010 8.456157
53.015 8.741019
53.020 8.50228
53.025 8.501126
53.030 8.517093
53.035 8.109294
53.040 7.991868
53.045 8.071494
53.050 8.015877
53.055 8.566206
53.060 8.917677
53.065 8.872089
53.070 9.355405
53.075 9.57667
53.080 9.364758
53.085 9.582877
53.090 9.635496
53.095 9.251412
53.100 9.047527
53.105 8.920902
53.110 8.964627
53.115 9.054686
53.120 8.8321
53.125 8.494543
53.130 9.331837
53.135 9.54313
53.140 9.417792
53.145 9.333097
53.150 9.498075
53.155 9.665033
53.160 9.607754
53.165 9.045618
53.170 9.104163
53.175 9.474091
53.180 9.518775
53.185 9.726973
53.190 9.564002
53.195 9.445375
53.200 9.572024
53.205 9.7094
53.210 9.475861
53.215 8.874322
53.220 8.583687
53.225 9.046817
53.230 9.418034
53.235 9.569387
53.240 9.695316
53.245 9.91837
53.250 10.822985
53.255 10.957003
53.260 10.907434
53.265 11.269927
53.270 11.174147
53.275 10.789019
53.280 10.774535
53.285 10.579758
53.290 10.400199
53.295 10.26594
53.300 9.554774
53.305 9.340698
53.310 9.210845
53.315 8.870775
53.320 8.878805
53.325 8.618507
53.330 8.418535
53.335 8.828468
53.340 9.034274
53.345 9.724664
53.350 9.822971
53.355 9.778357
53.360 10.449088
53.365 10.61096
53.370 10.190112
53.375 9.734433
53.380 9.734339
53.385 10.321772
53.390 9.815395
53.395 9.388035
53.400 9.378458
53.405 9.575213
53.410 9.896325
53.415 9.462927
53.420 8.940522
53.425 9.174535
53.430 8.680179
53.435 8.663116
53.440 9.047699
53.445 8.593866
53.450 8.736133
53.455 8.839435
53.460 9.074024
53.465 9.362879
53.470 9.533161
53.475 9.394114
53.480 9.607297
53.485 9.648453
53.490 9.701796
53.495 10.05946
53.500 9.927236
53.505 10.096698
53.510 10.362101
53.515 10.621005
53.520 11.065013
53.525 10.96084
53.530 11.505136
53.535 11.484756
53.540 11.301568
53.545 11.062798
53.550 10.921673
53.555 10.683337
53.560 10.269825
53.565 9.70162
53.570 9.904484
53.575 9.55142
53.580 9.746156
53.585 9.584066
53.590 10.067938
53.595 10.400634
53.600 10.639853
53.605 10.365767
53.610 10.282722
53.615 10.145584
53.620 9.993526
53.625 9.822511
53.630 10.468782
53.635 10.205829
53.640 10.442058
53.645 10.660398
53.650 10.568871
53.655 10.150242
53.660 10.019012
53.665 9.328769
53.670 9.763168
53.675 9.951658
53.680 10.319653
53.685 10.347579
53.690 10.479527
53.695 10.404284
53.700 10.264396
53.705 9.847345
53.710 10.303357
53.715 10.498193
53.720 10.680771
53.725 11.107961
53.730 11.20785
53.735 11.58695
53.740 11.521521
53.745 10.928418
53.750 10.492105
53.755 10.033736
53.760 9.709648
53.765 9.517706
53.770 9.518302
53.775 9.084185
53.780 8.699513
53.785 8.849992
53.790 8.795023
53.795 8.687939
53.800 8.815662
53.805 8.814878
53.810 9.346367
53.815 9.976431
53.820 10.209592
53.825 10.170783
53.830 10.061491
53.835 10.325815
53.840 10.804564
53.845 10.733178
53.850 10.558096
53.855 10.893672
53.860 11.451469
53.865 11.114109
53.870 10.40823
53.875 10.061626
53.880 10.062686
53.885 9.77684
53.890 9.850163
53.895 10.148749
53.900 10.294613
53.905 10.953224
53.910 11.013727
53.915 11.098201
53.920 10.95875
53.925 10.277502
53.930 10.155177
53.935 10.646191
53.940 9.937333
53.945 9.766569
53.950 9.533798
53.955 9.571744
53.960 9.832149
53.965 9.819379
53.970 9.236246
53.975 8.990174
53.980 9.134692
53.985 9.351145
53.990 9.183806
53.995 8.92923
54.000 8.888965
54.005 9.24369
54.010 9.938796
54.015 9.92821
54.020 9.974926
54.025 10.122253
54.030 10.069265
54.035 10.436663
54.040 10.310432
54.045 9.89931
54.050 10.033807
54.055 10.322188
54.060 10.280706
54.065 10.127774
54.070 10.336696
54.075 10.622136
54.080 10.914405
54.085 10.684301
54.090 10.164177
54.095 10.314059
54.100 10.027521
54.105 9.88342
54.110 9.225204
54.115 8.964684
54.120 8.763252
54.125 8.820168
54.130 9.024161
54.135 9.470858
54.140 9.79353
54.145 10.435883
54.150 10.322146
54.155 10.564515
54.160 10.729058
54.165 11.252477
54.170 10.912983
54.175 10.213939
54.180 9.480643
54.185 9.716025
54.190 9.840551
54.195 9.499793
54.200 9.168838
54.205 9.389779
54.210 9.840295
54.215 10.141095
54.220 9.562419
54.225 9.889843
54.230 10.494102
54.235 10.166725
54.240 10.167856
54.245 10.115391
54.250 10.444513
54.255 11.139852
54.260 10.698129
54.265 10.177732
54.270 10.315771
54.275 10.400003
54.280 10.549447
54.285 10.067093
54.290 9.578823
54.295 9.368644
54.300 9.483077
54.305 9.718251
54.310 9.760668
54.315 9.641464
54.320 9.753071
54.325 9.887689
54.330 10.242648
54.335 10.199091
54.340 10.195864
54.345 10.192667
54.350 10.357578
54.355 10.42069
54.360 10.376987
54.365 10.228865
54.370 10.452306
54.375 10.550064
54.380 10.362328
54.385 10.368044
54.390 10.144696
54.395 9.964746
54.400 9.889854
54.405 9.344897
54.410 9.176023
54.415 9.711196
54.420 9.894374
54.425 10.450159
54.430 10.755919
54.435 10.782912
54.440 10.850467
54.445 10.808147
54.450 10.411702
54.455 10.496202
54.460 10.185376
54.465 9.886805
54.470 9.794944
54.475 9.920247
54.480 9.632005
54.485 9.473835
54.490 9.28959
54.495 9.377254
54.500 9.931443
54.505 9.889087
54.510 10.207831
54.515 10.759913
54.520 11.290526
54.525 11.455656
54.530 11.546901
54.535 11.379175
54.540 11.585931
54.545 11.492376
54.550 11.47969
54.555 10.854336
54.560 10.818607
54.565 10.69956
54.570 10.650305
54.575 10.67086
54.580 10.463291
54.585 10.618916
54.590 10.550919
54.595 10.526806
54.600 10.826216
54.605 11.132375
54.610 11.561619
54.615 11.526878
54.620 11.545649
54.625 11.943621
54.630 12.108357
54.635 12.302097
54.640 12.128004
54.645 11.486031
54.650 11.542027
54.655 11.683278
54.660 11.374308
54.665 10.724476
54.670 10.621723
54.675 10.522161
54.680 10.468852
54.685 10.266213
54.690 10.347082
54.695 10.578147
54.700 11.166142
54.705 10.851607
54.710 11.336534
54.715 11.519164
54.720 11.747546
54.725 11.751058
54.730 11.253724
54.735 10.832557
54.740 11.313406
54.745 11.254662
54.750 10.867025
54.755 10.849871
54.760 10.703752
54.765 11.206418
54.770 11.379966
54.775 10.743663
54.780 10.119898
54.785 9.946688
54.790 9.552658
54.795 9.442103
54.800 9.178937
54.805 9.00973
54.810 9.31484
54.815 9.623465
54.820 10.056523
54.825 10.223063
54.830 10.434
54.835 10.385985
54.840 10.568089
54.845 10.633295
54.850 10.883883
54.855 11.170996
54.860 11.905396
54.865 11.935575
54.870 11.79752
54.875 11.831739
54.880 11.878936
54.885 11.581995
54.890 11.255277
54.895 10.527659
54.900 10.551408
54.905 10.245638
54.910 9.753516
54.915 9.675935
54.920 10.037471
54.925 9.987367
54.930 10.424497
54.935 10.981384
54.940 11.417267
54.945 11.860158
54.950 12.290429
54.955 12.172226
54.960 12.409559
54.965 12.373073
54.970 12.198138
54.975 12.057312
54.980 11.812418
54.985 11.118868
54.990 10.614892
54.995 10.393414
55.000 10.043762
55.005 9.64208
55.010 9.723107
55.015 9.665198
55.020 10.21592
55.025 10.192408
55.030 10.332726
55.035 10.318067
55.040 10.61497
55.045 10.756513
55.050 11.089127
55.055 11.259764
55.060 11.845396
55.065 11.810171
55.070 11.870216
55.075 11.534027
55.080 11.808011
55.085 11.426967
55.090 11.072867
55.095 10.679577
55.100 10.884256
55.105 11.05525
55.110 11.200048
55.115 10.811922
55.120 11.771389
55.125 12.396059
55.130 13.158175
55.135 13.031252
55.140 13.101233
55.145 13.2705
55.150 13.572373
55.155 12.58323
55.160 11.982164
55.165 10.979134
55.170 10.930284
55.175 10.626836
55.180 10.512406
55.185 10.135554
55.190 10.218335
55.195 10.260883
55.200 10.666335
55.205 10.713419
55.210 10.83287
55.215 10.897898
55.220 11.462539
55.225 11.681129
55.230 12.202717
55.235 12.103553
55.240 12.165203
55.245 12.172897
55.250 11.918828
55.255 11.694206
55.260 11.535611
55.265 11.393262
55.270 11.555177
55.275 11.160588
55.280 11.291121
55.285 11.522708
55.290 11.514143
55.295 11.357447
55.300 11.44432
55.305 11.738369
55.310 11.865963
55.315 11.32397
55.320 11.097777
55.325 11.454864
55.330 11.800214
55.335 11.438659
55.340 11.083043
55.345 11.135856
55.350 11.325558
55.355 11.432944
55.360 10.851014
55.365 11.003121
55.370 11.215148
55.375 11.344051
55.380 12.013779
55.385 11.930202
55.390 12.258321
55.395 12.416489
55.400 12.256231
55.405 12.324466
55.410 12.353746
55.415 12.436891
55.420 12.86954
55.425 12.762753
55.430 12.849875
55.435 12.610218
55.440 12.79452
55.445 12.752517
55.450 12.356166
55.455 11.838304
55.460 11.537886
55.465 11.877543
55.470 12.13989
55.475 12.244242
55.480 12.385546
55.485 12.155639
55.490 12.259976
55.495 12.122544
55.500 11.660602
55.505 11.455317
55.510 11.343003
55.515 11.441485
55.520 11.587036
55.525 12.356301
55.530 12.605604
55.535 12.820891
55.540 12.456616
55.545 12.051793
55.550 12.348074
55.555 12.418956
55.560 12.178889
55.565 11.617702
55.570 11.172106
55.575 11.714437
55.580 12.130916
55.585 11.955378
55.590 11.715006
55.595 11.766542
55.600 12.682977
55.605 13.065218
55.610 13.158791
55.615 12.840882
55.620 12.92172
55.625 13.093179
55.630 13.144452
55.635 12.463741
55.640 11.774784
55.645 11.475172
55.650 11.335898
55.655 11.831645
55.660 11.736214
55.665 11.758753
55.670 11.800633
55.675 12.154242
55.680 12.179613
55.685 12.034508
55.690 11.517283
55.695 11.506556
55.700 11.951097
55.705 12.444539
55.710 12.579818
55.715 13.004342
55.720 13.379502
55.725 13.322361
55.730 12.916953
55.735 11.858991
55.740 11.668865
55.745 11.580422
55.750 10.981277
55.755 10.644603
55.760 10.765187
55.765 11.549394
55.770 12.501203
55.775 12.830332
55.780 13.262034
55.785 13.380852
55.790 13.099194
55.795 13.010503
55.800 12.905399
55.805 12.608166
55.810 12.500625
55.815 12.138963
55.820 12.466927
55.825 12.556076
55.830 12.668699
55.835 12.459312
55.840 12.121237
55.845 11.99877
55.850 12.520004
55.855 12.571579
55.860 12.590576
55.865 12.516704
55.870 12.399286
55.875 12.578147
55.880 11.98006
55.885 11.579863
55.890 11.663769
55.895 11.489552
55.900 11.432687
55.905 11.283411
55.910 12.161057
55.915 12.850621
55.920 12.963575
55.925 12.937231
55.930 13.203847
55.935 13.630099
55.940 13.885689
55.945 14.046104
55.950 14.049942
55.955 13.727943
55.960 13.781781
55.965 13.140416
55.970 12.907421
55.975 12.4458
55.980 12.33039
55.985 12.452399
55.990 12.612599
55.995 12.822749
56.000 13.401398
56.005 13.435065
56.010 13.671042
56.015 13.437944
56.020 13.281842
56.025 13.452857
56.030 13.496004
56.035 13.009361
56.040 12.47856
56.045 11.696008
56.050 10.705785
56.055 10.872618
56.060 10.781283
56.065 10.790767
56.070 10.859203
56.075 11.156565
56.080 11.872712
56.085 12.253139
56.090 11.810743
56.095 11.376373
56.100 11.123886
56.105 11.478537
56.110 11.087608
56.115 10.790236
56.120 11.105724
56.125 11.382329
56.130 11.87505
56.135 11.838625
56.140 12.170808
56.145 13.172108
56.150 12.950769
56.155 12.946044
56.160 12.756889
56.165 12.573069
56.170 12.89728
56.175 12.329048
56.180 11.771634
56.185 11.40034
56.190 11.108622
56.195 11.747304
56.200 12.258177
56.205 12.415541
56.210 12.615779
56.215 13.151176
56.220 13.905112
56.225 14.212763
56.230 13.967654
56.235 13.47256
56.240 13.367621
56.245 13.11026
56.250 12.618865
56.255 12.344122
56.260 11.883327
56.265 11.751409
56.270 12.001082
56.275 12.130289
56.280 12.289534
56.285 12.481628
56.290 12.613867
56.295 12.506002
56.300 12.522565
56.305 12.397122
56.310 12.123374
56.315 12.055588
56.320 12.229157
56.325 12.235185
56.330 12.432977
56.335 12.545783
56.340 12.98243
56.345 13.221772
56.350 13.361339
56.355 12.979364
56.360 12.804456
56.365 12.482777
56.370 11.917106
56.375 11.43335
56.380 11.228979
56.385 11.056351
56.390 10.97865
56.395 11.067791
56.400 11.120982
56.405 11.107285
56.410 11.038655
56.415 11.123528
56.420 11.764977
56.425 12.249202
56.430 12.217469
56.435 12.566542
56.440 12.73724
56.445 12.974226
56.450 12.954741
56.455 12.258257
56.460 12.389513
56.465 12.803387
56.470 13.183725
56.475 13.35601
56.480 13.749624
56.485 13.677285
56.490 13.873462
56.495 14.000993
56.500 13.32993
56.505 12.542979
56.510 12.393128
56.515 12.051732
56.520 12.346492
56.525 12.790686
56.530 12.301952
56.535 12.442636
56.540 13.155881
56.545 12.909121
56.550 13.391895
56.555 13.525042
56.560 13.145483
56.565 13.535764
56.570 13.496704
56.575 13.481843
56.580 13.593553
56.585 13.19993
56.590 13.210548
56.595 13.705935
56.600 13.418037
56.605 13.192104
56.610 13.069201
56.615 13.414478
56.620 13.516972
56.625 13.604759
56.630 13.360629
56.635 13.81361
56.640 14.537438
56.645 14.930303
56.650 14.581435
56.655 14.620116
56.660 14.328557
56.665 14.283531
56.670 14.051331
56.675 13.400486
56.680 13.171261
56.685 13.485702
56.690 13.118028
56.695 13.479525
56.700 13.615341
56.705 13.39718
56.710 13.293514
56.715 12.942981
56.720 13.001058
56.725 13.157768
56.730 12.866336
56.735 12.528894
56.740 12.747214
56.745 13.316362
56.750 13.697268
56.755 13.850259
56.760 14.186561
56.765 14.272376
56.770 14.750531
56.775 14.705908
56.780 14.519155
56.785 14.431033
56.790 14.534039
56.795 14.606649
56.800 14.615959
56.805 14.692324
56.810 14.612625
56.815 14.445701
56.820 14.40449
56.825 14.612141
56.830 14.410533
56.835 14.311941
56.840 14.207367
56.845 14.166743
56.850 14.341325
56.855 13.734221
56.860 12.940739
56.865 13.770178
56.870 14.384008
56.875 14.529164
56.880 14.360072
56.885 14.102073
56.890 14.257377
56.895 14.740078
56.900 13.563032
56.905 12.994532
56.910 12.662482
56.915 13.151664
56.920 13.774039
56.925 14.58007
56.930 14.239339
56.935 14.531851
56.940 14.39539
56.945 14.265357
56.950 13.802582
56.955 13.179687
56.960 12.236298
56.965 12.140966
56.970 11.862712
56.975 12.432586
56.980 12.945896
56.985 13.307679
56.990 13.338742
56.995 13.298901
57.000 13.676954
57.005 13.337984
57.010 12.898718
57.015 12.888824
57.020 12.650654
57.025 12.659789
57.030 12.889862
57.035 13.140298
57.040 13.837592
57.045 13.562647
57.050 13.447976
57.055 13.674817
57.060 13.485704
57.065 13.08273
57.070 12.870569
57.075 13.008912
57.080 13.348186
57.085 13.544776
57.090 13.477631
57.095 13.537749
57.100 14.077501
57.105 14.122479
57.110 13.482321
57.115 12.953752
57.120 12.750944
57.125 12.66331
57.130 12.536529
57.135 12.052183
57.140 11.979712
57.145 12.237684
57.150 12.492006
57.155 12.348959
57.160 12.426163
57.165 12.453781
57.170 12.547206
57.175 12.718366
57.180 13.07325
57.185 12.934471
57.190 13.066126
57.195 12.747888
57.200 12.82291
57.205 12.830049
57.210 12.833591
57.215 12.585537
57.220 12.843435
57.225 13.106976
57.230 13.965508
57.235 14.124451
57.240 14.399317
57.245 14.079019
57.250 13.759117
57.255 13.859795
57.260 13.845859
57.265 13.078359
57.270 13.12102
57.275 13.21654
57.280 13.644377
57.285 13.647862
57.290 13.415919
57.295 13.488788
57.300 14.021564
57.305 13.849092
57.310 13.944077
57.315 14.112187
57.320 13.996281
57.325 14.47079
57.330 14.933113
57.335 14.899263
57.340 14.837929
57.345 14.41783
57.350 13.896472
57.355 14.076091
57.360 13.665345
57.365 13.470077
57.370 13.723529
57.375 13.980078
57.380 14.486648
57.385 15.313945
57.390 15.808417
57.395 16.050697
57.400 15.951764
57.405 15.411374
57.410 15.29241
57.415 14.816018
57.420 14.393255
57.425 14.034484
57.430 13.826509
57.435 13.418958
57.440 13.789996
57.445 13.690551
57.450 13.695262
57.455 13.872211
57.460 13.616206
57.465 14.001801
57.470 14.152357
57.475 13.757049
57.480 13.843631
57.485 13.5871
57.490 12.877699
57.495 12.527039
57.500 12.059691
57.505 12.237037
57.510 12.440212
57.515 12.492107
57.520 12.619439
57.525 13.030179
57.530 13.329732
57.535 13.612638
57.540 13.892321
57.545 14.003346
57.550 14.260443
57.555 14.798256
57.560 14.685241
57.565 14.931324
57.570 14.794009
57.575 14.4145
57.580 14.42322
57.585 14.09832
57.590 13.90438
57.595 14.307179
57.600 13.776931
57.605 13.830987
57.610 13.767898
57.615 13.709187
57.620 14.001328
57.625 13.843266
57.630 13.066209
57.635 13.471719
57.640 14.281329
57.645 14.3645
57.650 14.456584
57.655 14.428576
57.660 14.681749
57.665 14.812799
57.670 14.26313
57.675 13.352324
57.680 13.785774
57.685 13.885774
57.690 13.526242
57.695 13.952024
57.700 14.618035
57.705 15.221547
57.710 15.235579
57.715 14.662211
57.720 14.415607
57.725 14.348842
57.730 13.890204
57.735 13.302725
57.740 12.707906
57.745 12.277107
57.750 12.52282
57.755 13.138458
57.760 13.013179
57.765 13.558578
57.770 14.098574
57.775 14.289594
57.780 15.014404
57.785 14.741203
57.790 14.525836
57.795 14.801649
57.800 14.674265
57.805 14.831873
57.810 14.822375
57.815 15.577474
57.820 15.735211
57.825 15.267412
57.830 15.225976
57.835 14.994535
57.840 14.750111
57.845 14.833021
57.850 13.786143
57.855 14.063902
57.860 14.752131
57.865 14.569894
57.870 14.382517
57.875 14.945496
57.880 15.364966
57.885 15.739469
57.890 15.66725
57.895 15.85358
57.900 15.621987
57.905 15.782888
57.910 15.408213
57.915 14.937514
57.920 15.139807
57.925 14.730887
57.930 14.554893
57.935 14.864528
57.940 14.926068
57.945 14.748235
57.950 14.534701
57.955 14.289278
57.960 14.2284
57.965 13.842472
57.970 13.521002
57.975 13.379237
57.980 13.743339
57.985 13.562922
57.990 13.291787
57.995 13.501333
58.000 14.144493
58.005 14.469025
58.010 14.27319
58.015 14.149137
58.020 14.544606
58.025 15.138044
58.030 15.362857
58.035 15.788072
58.040 15.338929
58.045 15.895857
58.050 16.455854
58.055 16.409492
58.060 16.047676
58.065 15.702373
58.070 15.409198
58.075 16.292196
58.080 16.207445
58.085 16.548214
58.090 16.439199
58.095 16.277784
58.100 16.196302
58.105 16.008892
58.110 15.49271
58.115 14.765122
58.120 14.483988
58.125 14.463973
58.130 14.418985
58.135 14.481583
58.140 14.397592
58.145 14.583323
58.150 14.968731
58.155 14.623046
58.160 14.152562
58.165 14.075089
58.170 14.474268
58.175 14.796632
58.180 14.911368
58.185 14.736129
58.190 15.176028
58.195 15.712914
58.200 16.06521
58.205 15.876779
58.210 15.618456
58.215 15.489411
58.220 15.26161
58.225 15.544349
58.230 15.585546
58.235 15.008208
58.240 14.511813
58.245 14.650239
58.250 14.672853
58.255 14.3748
58.260 13.735481
58.265 13.719001
58.270 14.032928
58.275 14.06076
58.280 13.921302
58.285 14.270211
58.290 14.334294
58.295 14.551741
58.300 14.504819
58.305 14.973822
58.310 15.365201
58.315 15.141727
58.320 15.132859
58.325 15.551034
58.330 16.037395
58.335 16.325815
58.340 16.392157
58.345 16.787905
58.350 17.050362
58.355 16.987295
58.360 17.024931
58.365 16.602654
58.370 16.327368
58.375 15.861609
58.380 15.579214
58.385 15.955933
58.390 15.995462
58.395 15.605473
58.400 15.472473
58.405 15.259834
58.410 15.261271
58.415 15.103531
58.420 14.512981
58.425 14.587023
58.430 15.204646
58.435 15.164026
58.440 14.967281
58.445 14.913627
58.450 14.674549
58.455 14.781366
58.460 15.231359
58.465 14.860578
58.470 14.910575
58.475 15.023079
58.480 14.953537
58.485 14.815476
