!@!!GADDS PLOTSO FILE: Chi integration type
!@!!Title/SampleName: map-13
!@!!Comment: ?
!@!!User: Bruker Instrument Administrator
!@!!Site: University of Illinois Chicago
!@!!Frame: map-13_01_000.gfrm
!@!!Wavelengths    1.54184   1.54056   1.54439
!@!!Frame angles: 2Theta: 63.000 Omega: 50.000 Phi: 0.000 Chi: 90.000
!@!!Integration range: 2Theta: 53.000 to 73.000  Gamma: -105.000 to -75.000
!@!!Integration method: bin normalized
!@!N
!@!SS
!@!M
!@!L 0.0 0.0 0.0 0.0
!@!XDegrees
!@!YCounts
53.000 7.938081
53.005 7.306534
53.010 7.032426
53.015 7.117538
53.020 7.034251
53.025 7.28121
53.030 7.152267
53.035 6.959847
53.040 7.045037
53.045 7.444175
53.050 7.548014
53.055 7.765446
53.060 7.720252
53.065 8.125365
53.070 8.138017
53.075 7.822235
53.080 7.607675
53.085 8.193716
53.090 8.200657
53.095 8.370039
53.100 8.116914
53.105 8.336785
53.110 8.623987
53.115 8.335196
53.120 8.000544
53.125 8.184714
53.130 7.89427
53.135 7.996844
53.140 7.931894
53.145 7.50775
53.150 6.957793
53.155 7.005267
53.160 7.358494
53.165 7.461241
53.170 7.338057
53.175 7.291399
53.180 7.815253
53.185 8.350238
53.190 8.1752
53.195 7.983134
53.200 8.230618
53.205 8.105406
53.210 8.098189
53.215 8.088865
53.220 8.191059
53.225 8.164295
53.230 8.302713
53.235 8.095029
53.240 7.941787
53.245 8.036909
53.250 7.73155
53.255 7.81657
53.260 8.882315
53.265 9.077602
53.270 9.566336
53.275 9.920724
53.280 9.897306
53.285 10.13003
53.290 10.055618
53.295 9.698494
53.300 9.823546
53.305 9.779764
53.310 9.954973
53.315 9.525183
53.320 8.999704
53.325 8.217498
53.330 7.870736
53.335 7.830093
53.340 7.559157
53.345 7.342859
53.350 7.788285
53.355 8.202386
53.360 8.728092
53.365 8.938838
53.370 8.809678
53.375 8.59166
53.380 8.592707
53.385 9.083381
53.390 8.50703
53.395 7.635677
53.400 7.181279
53.405 7.168199
53.410 7.446301
53.415 7.407986
53.420 7.150978
53.425 7.831553
53.430 8.231583
53.435 8.6678
53.440 9.155238
53.445 9.340334
53.450 9.009491
53.455 8.411758
53.460 8.251713
53.465 8.064633
53.470 7.573832
53.475 7.208592
53.480 7.121171
53.485 7.655769
53.490 8.424776
53.495 8.660316
53.500 8.530711
53.505 8.816595
53.510 9.045816
53.515 8.981906
53.520 8.885983
53.525 8.488856
53.530 8.254686
53.535 8.13038
53.540 8.002029
53.545 7.883471
53.550 8.073738
53.555 8.153635
53.560 8.419557
53.565 8.666407
53.570 8.718987
53.575 8.509668
53.580 8.148524
53.585 8.163376
53.590 8.024596
53.595 8.016032
53.600 8.262869
53.605 8.497086
53.610 8.614659
53.615 9.053241
53.620 9.01529
53.625 8.973681
53.630 8.961703
53.635 8.707768
53.640 8.874901
53.645 9.232153
53.650 9.285861
53.655 9.536881
53.660 9.798597
53.665 9.400233
53.670 9.453533
53.675 9.621417
53.680 9.64756
53.685 9.269368
53.690 8.883595
53.695 8.793098
53.700 8.783536
53.705 8.570977
53.710 8.283978
53.715 8.096958
53.720 8.487329
53.725 8.640326
53.730 8.954528
53.735 9.203259
53.740 9.412372
53.745 9.385758
53.750 9.5554
53.755 9.085407
53.760 8.351699
53.765 7.716958
53.770 7.463391
53.775 7.242246
53.780 7.376449
53.785 7.181656
53.790 7.785057
53.795 8.624372
53.800 9.314696
53.805 9.880312
53.810 10.189805
53.815 10.111919
53.820 10.143192
53.825 10.586082
53.830 10.500177
53.835 10.280144
53.840 10.020982
53.845 9.925432
53.850 10.097177
53.855 9.86577
53.860 9.346976
53.865 9.242901
53.870 8.91074
53.875 8.924573
53.880 8.978189
53.885 9.215254
53.890 9.369482
53.895 9.281408
53.900 8.993032
53.905 9.096128
53.910 8.875802
53.915 8.973618
53.920 8.682827
53.925 8.678596
53.930 8.669759
53.935 9.028913
53.940 9.491668
53.945 9.51977
53.950 9.417292
53.955 9.665557
53.960 10.040501
53.965 10.351171
53.970 10.39254
53.975 10.24689
53.980 10.195701
53.985 10.628943
53.990 10.793653
53.995 10.821308
54.000 10.680708
54.005 10.748008
54.010 10.741465
54.015 10.468741
54.020 10.309886
54.025 10.520922
54.030 10.056108
54.035 10.167301
54.040 10.043707
54.045 10.111302
54.050 10.128612
54.055 9.718174
54.060 9.147357
54.065 8.84358
54.070 8.484529
54.075 8.32938
54.080 8.39526
54.085 8.356286
54.090 8.533165
54.095 8.899878
54.100 9.863294
54.105 9.857865
54.110 10.111818
54.115 10.445569
54.120 10.567451
54.125 10.370514
54.130 9.625807
54.135 9.31624
54.140 9.895778
54.145 9.763748
54.150 9.382713
54.155 9.018973
54.160 9.521276
54.165 9.930156
54.170 9.727464
54.175 9.389
54.180 9.4761
54.185 9.408654
54.190 9.382651
54.195 9.115458
54.200 8.970447
54.205 8.915784
54.210 8.653185
54.215 8.453281
54.220 8.505237
54.225 8.858402
54.230 8.540843
54.235 8.923915
54.240 9.080305
54.245 9.248702
54.250 9.529168
54.255 9.283744
54.260 9.063118
54.265 9.218188
54.270 9.237774
54.275 9.553899
54.280 9.32368
54.285 8.852483
54.290 9.066189
54.295 9.499122
54.300 9.681625
54.305 9.328795
54.310 9.39356
54.315 9.693076
54.320 10.228957
54.325 10.245095
54.330 10.580741
54.335 11.086976
54.340 11.018038
54.345 11.035239
54.350 10.95738
54.355 10.466238
54.360 10.498855
54.365 10.15966
54.370 9.787174
54.375 9.737853
54.380 9.74638
54.385 10.142061
54.390 10.330469
54.395 10.168126
54.400 10.206885
54.405 10.032702
54.410 9.971406
54.415 10.222554
54.420 10.097451
54.425 10.293691
54.430 10.262691
54.435 9.967588
54.440 10.206258
54.445 10.336229
54.450 9.804492
54.455 9.600375
54.460 9.887684
54.465 10.197373
54.470 9.965117
54.475 9.842563
54.480 9.922979
54.485 10.176545
54.490 9.983693
54.495 9.75353
54.500 9.618766
54.505 9.796867
54.510 9.604938
54.515 10.110864
54.520 10.18221
54.525 10.024326
54.530 9.700411
54.535 9.56337
54.540 9.709283
54.545 9.606737
54.550 9.119477
54.555 8.937814
54.560 9.356104
54.565 9.409671
54.570 9.353418
54.575 9.867494
54.580 9.513018
54.585 9.612205
54.590 9.690384
54.595 9.562871
54.600 9.795576
54.605 9.721975
54.610 9.503019
54.615 10.109038
54.620 10.594552
54.625 10.301064
54.630 10.162271
54.635 9.815494
54.640 9.74999
54.645 9.573905
54.650 9.509444
54.655 9.139272
54.660 9.49508
54.665 9.802069
54.670 10.190552
54.675 10.325548
54.680 9.607722
54.685 9.425037
54.690 9.388209
54.695 9.046787
54.700 9.191408
54.705 9.178308
54.710 9.127691
54.715 9.650486
54.720 9.85777
54.725 9.897552
54.730 10.141057
54.735 9.736502
54.740 10.0609
54.745 10.628943
54.750 10.636938
54.755 10.184361
54.760 9.848033
54.765 9.641528
54.770 9.949062
54.775 9.952895
54.780 10.091227
54.785 10.172642
54.790 10.457638
54.795 10.977283
54.800 11.03445
54.805 10.873909
54.810 10.464679
54.815 9.984073
54.820 9.736876
54.825 9.761154
54.830 9.380209
54.835 9.391859
54.840 9.482316
54.845 9.708319
54.850 9.880645
54.855 10.155822
54.860 10.033161
54.865 9.906377
54.870 9.812289
54.875 9.931422
54.880 10.052137
54.885 9.812583
54.890 9.840955
54.895 10.13983
54.900 10.339003
54.905 10.428818
54.910 10.721456
54.915 11.087022
54.920 11.290061
54.925 11.431264
54.930 11.072277
54.935 10.813099
54.940 10.533226
54.945 10.351396
54.950 10.313744
54.955 10.267263
54.960 10.537382
54.965 10.741039
54.970 11.263542
54.975 11.385097
54.980 11.117172
54.985 11.166211
54.990 11.313297
54.995 11.140616
55.000 11.106136
55.005 11.17653
55.010 11.203466
55.015 11.365557
55.020 10.897319
55.025 10.312143
55.030 10.450675
55.035 10.304153
55.040 9.870904
55.045 9.824334
55.050 10.102064
55.055 10.498496
55.060 10.844083
55.065 10.577418
55.070 10.753016
55.075 10.993595
55.080 10.932471
55.085 10.923729
55.090 10.727602
55.095 11.301483
55.100 11.543316
55.105 11.518552
55.110 11.517891
55.115 11.033866
55.120 10.673231
55.125 11.201066
55.130 11.177695
55.135 11.239913
55.140 11.545298
55.145 11.615523
55.150 11.939619
55.155 11.570984
55.160 10.425113
55.165 10.146533
55.170 10.028153
55.175 10.10748
55.180 10.197988
55.185 10.259999
55.190 10.674409
55.195 10.72715
55.200 10.516185
55.205 10.341169
55.210 9.889581
55.215 9.83849
55.220 9.426197
55.225 9.325511
55.230 9.859071
55.235 10.220304
55.240 10.820833
55.245 11.21869
55.250 11.357303
55.255 11.778225
55.260 11.932771
55.265 11.525595
55.270 11.271546
55.275 10.853744
55.280 10.790695
55.285 10.615297
55.290 10.214255
55.295 10.276204
55.300 10.734192
55.305 10.974209
55.310 10.872719
55.315 10.399674
55.320 10.428223
55.325 10.73622
55.330 10.762821
55.335 10.443238
55.340 10.283983
55.345 10.308106
55.350 10.887274
55.355 11.539213
55.360 11.297382
55.365 10.903462
55.370 10.709114
55.375 10.830691
55.380 10.858123
55.385 9.890626
55.390 9.671491
55.395 9.652403
55.400 9.683181
55.405 9.452507
55.410 9.234433
55.415 9.332115
55.420 9.450654
55.425 9.482866
55.430 9.613587
55.435 9.639749
55.440 9.642195
55.445 9.901371
55.450 9.689071
55.455 9.903835
55.460 9.963674
55.465 9.896457
55.470 10.235263
55.475 10.600638
55.480 10.928279
55.485 11.454418
55.490 11.138988
55.495 10.900334
55.500 10.994754
55.505 11.098152
55.510 10.782005
55.515 10.708406
55.520 10.477103
55.525 10.806146
55.530 11.022926
55.535 10.854678
55.540 10.566862
55.545 10.574292
55.550 10.407247
55.555 10.371986
55.560 10.210795
55.565 10.426553
55.570 10.766091
55.575 11.222246
55.580 11.143154
55.585 11.384775
55.590 11.850513
55.595 11.840228
55.600 11.577077
55.605 11.497342
55.610 11.41469
55.615 11.320985
55.620 11.124731
55.625 10.979754
55.630 11.072534
55.635 11.378968
55.640 11.290126
55.645 11.380053
55.650 11.479511
55.655 11.346911
55.660 11.77328
55.665 11.634135
55.670 11.320655
55.675 11.132073
55.680 11.006387
55.685 11.232783
55.690 11.354493
55.695 10.925342
55.700 10.991016
55.705 11.414083
55.710 11.261235
55.715 11.024126
55.720 10.752087
55.725 10.70818
55.730 10.811063
55.735 11.006246
55.740 10.468506
55.745 10.39718
55.750 10.52677
55.755 10.180988
55.760 10.306434
55.765 10.163695
55.770 10.366153
55.775 10.812562
55.780 10.793421
55.785 10.77727
55.790 10.883691
55.795 10.768188
55.800 10.761756
55.805 11.066497
55.810 11.195984
55.815 10.82351
55.820 10.776011
55.825 10.602951
55.830 10.446819
55.835 10.357272
55.840 9.48986
55.845 9.921232
55.850 10.656086
55.855 10.534921
55.860 10.65228
55.865 11.092323
55.870 11.017045
55.875 11.564184
55.880 11.614517
55.885 11.691861
55.890 12.12442
55.895 12.244615
55.900 12.205606
55.905 12.450094
55.910 12.031178
55.915 11.838065
55.920 11.74391
55.925 11.824429
55.930 12.051639
55.935 12.209504
55.940 12.451222
55.945 12.417768
55.950 12.282263
55.955 12.020644
55.960 12.226498
55.965 11.932659
55.970 11.411123
55.975 11.104034
55.980 11.004088
55.985 11.205692
55.990 11.048626
55.995 10.622037
56.000 10.8228
56.005 11.034593
56.010 10.842734
56.015 10.967069
56.020 11.146939
56.025 11.425561
56.030 11.592917
56.035 11.276455
56.040 10.886074
56.045 11.009237
56.050 11.002332
56.055 10.945456
56.060 10.835191
56.065 10.990657
56.070 11.200784
56.075 11.687077
56.080 12.039538
56.085 12.05406
56.090 11.896912
56.095 11.79863
56.100 11.830321
56.105 11.872711
56.110 12.174209
56.115 12.789894
56.120 12.957516
56.125 12.616118
56.130 12.285525
56.135 11.925993
56.140 11.932708
56.145 11.772729
56.150 10.633749
56.155 10.669096
56.160 11.054115
56.165 11.117021
56.170 11.304565
56.175 10.92118
56.180 10.331966
56.185 10.564876
56.190 10.423671
56.195 10.360129
56.200 10.375613
56.205 10.435498
56.210 10.605823
56.215 10.948647
56.220 11.028664
56.225 11.187355
56.230 11.519569
56.235 12.093107
56.240 12.372401
56.245 12.978327
56.250 13.259582
56.255 13.40277
56.260 13.29713
56.265 13.23845
56.270 12.990376
56.275 12.854684
56.280 12.252711
56.285 12.063723
56.290 12.052848
56.295 11.663557
56.300 11.409825
56.305 11.042462
56.310 10.734527
56.315 10.801124
56.320 10.7422
56.325 10.911594
56.330 11.704083
56.335 12.343775
56.340 13.180711
56.345 13.514783
56.350 13.386087
56.355 13.139894
56.360 12.74546
56.365 12.056848
56.370 11.203314
56.375 10.966063
56.380 10.924229
56.385 10.951368
56.390 11.582323
56.395 11.456843
56.400 11.481464
56.405 11.427443
56.410 10.870905
56.415 10.817124
56.420 10.956528
56.425 10.547529
56.430 10.59514
56.435 10.613816
56.440 10.26077
56.445 10.360357
56.450 10.551693
56.455 10.294878
56.460 10.874206
56.465 11.105542
56.470 11.342514
56.475 11.853638
56.480 12.041729
56.485 11.966808
56.490 12.700289
56.495 12.498051
56.500 12.43755
56.505 12.461596
56.510 12.009163
56.515 12.09384
56.520 12.028386
56.525 11.084235
56.530 11.116946
56.535 11.072591
56.540 11.061228
56.545 11.32206
56.550 11.159603
56.555 11.418608
56.560 11.960792
56.565 12.026052
56.570 12.406953
56.575 12.409888
56.580 12.701649
56.585 13.441001
56.590 13.497035
56.595 13.715875
56.600 13.806649
56.605 13.997597
56.610 13.628636
56.615 13.580584
56.620 13.644125
56.625 14.001915
56.630 14.12279
56.635 13.669765
56.640 13.359653
56.645 13.492248
56.650 12.803166
56.655 12.262503
56.660 12.088659
56.665 12.063871
56.670 12.894888
56.675 12.986964
56.680 13.114314
56.685 13.203834
56.690 13.371375
56.695 13.618765
56.700 13.202176
56.705 12.938844
56.710 13.278888
56.715 13.304163
56.720 13.954314
56.725 13.638882
56.730 13.839683
56.735 14.062711
56.740 13.655193
56.745 13.688079
56.750 13.844897
56.755 13.513395
56.760 13.675874
56.765 12.631309
56.770 12.551174
56.775 12.588109
56.780 12.564295
56.785 12.399596
56.790 12.472088
56.795 12.514578
56.800 12.672498
56.805 12.633613
56.810 12.90494
56.815 12.938816
56.820 12.861434
56.825 12.209185
56.830 11.73254
56.835 11.383109
56.840 11.27031
56.845 11.077221
56.850 11.201707
56.855 11.15072
56.860 11.426636
56.865 12.004066
56.870 12.383207
56.875 12.61752
56.880 12.680794
56.885 12.779348
56.890 12.627321
56.895 12.916395
56.900 13.029924
56.905 12.798884
56.910 12.961539
56.915 12.889627
56.920 12.428917
56.925 12.788302
56.930 12.552504
56.935 12.475493
56.940 12.414115
56.945 11.994016
56.950 11.678219
56.955 11.669378
56.960 11.53567
56.965 11.626498
56.970 11.374198
56.975 11.367463
56.980 11.676321
56.985 12.145774
56.990 12.25655
56.995 12.183608
57.000 11.785109
57.005 12.010301
57.010 12.170317
57.015 12.190557
57.020 12.377285
57.025 12.780899
57.030 13.21667
57.035 13.504565
57.040 13.785997
57.045 13.804257
57.050 13.763113
57.055 13.833191
57.060 13.975934
57.065 14.080628
57.070 14.317014
57.075 14.479141
57.080 14.446316
57.085 14.633019
57.090 14.108034
57.095 13.162985
57.100 12.687233
57.105 12.531337
57.110 12.572791
57.115 12.86821
57.120 13.194794
57.125 13.822418
57.130 14.322669
57.135 14.38798
57.140 14.107568
57.145 13.558387
57.150 13.534542
57.155 13.194036
57.160 12.785563
57.165 12.696948
57.170 12.635492
57.175 12.745244
57.180 13.085744
57.185 12.469986
57.190 12.207821
57.195 12.781042
57.200 13.322469
57.205 13.516828
57.210 13.323984
57.215 13.164269
57.220 13.72101
57.225 13.53307
57.230 13.184853
57.235 12.849319
57.240 12.83647
57.245 13.469219
57.250 14.060467
57.255 14.128756
57.260 14.522913
57.265 14.706125
57.270 14.588811
57.275 14.897986
57.280 14.116927
57.285 13.654067
57.290 13.631188
57.295 13.39534
57.300 13.490815
57.305 13.977623
57.310 13.737681
57.315 13.92824
57.320 13.964013
57.325 14.132652
57.330 13.958458
57.335 13.963359
57.340 13.699532
57.345 13.71007
57.350 13.912877
57.355 13.884809
57.360 14.161201
57.365 14.802731
57.370 14.923806
57.375 15.333664
57.380 15.730063
57.385 15.751591
57.390 15.168394
57.395 14.719827
57.400 14.52167
57.405 13.82577
57.410 13.476413
57.415 13.196973
57.420 13.028716
57.425 13.178264
57.430 13.050522
57.435 12.679577
57.440 12.945602
57.445 13.024638
57.450 12.984019
57.455 13.017351
57.460 13.125344
57.465 13.021645
57.470 13.233309
57.475 13.473447
57.480 13.451024
57.485 13.405205
57.490 13.319882
57.495 13.154277
57.500 13.369175
57.505 13.482049
57.510 12.996988
57.515 13.233168
57.520 13.759101
57.525 14.093416
57.530 13.814598
57.535 13.736061
57.540 13.64132
57.545 13.626412
57.550 13.570972
57.555 13.013505
57.560 13.031336
57.565 13.118719
57.570 13.218777
57.575 13.218262
57.580 13.211984
57.585 13.672243
57.590 13.951265
57.595 14.291776
57.600 14.856761
57.605 15.018288
57.610 15.380181
57.615 15.060438
57.620 14.252351
57.625 13.968491
57.630 13.571139
57.635 12.984831
57.640 13.040146
57.645 13.101476
57.650 13.249661
57.655 13.67121
57.660 14.13245
57.665 14.11382
57.670 13.925404
57.675 13.377543
57.680 13.052181
57.685 13.271728
57.690 13.263935
57.695 13.106076
57.700 13.397723
57.705 13.622803
57.710 13.467682
57.715 13.197257
57.720 12.6301
57.725 12.426391
57.730 12.458555
57.735 12.736326
57.740 12.430295
57.745 12.749876
57.750 13.525372
57.755 13.830525
57.760 13.708989
57.765 13.729835
57.770 13.274393
57.775 14.038578
57.780 14.098053
57.785 13.754962
57.790 13.509468
57.795 13.46415
57.800 13.60708
57.805 13.647659
57.810 13.119519
57.815 12.897088
57.820 13.239157
57.825 13.628199
57.830 13.155317
57.835 12.908496
57.840 13.334535
57.845 13.706842
57.850 13.986177
57.855 13.85074
57.860 13.753714
57.865 14.235673
57.870 14.748845
57.875 14.319133
57.880 14.187032
57.885 14.400892
57.890 14.322239
57.895 14.398088
57.900 14.295429
57.905 13.628114
57.910 13.834681
57.915 13.611045
57.920 13.559856
57.925 13.86966
57.930 13.96247
57.935 14.037785
57.940 13.941719
57.945 13.558757
57.950 13.320608
57.955 13.389867
57.960 13.314909
57.965 13.219885
57.970 12.989835
57.975 13.648888
57.980 14.362136
57.985 14.385603
57.990 14.130463
57.995 14.300995
58.000 14.416902
58.005 14.590835
58.010 14.841098
58.015 15.497419
58.020 15.497567
58.025 14.980712
58.030 15.15247
58.035 15.352687
58.040 15.031324
58.045 14.217174
58.050 13.799217
58.055 14.091313
58.060 14.622712
58.065 14.845827
58.070 14.779926
58.075 15.420736
58.080 16.037714
58.085 16.031807
58.090 16.299356
58.095 16.607378
58.100 15.960438
58.105 15.83971
58.110 15.432493
58.115 15.175482
58.120 15.686646
58.125 15.308716
58.130 14.699419
58.135 14.508776
58.140 14.865091
58.145 15.032084
58.150 14.738391
58.155 14.187157
58.160 14.203781
58.165 14.228227
58.170 14.310863
58.175 14.017935
58.180 14.502082
58.185 14.69677
58.190 14.8193
58.195 14.701501
58.200 14.810214
58.205 14.595196
58.210 14.09077
58.215 13.966732
58.220 14.126577
58.225 13.993926
58.230 14.366898
58.235 14.566034
58.240 15.109163
58.245 15.864955
58.250 15.779046
58.255 15.21751
58.260 14.848299
58.265 14.704832
58.270 14.39929
58.275 13.93781
58.280 13.579314
58.285 12.894638
58.290 13.005692
58.295 13.430689
58.300 13.503597
58.305 14.136495
58.310 14.2467
58.315 14.026545
58.320 14.021397
58.325 14.259164
58.330 14.299303
58.335 14.014574
58.340 14.111241
58.345 14.596763
58.350 14.173544
58.355 14.298689
58.360 14.120384
58.365 14.373791
58.370 14.305749
58.375 14.316943
58.380 13.660995
58.385 14.05809
58.390 14.101881
58.395 14.333529
58.400 14.304941
58.405 14.22499
58.410 13.661132
58.415 14.037498
58.420 14.355363
58.425 14.7335
58.430 14.534625
58.435 14.292603
58.440 14.741999
58.445 15.060255
58.450 14.789566
58.455 14.612914
58.460 14.29936
58.465 14.371627
58.470 13.985953
58.475 13.971594
58.480 14.013968
58.485 14.444023
58.490 14.761204
58.495 15.189146
58.500 15.268611
58.505 15.967146
58.510 15.819505
58.515 15.807748
58.520 15.868663
58.525 15.496871
58.530 14.74185
