!@!!GADDS PLOTSO FILE: Chi integration type
!@!!Title/SampleName: map-6e
!@!!Comment: ?
!@!!User: Bruker Instrument Administrator
!@!!Site: University of Illinois Chicago
!@!!Frame: map-6e_01_000.gfrm
!@!!Wavelengths    1.54184   1.54056   1.54439
!@!!Frame angles: 2Theta: 63.000 Omega: 50.000 Phi: 0.000 Chi: 90.000
!@!!Integration range: 2Theta: 53.000 to 73.000  Gamma: -105.000 to -75.000
!@!!Integration method: bin normalized
!@!N
!@!SS
!@!M
!@!L 0.0 0.0 0.0 0.0
!@!XDegrees
!@!YCounts
53.000 8.778495
53.005 9.043207
53.010 9.544155
53.015 9.556885
53.020 9.811795
53.025 9.954475
53.030 10.530937
53.035 10.97511
53.040 11.084922
53.045 11.177773
53.050 11.199389
53.055 11.235247
53.060 11.020262
53.065 10.167941
53.070 9.741082
53.075 10.091409
53.080 10.46809
53.085 10.516341
53.090 10.357304
53.095 10.767865
53.100 11.362325
53.105 11.404238
53.110 10.917712
53.115 10.781481
53.120 10.90713
53.125 10.576566
53.130 10.218509
53.135 9.950856
53.140 9.664563
53.145 9.565473
53.150 9.667696
53.155 10.117526
53.160 10.772844
53.165 10.789711
53.170 10.327616
53.175 10.499278
53.180 10.63195
53.185 10.418805
53.190 10.198498
53.195 9.640203
53.200 10.192021
53.205 10.535183
53.210 10.752121
53.215 10.950663
53.220 10.864008
53.225 10.541276
53.230 10.360405
53.235 9.860611
53.240 9.656214
53.245 9.242472
53.250 8.438069
53.255 8.596348
53.260 8.595831
53.265 9.163789
53.270 9.390569
53.275 9.177196
53.280 9.471521
53.285 9.520708
53.290 9.401336
53.295 9.55113
53.300 9.441268
53.305 9.292151
53.310 9.490289
53.315 9.340755
53.320 9.362332
53.325 9.374701
53.330 9.64535
53.335 9.953213
53.340 10.343982
53.345 10.520319
53.350 10.77893
53.355 10.868135
53.360 11.37901
53.365 11.228927
53.370 10.957268
53.375 10.9369
53.380 10.71729
53.385 11.112364
53.390 10.945841
53.395 10.677725
53.400 10.697456
53.405 10.718177
53.410 10.460347
53.415 10.498155
53.420 10.027299
53.425 9.892095
53.430 9.462808
53.435 9.062696
53.440 8.817146
53.445 8.865759
53.450 9.018619
53.455 9.724077
53.460 10.444753
53.465 10.825298
53.470 11.233682
53.475 11.354893
53.480 11.105137
53.485 10.918009
53.490 10.354754
53.495 9.620036
53.500 9.313226
53.505 9.462477
53.510 9.952812
53.515 10.476712
53.520 10.500179
53.525 11.347951
53.530 11.74972
53.535 11.770708
53.540 11.450977
53.545 10.877621
53.550 10.509876
53.555 10.610616
53.560 10.604945
53.565 10.54764
53.570 10.583261
53.575 11.108548
53.580 11.182757
53.585 10.957559
53.590 10.751249
53.595 10.113014
53.600 10.585426
53.605 10.288911
53.610 10.275743
53.615 10.262283
53.620 10.371778
53.625 10.427866
53.630 10.445391
53.635 10.765879
53.640 10.334733
53.645 10.237713
53.650 10.332495
53.655 10.082033
53.660 10.589574
53.665 10.493361
53.670 10.481218
53.675 11.058591
53.680 11.608399
53.685 12.0138
53.690 11.980234
53.695 11.867985
53.700 12.491559
53.705 12.230199
53.710 11.870875
53.715 12.07368
53.720 12.066648
53.725 12.409303
53.730 11.920332
53.735 11.030051
53.740 10.887914
53.745 10.473231
53.750 9.555364
53.755 9.184717
53.760 9.040156
53.765 9.23636
53.770 9.735865
53.775 10.067088
53.780 10.322647
53.785 10.543259
53.790 10.660895
53.795 11.293333
53.800 11.392142
53.805 11.344725
53.810 11.332517
53.815 11.336241
53.820 11.420403
53.825 11.373875
53.830 10.943308
53.835 11.073318
53.840 11.255095
53.845 11.340239
53.850 11.284173
53.855 10.900367
53.860 10.778698
53.865 10.461147
53.870 10.45984
53.875 10.438829
53.880 10.577784
53.885 10.87156
53.890 10.843658
53.895 10.465573
53.900 10.359664
53.905 10.038071
53.910 9.84027
53.915 9.785574
53.920 9.804164
53.925 10.417108
53.930 10.916758
53.935 11.222511
53.940 11.124549
53.945 10.829086
53.950 10.744858
53.955 10.341154
53.960 9.71217
53.965 9.615025
53.970 9.391064
53.975 9.643003
53.980 9.814585
53.985 10.147399
53.990 10.595417
53.995 10.817018
54.000 10.893768
54.005 11.063399
54.010 10.904918
54.015 11.125905
54.020 11.331538
54.025 11.483429
54.030 11.603112
54.035 11.965622
54.040 12.136819
54.045 12.204874
54.050 11.473563
54.055 11.028713
54.060 11.149469
54.065 11.092364
54.070 10.726572
54.075 10.707826
54.080 10.901084
54.085 11.421027
54.090 11.34007
54.095 11.55417
54.100 11.615226
54.105 11.948901
54.110 12.037456
54.115 12.293539
54.120 12.375598
54.125 12.311933
54.130 11.837279
54.135 12.213318
54.140 11.813017
54.145 11.985213
54.150 11.900433
54.155 11.52063
54.160 11.454245
54.165 11.549682
54.170 11.597225
54.175 12.156204
54.180 11.705566
54.185 11.684978
54.190 12.131006
54.195 11.77536
54.200 11.648067
54.205 11.643289
54.210 11.702134
54.215 11.515124
54.220 11.467126
54.225 11.471537
54.230 11.872931
54.235 11.934495
54.240 11.51782
54.245 11.22101
54.250 11.672189
54.255 11.93368
54.260 11.809235
54.265 11.718203
54.270 10.9807
54.275 10.921968
54.280 10.913869
54.285 11.034241
54.290 10.988698
54.295 11.433053
54.300 12.295796
54.305 12.891719
54.310 12.891968
54.315 12.955049
54.320 12.633872
54.325 12.671517
54.330 12.035074
54.335 11.607287
54.340 11.620934
54.345 11.749339
54.350 11.734858
54.355 11.969404
54.360 12.156756
54.365 12.560998
54.370 12.297981
54.375 12.131755
54.380 11.695266
54.385 11.455291
54.390 11.216352
54.395 11.244412
54.400 10.918124
54.405 11.069805
54.410 11.42016
54.415 11.598211
54.420 11.522513
54.425 11.006557
54.430 10.555695
54.435 10.224047
54.440 9.808462
54.445 9.247967
54.450 9.184799
54.455 9.366709
54.460 9.65211
54.465 10.378257
54.470 10.545094
54.475 10.697235
54.480 10.811481
54.485 10.996281
54.490 11.187689
54.495 11.356556
54.500 11.444136
54.505 11.343795
54.510 11.391647
54.515 11.48497
54.520 11.555913
54.525 11.422282
54.530 10.710875
54.535 10.484762
54.540 10.865216
54.545 10.670222
54.550 10.556601
54.555 10.132305
54.560 10.272098
54.565 10.665232
54.570 10.463852
54.575 10.578868
54.580 10.652676
54.585 11.030553
54.590 11.384549
54.595 11.369509
54.600 11.796695
54.605 11.738567
54.610 11.827936
54.615 12.315479
54.620 12.223226
54.625 12.214128
54.630 12.299802
54.635 12.049581
54.640 12.324911
54.645 11.94567
54.650 12.17905
54.655 12.620625
54.660 12.545354
54.665 12.402159
54.670 12.654873
54.675 12.618143
54.680 12.879471
54.685 12.449528
54.690 12.175496
54.695 12.264261
54.700 12.01431
54.705 12.152717
54.710 12.220023
54.715 11.750325
54.720 11.824166
54.725 11.825739
54.730 12.307602
54.735 12.325321
54.740 11.978374
54.745 11.949703
54.750 12.194247
54.755 12.027112
54.760 11.871353
54.765 11.731152
54.770 11.708583
54.775 11.468114
54.780 11.42979
54.785 11.288876
54.790 11.824548
54.795 11.741835
54.800 11.630874
54.805 11.764728
54.810 12.11915
54.815 12.332443
54.820 12.403873
54.825 12.254037
54.830 12.28201
54.835 12.310942
54.840 12.223968
54.845 12.155747
54.850 12.196618
54.855 11.750175
54.860 11.608886
54.865 11.776833
54.870 12.131884
54.875 12.31391
54.880 12.002106
54.885 11.856976
54.890 12.113827
54.895 11.999612
54.900 11.700704
54.905 11.259317
54.910 11.347989
54.915 11.698745
54.920 12.014775
54.925 12.510308
54.930 12.908651
54.935 12.916061
54.940 12.774858
54.945 12.615762
54.950 12.078112
54.955 11.736284
54.960 11.064649
54.965 11.150653
54.970 11.594586
54.975 11.69133
54.980 12.257474
54.985 12.90887
54.990 12.973114
54.995 12.907247
55.000 12.576024
55.005 12.170138
55.010 12.215622
55.015 11.667419
55.020 11.728822
55.025 11.72069
55.030 12.200213
55.035 12.599066
55.040 12.514147
55.045 12.270487
55.050 12.376703
55.055 11.773716
55.060 11.655545
55.065 11.404391
55.070 11.257701
55.075 11.244009
55.080 11.128535
55.085 11.40504
55.090 11.934952
55.095 11.997018
55.100 11.728234
55.105 12.179817
55.110 12.321992
55.115 12.247384
55.120 12.358499
55.125 12.223441
55.130 12.282699
55.135 12.021513
55.140 11.768867
55.145 11.457648
55.150 11.523726
55.155 11.103108
55.160 11.635613
55.165 11.804849
55.170 12.292906
55.175 12.524249
55.180 12.799149
55.185 12.800204
55.190 12.775051
55.195 12.199431
55.200 12.618828
55.205 12.729154
55.210 12.706382
55.215 13.009198
55.220 13.370058
55.225 13.220445
55.230 12.832162
55.235 12.031999
55.240 11.767258
55.245 11.644552
55.250 11.685774
55.255 11.56768
55.260 11.521874
55.265 11.702117
55.270 12.016116
55.275 12.056203
55.280 11.967906
55.285 11.84222
55.290 11.933944
55.295 11.88533
55.300 11.91918
55.305 12.00436
55.310 12.254892
55.315 12.387954
55.320 12.171893
55.325 11.665537
55.330 11.829315
55.335 11.874086
55.340 11.639721
55.345 11.399919
55.350 11.57926
55.355 12.16171
55.360 13.063421
55.365 13.253632
55.370 13.66616
55.375 13.762457
55.380 13.744867
55.385 13.474791
55.390 13.360621
55.395 13.473746
55.400 13.71913
55.405 13.725838
55.410 13.773686
55.415 13.706118
55.420 13.646862
55.425 12.950256
55.430 12.694731
55.435 12.383319
55.440 12.339784
55.445 12.748423
55.450 12.748755
55.455 12.419094
55.460 12.757622
55.465 12.50864
55.470 12.208402
55.475 11.988216
55.480 11.432637
55.485 11.423938
55.490 12.044565
55.495 12.41955
55.500 12.259912
55.505 12.246235
55.510 12.129371
55.515 12.09812
55.520 11.840479
55.525 11.424438
55.530 11.088675
55.535 11.597082
55.540 12.025054
55.545 12.247261
55.550 13.080735
55.555 13.565012
55.560 14.116077
55.565 14.41433
55.570 14.175431
55.575 13.915559
55.580 13.813514
55.585 13.501567
55.590 13.142832
55.595 13.058378
55.600 13.06085
55.605 12.948102
55.610 12.948116
55.615 12.731568
55.620 12.54452
55.625 12.235824
55.630 11.663592
55.635 11.595822
55.640 11.766777
55.645 11.720029
55.650 12.011241
55.655 12.319965
55.660 12.469109
55.665 12.795267
55.670 12.409644
55.675 12.163442
55.680 12.081141
55.685 12.494261
55.690 12.86727
55.695 12.778317
55.700 12.733387
55.705 12.840119
55.710 12.927927
55.715 12.793929
55.720 12.137769
55.725 12.011686
55.730 11.986876
55.735 11.79279
55.740 11.868011
55.745 12.10034
55.750 11.890118
55.755 11.865909
55.760 11.576325
55.765 11.538157
55.770 11.85857
55.775 11.719802
55.780 11.579832
55.785 11.589581
55.790 11.609952
55.795 11.976126
55.800 11.878458
55.805 12.111382
55.810 12.226331
55.815 11.949887
55.820 12.25868
55.825 12.353959
55.830 12.744329
55.835 13.214986
55.840 13.074565
55.845 13.621807
55.850 13.799094
55.855 14.267905
55.860 14.189819
55.865 13.650466
55.870 13.129412
55.875 12.645351
55.880 13.123126
55.885 13.466987
55.890 13.268072
55.895 13.371798
55.900 13.919446
55.905 13.791468
55.910 13.447976
55.915 12.950112
55.920 12.554028
55.925 11.863697
55.930 11.643441
55.935 11.650899
55.940 11.990221
55.945 12.224051
55.950 12.146362
55.955 12.461907
55.960 12.976956
55.965 13.290149
55.970 13.295505
55.975 13.84742
55.980 13.698409
55.985 13.636085
55.990 13.177232
55.995 12.819963
56.000 12.576234
56.005 12.268543
56.010 12.188378
56.015 12.220726
56.020 12.042902
56.025 12.520336
56.030 12.745584
56.035 12.716807
56.040 12.559857
56.045 12.611277
56.050 12.747477
56.055 12.967809
56.060 12.720708
56.065 13.105784
56.070 13.269897
56.075 13.28968
56.080 13.525268
56.085 13.733048
56.090 13.864449
56.095 13.630803
56.100 13.127871
56.105 13.537889
56.110 13.137591
56.115 12.588141
56.120 12.344851
56.125 12.453047
56.130 12.721005
56.135 12.580381
56.140 13.278984
56.145 13.966237
56.150 13.851154
56.155 13.866293
56.160 13.625022
56.165 13.99794
56.170 14.281758
56.175 13.545047
56.180 13.476333
56.185 13.854777
56.190 13.693409
56.195 13.850116
56.200 13.673625
56.205 13.500037
56.210 13.465058
56.215 13.177311
56.220 13.508566
56.225 14.020908
56.230 14.26015
56.235 14.35694
56.240 14.228103
56.245 14.649402
56.250 14.823997
56.255 14.724257
56.260 14.555366
56.265 14.130473
56.270 13.912693
56.275 13.78525
56.280 13.836091
56.285 14.506733
56.290 14.130011
56.295 14.212801
56.300 14.081846
56.305 14.045497
56.310 14.202297
56.315 13.401152
56.320 12.602516
56.325 12.361979
56.330 12.540893
56.335 13.025111
56.340 13.258984
56.345 13.43751
56.350 13.690645
56.355 14.555007
56.360 14.974937
56.365 15.233144
56.370 14.82598
56.375 14.361606
56.380 13.800535
56.385 13.5815
56.390 13.110225
56.395 12.790766
56.400 12.798399
56.405 12.909709
56.410 13.263775
56.415 13.526403
56.420 13.163318
56.425 12.845233
56.430 12.821327
56.435 12.306321
56.440 12.283444
56.445 12.415796
56.450 12.666926
56.455 12.8884
56.460 13.382726
56.465 13.676168
56.470 14.507939
56.475 14.703651
56.480 14.738159
56.485 14.750008
56.490 15.208199
56.495 15.250124
56.500 14.75484
56.505 13.849029
56.510 13.375822
56.515 13.163569
56.520 13.410453
56.525 13.558345
56.530 13.636056
56.535 13.861725
56.540 14.001356
56.545 14.330874
56.550 14.414472
56.555 13.949466
56.560 13.682931
56.565 13.553629
56.570 13.577889
56.575 13.878694
56.580 13.705567
56.585 13.475942
56.590 13.363229
56.595 13.511364
56.600 13.914875
56.605 14.163857
56.610 13.700866
56.615 13.495509
56.620 13.520674
56.625 13.853146
56.630 13.628325
56.635 12.954356
56.640 12.577308
56.645 13.023201
56.650 13.219377
56.655 13.320517
56.660 13.35716
56.665 13.521109
56.670 13.597215
56.675 13.670779
56.680 14.084082
56.685 14.345133
56.690 14.360049
56.695 14.487303
56.700 14.313512
56.705 14.572344
56.710 15.216978
56.715 15.183706
56.720 15.266235
56.725 14.931626
56.730 14.553429
56.735 15.188771
56.740 15.080067
56.745 15.045538
56.750 14.717402
56.755 15.202272
56.760 15.309178
56.765 15.114655
56.770 14.394184
56.775 14.111116
56.780 13.470181
56.785 13.569942
56.790 13.173572
56.795 13.35575
56.800 13.456493
56.805 13.730182
56.810 13.536257
56.815 13.377734
56.820 13.179092
56.825 13.095914
56.830 13.218603
56.835 13.186434
56.840 12.951203
56.845 13.66408
56.850 13.911399
56.855 13.396179
56.860 13.319598
56.865 13.23462
56.870 13.117587
56.875 13.648811
56.880 12.980518
56.885 12.983217
56.890 13.584778
56.895 13.939257
56.900 14.13435
56.905 14.858113
56.910 14.632674
56.915 14.729788
56.920 14.222855
56.925 13.754425
56.930 13.810718
56.935 13.763777
56.940 13.31213
56.945 13.294847
56.950 13.959512
56.955 14.633217
56.960 14.871159
56.965 14.455648
56.970 14.137218
56.975 13.736017
56.980 13.805058
56.985 13.929052
56.990 14.190646
56.995 13.977633
57.000 14.023879
57.005 14.784177
57.010 14.886052
57.015 14.382494
57.020 13.676325
57.025 13.60128
57.030 13.913003
57.035 13.884568
57.040 13.416694
57.045 13.368423
57.050 13.529731
57.055 13.717999
57.060 13.632114
57.065 13.557087
57.070 13.304959
57.075 13.436255
57.080 13.358728
57.085 13.538074
57.090 13.301823
57.095 13.227218
57.100 13.693749
57.105 13.72304
57.110 13.772214
57.115 13.76464
57.120 13.570036
57.125 14.003264
57.130 14.042764
57.135 13.709173
57.140 14.487712
57.145 14.946472
57.150 15.250977
57.155 15.266663
57.160 15.25068
57.165 15.297004
57.170 15.321321
57.175 15.213813
57.180 15.079768
57.185 14.791451
57.190 14.753955
57.195 14.279707
57.200 13.982971
57.205 14.081896
57.210 14.04777
57.215 13.670643
57.220 13.778953
57.225 13.717198
57.230 13.943559
57.235 14.472964
57.240 14.549205
57.245 14.667127
57.250 14.787445
57.255 15.341904
57.260 15.975028
57.265 16.037716
57.270 15.593246
57.275 15.487835
57.280 14.523166
57.285 14.162022
57.290 13.297158
57.295 12.946227
57.300 12.879949
57.305 12.537765
57.310 12.363279
57.315 13.562119
57.320 14.667612
57.325 15.248528
57.330 15.901651
57.335 16.184645
57.340 16.435747
57.345 16.544769
57.350 16.45269
57.355 15.984885
57.360 15.462305
57.365 14.445129
57.370 14.579051
57.375 14.495658
57.380 14.685898
57.385 14.286849
57.390 14.943681
57.395 15.514498
57.400 15.76219
57.405 15.45457
57.410 15.352736
57.415 14.780355
57.420 15.208026
57.425 14.574321
57.430 14.102539
57.435 14.256749
57.440 14.23738
57.445 14.518531
57.450 14.58849
57.455 14.652553
57.460 15.009416
57.465 15.453572
57.470 15.462064
57.475 15.442316
57.480 15.667138
57.485 15.875057
57.490 15.028746
57.495 14.692353
57.500 14.55937
57.505 14.511634
57.510 14.697402
57.515 14.76459
57.520 14.754506
57.525 14.942693
57.530 15.153132
57.535 15.37205
57.540 15.843407
57.545 15.54265
57.550 15.462654
57.555 16.057127
57.560 16.554712
57.565 17.207636
57.570 17.210409
57.575 17.126442
57.580 17.083046
57.585 17.074554
57.590 16.526466
57.595 16.296368
57.600 16.199463
57.605 15.878108
57.610 16.034748
57.615 16.403406
57.620 16.31514
57.625 16.431992
57.630 15.94862
57.635 15.621724
57.640 16.108988
57.645 15.865973
57.650 15.841959
57.655 16.017582
57.660 16.35787
57.665 16.152678
57.670 15.817206
57.675 15.562608
57.680 15.778399
57.685 15.569137
57.690 15.8672
57.695 15.979095
57.700 16.184422
57.705 16.238918
57.710 16.130337
57.715 16.067173
57.720 16.225082
57.725 15.817441
57.730 15.914833
57.735 16.116713
57.740 16.113159
57.745 16.255871
57.750 16.259062
57.755 15.999258
57.760 15.70376
57.765 15.451808
57.770 15.301912
57.775 15.696761
57.780 15.385072
57.785 15.136842
57.790 15.445304
57.795 15.775902
57.800 15.950233
57.805 16.079674
57.810 15.974542
57.815 16.854725
57.820 16.990349
57.825 16.992931
57.830 16.880671
57.835 16.994514
57.840 17.412828
57.845 17.667019
57.850 17.927586
57.855 18.144243
57.860 18.181709
57.865 18.059755
57.870 18.231621
57.875 17.505415
57.880 16.868885
57.885 15.977448
57.890 15.754772
57.895 15.322346
57.900 14.765217
57.905 14.992898
57.910 15.125688
57.915 15.060798
57.920 15.232695
57.925 14.653392
57.930 14.997378
57.935 15.639936
57.940 15.488179
57.945 15.686728
57.950 16.658817
57.955 17.331856
57.960 17.86154
57.965 17.761284
57.970 17.443998
57.975 17.785707
57.980 17.649792
57.985 17.301571
57.990 17.217478
57.995 17.472923
58.000 18.02397
58.005 17.849102
58.010 17.566494
58.015 17.454033
58.020 17.280245
58.025 16.875902
58.030 17.018143
58.035 17.075598
58.040 17.577957
58.045 18.188509
58.050 18.203407
58.055 18.759216
58.060 18.889679
58.065 18.851501
58.070 18.550049
58.075 17.936218
58.080 16.984621
58.085 16.70369
58.090 16.562586
58.095 17.045851
58.100 17.926195
58.105 18.389532
58.110 18.505157
58.115 18.89896
58.120 19.189499
58.125 19.484591
58.130 19.232061
58.135 18.733225
58.140 18.487326
58.145 18.721132
58.150 18.756502
58.155 18.579075
58.160 18.099096
58.165 17.46096
58.170 17.176188
58.175 17.225407
58.180 17.255373
58.185 17.642715
58.190 17.840118
58.195 17.899145
58.200 18.154861
58.205 17.919924
58.210 17.978745
58.215 18.212564
58.220 18.17515
58.225 17.86887
58.230 17.9673
58.235 18.611536
58.240 18.966928
58.245 18.464302
58.250 17.959084
58.255 17.820665
58.260 18.117468
58.265 17.995829
58.270 17.693365
58.275 17.865713
58.280 18.302553
58.285 18.631392
58.290 18.530834
58.295 17.911064
58.300 18.304974
58.305 19.095993
58.310 19.558008
58.315 19.596659
58.320 19.567631
58.325 20.682135
58.330 21.141079
58.335 20.789276
58.340 20.069437
58.345 19.849981
58.350 20.321333
58.355 20.778795
58.360 20.982407
58.365 21.580177
58.370 21.668751
58.375 22.207712
58.380 22.484194
58.385 22.745083
58.390 22.575842
58.395 22.501221
58.400 22.409552
58.405 22.329172
58.410 22.481703
58.415 22.28771
58.420 22.252653
58.425 22.299486
58.430 22.6462
58.435 23.281908
58.440 23.463209
58.445 23.449192
58.450 23.657972
58.455 24.225132
