!@!!GADDS PLOTSO FILE: Chi integration type
!@!!Title/SampleName: map-99
!@!!Comment: ?
!@!!User: Bruker Instrument Administrator
!@!!Site: University of Illinois Chicago
!@!!Frame: map-99_01_000.gfrm
!@!!Wavelengths    1.54184   1.54056   1.54439
!@!!Frame angles: 2Theta: 63.000 Omega: 50.000 Phi: 0.000 Chi: 90.000
!@!!Integration range: 2Theta: 53.000 to 73.000  Gamma: -105.000 to -75.000
!@!!Integration method: bin normalized
!@!N
!@!SS
!@!M
!@!L 0.0 0.0 0.0 0.0
!@!XDegrees
!@!YCounts
53.000 8.21223
53.005 8.133631
53.010 8.361936
53.015 8.198859
53.020 8.192995
53.025 8.009683
53.030 7.283351
53.035 7.292979
53.040 7.73087
53.045 8.166189
53.050 8.887944
53.055 8.993261
53.060 8.794405
53.065 8.649839
53.070 8.751119
53.075 8.590834
53.080 8.324278
53.085 7.63952
53.090 7.468929
53.095 7.550123
53.100 7.425878
53.105 7.253455
53.110 7.476588
53.115 7.615293
53.120 7.754107
53.125 8.043882
53.130 8.131725
53.135 8.481872
53.140 8.592157
53.145 8.3253
53.150 8.246293
53.155 8.458201
53.160 8.452694
53.165 8.367243
53.170 8.159452
53.175 8.424012
53.180 8.593003
53.185 8.739225
53.190 8.739114
53.195 8.833211
53.200 8.654016
53.205 8.330616
53.210 8.268531
53.215 8.062623
53.220 8.056807
53.225 8.026948
53.230 7.829159
53.235 8.042838
53.240 8.039685
53.245 7.931568
53.250 7.815885
53.255 8.425815
53.260 8.901881
53.265 8.796809
53.270 8.844097
53.275 8.71039
53.280 8.561608
53.285 8.57915
53.290 7.932942
53.295 7.950981
53.300 8.57211
53.305 9.014098
53.310 8.95366
53.315 8.874981
53.320 8.715127
53.325 8.802635
53.330 8.435981
53.335 7.970593
53.340 8.269557
53.345 8.437767
53.350 8.479847
53.355 8.572028
53.360 8.577062
53.365 8.809505
53.370 8.847529
53.375 8.494287
53.380 8.151207
53.385 8.088354
53.390 8.199785
53.395 7.965968
53.400 7.95493
53.405 7.945224
53.410 8.363802
53.415 8.603858
53.420 8.261044
53.425 8.349368
53.430 8.250983
53.435 8.13029
53.440 7.841905
53.445 7.52125
53.450 7.708425
53.455 7.621436
53.460 7.681828
53.465 8.358203
53.470 8.621127
53.475 9.020684
53.480 9.423171
53.485 9.847012
53.490 10.625357
53.495 10.341747
53.500 9.853358
53.505 9.670033
53.510 9.332046
53.515 9.356842
53.520 9.008768
53.525 8.838223
53.530 8.981229
53.535 8.727392
53.540 8.635035
53.545 8.476877
53.550 8.434236
53.555 8.19438
53.560 8.007185
53.565 8.455695
53.570 8.75472
53.575 8.681211
53.580 9.207663
53.585 9.113729
53.590 9.456717
53.595 9.630968
53.600 9.324113
53.605 9.642208
53.610 9.705246
53.615 9.597514
53.620 9.39835
53.625 9.525693
53.630 9.123714
53.635 9.496878
53.640 9.437645
53.645 9.29683
53.650 9.381889
53.655 9.356514
53.660 9.400016
53.665 9.429287
53.670 8.961609
53.675 8.659476
53.680 8.552907
53.685 8.526581
53.690 8.854708
53.695 8.498481
53.700 8.723556
53.705 8.645442
53.710 8.516032
53.715 8.310925
53.720 8.452134
53.725 8.696187
53.730 8.946918
53.735 8.876549
53.740 8.800475
53.745 9.031184
53.750 9.250031
53.755 8.92201
53.760 8.727634
53.765 8.844783
53.770 9.330937
53.775 9.546622
53.780 9.497769
53.785 9.640788
53.790 9.524772
53.795 8.921161
53.800 8.540202
53.805 8.37384
53.810 8.303026
53.815 8.335311
53.820 8.122891
53.825 8.155986
53.830 8.436031
53.835 8.676459
53.840 8.749492
53.845 8.99438
53.850 8.79934
53.855 8.742493
53.860 8.684177
53.865 8.847528
53.870 8.57442
53.875 8.48509
53.880 8.572053
53.885 8.95914
53.890 9.504827
53.895 9.543711
53.900 9.423591
53.905 9.851572
53.910 10.207341
53.915 10.440474
53.920 10.490831
53.925 10.414101
53.930 10.672588
53.935 10.694642
53.940 10.483986
53.945 10.04545
53.950 9.685673
53.955 9.706453
53.960 9.945206
53.965 9.992443
53.970 9.687972
53.975 9.861293
53.980 9.80959
53.985 9.587048
53.990 9.297154
53.995 9.33178
54.000 9.273978
54.005 9.32097
54.010 8.835878
54.015 8.641946
54.020 9.035774
54.025 9.059592
54.030 8.897341
54.035 9.272492
54.040 9.529298
54.045 9.733834
54.050 9.459114
54.055 9.007469
54.060 8.961455
54.065 9.033094
54.070 8.951027
54.075 9.361559
54.080 9.867023
54.085 10.661254
54.090 10.809611
54.095 10.948573
54.100 11.117914
54.105 11.121414
54.110 10.51896
54.115 10.009907
54.120 9.575208
54.125 9.816132
54.130 9.866182
54.135 9.343072
54.140 9.220137
54.145 9.357653
54.150 9.391126
54.155 9.500345
54.160 9.372252
54.165 9.51427
54.170 9.40821
54.175 9.301858
54.180 9.267409
54.185 9.477645
54.190 9.216142
54.195 9.030832
54.200 9.107415
54.205 9.404625
54.210 9.771392
54.215 10.00176
54.220 10.024158
54.225 9.858655
54.230 9.644894
54.235 9.828869
54.240 10.096275
54.245 10.065888
54.250 9.795871
54.255 10.153259
54.260 10.835629
54.265 11.17499
54.270 11.164918
54.275 10.554528
54.280 10.735744
54.285 10.698633
54.290 10.223742
54.295 9.469637
54.300 9.5207
54.305 9.78603
54.310 9.75672
54.315 9.482305
54.320 9.643571
54.325 9.873317
54.330 10.25065
54.335 9.649243
54.340 9.092936
54.345 8.85938
54.350 8.581663
54.355 8.154689
54.360 8.270952
54.365 8.113588
54.370 8.483775
54.375 8.853182
54.380 9.284593
54.385 9.956946
54.390 10.384494
54.395 10.602806
54.400 10.803433
54.405 11.190869
54.410 11.275051
54.415 11.255843
54.420 10.890482
54.425 10.696271
54.430 10.399064
54.435 9.919848
54.440 9.466436
54.445 9.880783
54.450 10.248617
54.455 10.128405
54.460 10.110435
54.465 10.229168
54.470 10.487685
54.475 10.12106
54.480 9.271534
54.485 9.397507
54.490 9.663144
54.495 9.282968
54.500 9.057784
54.505 8.883129
54.510 9.406013
54.515 9.524819
54.520 9.226106
54.525 9.2259
54.530 9.378402
54.535 9.637292
54.540 10.125962
54.545 10.072432
54.550 9.953979
54.555 9.820166
54.560 9.464114
54.565 9.693871
54.570 9.283532
54.575 8.364311
54.580 8.277618
54.585 8.432677
54.590 8.854081
54.595 9.099379
54.600 9.003559
54.605 9.158628
54.610 9.140495
54.615 9.198481
54.620 8.960614
54.625 8.648531
54.630 8.627141
54.635 8.870354
54.640 9.190108
54.645 9.416719
54.650 9.280269
54.655 9.228187
54.660 9.048253
54.665 8.784383
54.670 8.485485
54.675 8.462234
54.680 8.576906
54.685 9.214505
54.690 9.665483
54.695 10.047431
54.700 10.020562
54.705 10.211458
54.710 10.318564
54.715 10.614929
54.720 10.453367
54.725 10.734789
54.730 10.928952
54.735 11.155565
54.740 10.734432
54.745 10.401501
54.750 10.471799
54.755 10.372956
54.760 10.249036
54.765 10.293443
54.770 10.85392
54.775 11.424226
54.780 11.502447
54.785 10.821771
54.790 10.737701
54.795 10.793671
54.800 10.835407
54.805 10.848058
54.810 10.894791
54.815 11.277822
54.820 11.446868
54.825 10.882414
54.830 10.927212
54.835 10.451812
54.840 9.975297
54.845 9.579372
54.850 9.711475
54.855 10.19609
54.860 10.459887
54.865 10.042296
54.870 10.038434
54.875 10.538634
54.880 10.968895
54.885 10.850018
54.890 10.860947
54.895 10.872759
54.900 10.928945
54.905 11.042358
54.910 10.618984
54.915 10.822119
54.920 10.483191
54.925 10.189806
54.930 10.336522
54.935 10.502421
54.940 10.48655
54.945 10.752301
54.950 10.700566
54.955 10.613099
54.960 10.665031
54.965 10.813768
54.970 10.736179
54.975 10.859815
54.980 10.323323
54.985 10.173066
54.990 10.44075
54.995 10.751997
55.000 10.718007
55.005 10.400409
55.010 10.027986
55.015 10.110311
55.020 10.23496
55.025 10.097116
55.030 9.997853
55.035 10.084062
55.040 10.312511
55.045 10.535702
55.050 10.801762
55.055 10.882257
55.060 10.786559
55.065 10.59475
55.070 10.705224
55.075 10.717958
55.080 10.76566
55.085 10.33993
55.090 10.213491
55.095 10.307014
55.100 10.219501
55.105 10.533484
55.110 10.814276
55.115 11.059133
55.120 11.433797
55.125 11.024709
55.130 11.201771
55.135 11.530732
55.140 11.285512
55.145 10.730856
55.150 10.286283
55.155 9.79577
55.160 9.882441
55.165 9.843101
55.170 9.677664
55.175 9.46505
55.180 9.724251
55.185 10.252355
55.190 10.981101
55.195 10.893587
55.200 10.910241
55.205 10.884118
55.210 11.570817
55.215 11.428782
55.220 11.897418
55.225 12.073225
55.230 12.102537
55.235 12.029136
55.240 11.942863
55.245 11.405797
55.250 11.347743
55.255 10.600494
55.260 10.155676
55.265 10.106169
55.270 10.12984
55.275 10.262346
55.280 10.389469
55.285 10.549696
55.290 10.743474
55.295 11.479375
55.300 11.879589
55.305 11.841289
55.310 11.831965
55.315 11.997295
55.320 12.165413
55.325 12.248585
55.330 11.777424
55.335 11.701284
55.340 11.527699
55.345 11.554333
55.350 11.802409
55.355 11.560113
55.360 11.621422
55.365 11.747636
55.370 11.248858
55.375 10.88494
55.380 10.763426
55.385 10.381948
55.390 10.558171
55.395 10.312484
55.400 10.213635
55.405 10.783943
55.410 11.524672
55.415 11.63313
55.420 11.707414
55.425 11.63603
55.430 12.006023
55.435 11.916991
55.440 11.822167
55.445 11.746673
55.450 11.881932
55.455 11.827773
55.460 11.304525
55.465 10.9438
55.470 11.213206
55.475 11.096463
55.480 10.549811
55.485 10.27707
55.490 10.422861
55.495 10.770354
55.500 11.168588
55.505 10.922209
55.510 10.908048
55.515 11.378154
55.520 11.305157
55.525 11.075516
55.530 10.647571
55.535 11.153402
55.540 11.874295
55.545 12.260544
55.550 12.086616
55.555 12.119621
55.560 12.195519
55.565 12.018483
55.570 11.3302
55.575 11.211796
55.580 11.338455
55.585 11.666109
55.590 11.739442
55.595 11.696747
55.600 11.99614
55.605 11.898044
55.610 11.141428
55.615 10.523873
55.620 10.192772
55.625 9.89098
55.630 10.155891
55.635 10.114224
55.640 10.057764
55.645 10.33717
55.650 10.59793
55.655 10.878015
55.660 11.079597
55.665 10.859252
55.670 11.026034
55.675 11.117806
55.680 10.746095
55.685 10.57524
55.690 10.691312
55.695 10.651855
55.700 10.374026
55.705 9.774122
55.710 9.550945
55.715 9.900837
55.720 10.487968
55.725 10.302962
55.730 10.490069
55.735 11.330186
55.740 11.896588
55.745 11.902525
55.750 11.487824
55.755 10.757131
55.760 11.378917
55.765 11.640442
55.770 11.206739
55.775 10.897228
55.780 10.981181
55.785 11.31001
55.790 11.299535
55.795 10.288488
55.800 9.605165
55.805 9.66734
55.810 10.351736
55.815 10.594588
55.820 10.72205
55.825 10.745237
55.830 11.274199
55.835 11.600633
55.840 11.029976
55.845 10.535523
55.850 10.893712
55.855 10.611723
55.860 10.536162
55.865 10.561242
55.870 10.646783
55.875 11.14648
55.880 10.944437
55.885 10.620126
55.890 11.032897
55.895 11.01617
55.900 10.883289
55.905 10.881383
55.910 10.782226
55.915 10.952726
55.920 11.141424
55.925 11.316296
55.930 11.807812
55.935 12.134785
55.940 12.172709
55.945 12.438272
55.950 12.637439
55.955 12.571577
55.960 11.918908
55.965 11.607778
55.970 11.414907
55.975 11.134262
55.980 11.114434
55.985 10.847914
55.990 11.093063
55.995 11.23446
56.000 11.287999
56.005 11.420238
56.010 11.174795
56.015 11.022621
56.020 10.758438
56.025 10.950732
56.030 11.025561
56.035 10.656669
56.040 10.289476
56.045 9.995849
56.050 10.012012
56.055 10.349644
56.060 9.920802
56.065 9.93295
56.070 10.026416
56.075 10.545165
56.080 11.075384
56.085 11.246975
56.090 11.210175
56.095 11.591085
56.100 12.16942
56.105 12.455293
56.110 12.694402
56.115 12.900046
56.120 12.83737
56.125 12.486588
56.130 11.725796
56.135 11.266258
56.140 11.35644
56.145 10.953471
56.150 10.602697
56.155 10.507139
56.160 10.78584
56.165 11.42867
56.170 11.71209
56.175 11.451661
56.180 11.376356
56.185 11.821763
56.190 12.104447
56.195 12.650212
56.200 12.222051
56.205 11.987803
56.210 12.246882
56.215 12.425368
56.220 12.176435
56.225 12.098878
56.230 11.789535
56.235 12.218029
56.240 12.182026
56.245 12.002434
56.250 12.410718
56.255 12.500758
56.260 12.704519
56.265 12.687316
56.270 12.275655
56.275 12.191944
56.280 11.743834
56.285 11.513774
56.290 11.566317
56.295 11.59031
56.300 11.839906
56.305 11.658558
56.310 11.83446
56.315 12.312957
56.320 12.298013
56.325 12.195988
56.330 11.895932
56.335 12.181761
56.340 12.313655
56.345 12.486615
56.350 11.968979
56.355 11.445457
56.360 11.027175
56.365 10.867535
56.370 10.848111
56.375 11.104865
56.380 11.38005
56.385 11.447306
56.390 11.050028
56.395 10.947739
56.400 10.936043
56.405 11.158463
56.410 11.058443
56.415 11.06387
56.420 11.837917
56.425 12.60208
56.430 12.709476
56.435 12.393613
56.440 11.933118
56.445 11.86456
56.450 11.748688
56.455 11.327963
56.460 10.911565
56.465 11.451595
56.470 11.650245
56.475 11.815994
56.480 11.923635
56.485 12.212599
56.490 12.585768
56.495 12.774652
56.500 12.504951
56.505 12.724371
56.510 13.073137
56.515 12.775554
56.520 12.759457
56.525 12.857924
56.530 12.680878
56.535 12.550638
56.540 12.178646
56.545 11.989153
56.550 11.70406
56.555 11.433918
56.560 11.89384
56.565 12.318702
56.570 12.636126
56.575 12.945089
56.580 13.139433
56.585 13.628104
56.590 13.436129
56.595 12.940669
56.600 12.971457
56.605 12.575913
56.610 12.338598
56.615 11.703366
56.620 11.157802
56.625 11.255673
56.630 10.977093
56.635 10.843358
56.640 10.76029
56.645 10.873906
56.650 11.187635
56.655 11.595221
56.660 12.002497
56.665 12.476608
56.670 12.695668
56.675 13.331776
56.680 13.646103
56.685 13.795903
56.690 13.717634
56.695 12.977014
56.700 12.706972
56.705 12.715854
56.710 12.433487
56.715 12.133464
56.720 12.050687
56.725 12.369906
56.730 13.037592
56.735 12.995827
56.740 12.692579
56.745 12.38973
56.750 12.920118
56.755 12.950181
56.760 12.81763
56.765 12.759189
56.770 12.615458
56.775 12.961018
56.780 13.195389
56.785 12.828445
56.790 12.637094
56.795 13.00648
56.800 13.080695
56.805 12.741046
56.810 11.859122
56.815 11.165539
56.820 11.092637
56.825 10.989218
56.830 10.12873
56.835 10.279113
56.840 11.40661
56.845 12.270516
56.850 12.719813
56.855 12.909492
56.860 12.847866
56.865 13.0643
56.870 12.721502
56.875 12.583794
56.880 12.569305
56.885 12.519612
56.890 12.099078
56.895 11.824867
56.900 12.179392
56.905 12.02074
56.910 11.390204
56.915 11.84166
56.920 12.177411
56.925 12.367089
56.930 12.360539
56.935 12.372859
56.940 12.650585
56.945 12.843345
56.950 12.33099
56.955 12.256041
56.960 12.680553
56.965 13.182699
56.970 13.187203
56.975 13.096134
56.980 13.331914
56.985 13.604714
56.990 13.247319
56.995 12.60311
57.000 12.494034
57.005 12.828667
57.010 12.415518
57.015 12.081794
57.020 11.75038
57.025 12.295712
57.030 12.69556
57.035 12.155352
57.040 11.519511
57.045 11.544592
57.050 12.055862
57.055 12.456323
57.060 12.205842
57.065 12.115759
57.070 12.294973
57.075 13.185855
57.080 13.611267
57.085 12.9702
57.090 13.016424
57.095 12.552599
57.100 12.401619
57.105 12.497078
57.110 12.147174
57.115 12.134158
57.120 12.01871
57.125 11.828771
57.130 12.223404
57.135 12.264883
57.140 12.653596
57.145 12.653371
57.150 12.382867
57.155 12.742267
57.160 12.754186
57.165 12.701732
57.170 12.861463
57.175 12.352816
57.180 12.517847
57.185 12.953492
57.190 13.00018
57.195 13.737546
57.200 13.745529
57.205 13.509669
57.210 13.814977
57.215 13.836147
57.220 13.02449
57.225 12.950637
57.230 12.325002
57.235 12.155359
57.240 12.27767
57.245 11.860839
57.250 11.358792
57.255 12.355556
57.260 12.470684
57.265 12.747938
57.270 13.521497
57.275 13.440886
57.280 13.504109
57.285 14.105353
57.290 13.245729
57.295 13.00258
57.300 12.759829
57.305 12.060199
57.310 12.561258
57.315 13.257742
57.320 13.152617
57.325 13.435685
57.330 13.979644
57.335 14.215502
57.340 14.586332
57.345 14.100706
57.350 13.849633
57.355 13.478341
57.360 13.244208
57.365 13.387921
57.370 13.632662
57.375 13.566528
57.380 13.839772
57.385 13.957519
57.390 14.060429
57.395 14.284242
57.400 14.147628
57.405 13.960633
57.410 14.171782
57.415 14.181718
57.420 14.442487
57.425 14.433204
57.430 14.202265
57.435 13.773535
57.440 13.580753
57.445 13.518906
57.450 13.336472
57.455 13.449961
57.460 13.769988
57.465 13.915994
57.470 14.054557
57.475 14.106004
57.480 14.182656
57.485 14.142447
57.490 13.834882
57.495 13.582335
57.500 13.213406
57.505 13.747958
57.510 14.06419
57.515 13.496902
57.520 12.866537
57.525 12.776082
57.530 12.91475
57.535 13.004417
57.540 12.356011
57.545 11.998683
57.550 12.296813
57.555 13.201153
57.560 13.563621
57.565 13.772823
57.570 13.678685
57.575 13.628392
57.580 13.767287
57.585 13.829184
57.590 12.845516
57.595 12.450911
57.600 13.308772
57.605 13.171953
57.610 12.998251
57.615 13.084115
57.620 13.251966
57.625 13.63065
57.630 13.45092
57.635 13.095213
57.640 14.220057
57.645 14.696145
57.650 14.913341
57.655 15.31166
57.660 15.652869
57.665 16.030958
57.670 15.434373
57.675 14.918838
57.680 14.39298
57.685 14.274325
57.690 14.059582
57.695 14.145071
57.700 14.0537
57.705 14.51345
57.710 14.577694
57.715 14.9049
57.720 15.458337
57.725 15.514765
57.730 15.041639
57.735 14.901601
57.740 15.03477
57.745 15.076635
57.750 15.554504
57.755 15.177712
57.760 14.937251
57.765 15.294339
57.770 15.588972
57.775 15.369862
57.780 15.017766
57.785 14.502411
57.790 14.505062
57.795 14.269289
57.800 14.353463
57.805 14.610147
57.810 14.840455
57.815 15.388928
57.820 15.813642
57.825 15.900385
57.830 16.727142
57.835 17.026882
57.840 16.477345
57.845 16.157257
57.850 15.491849
57.855 15.082438
57.860 15.093301
57.865 14.449205
57.870 14.102457
57.875 14.255441
57.880 14.822909
57.885 14.941284
57.890 14.904541
57.895 14.880689
57.900 14.864918
57.905 15.206407
57.910 14.715507
57.915 14.058904
57.920 14.098943
57.925 14.228799
57.930 14.300006
57.935 14.155145
57.940 13.755979
57.945 13.695377
57.950 13.680854
57.955 13.48477
57.960 13.332763
57.965 13.838923
57.970 14.242451
57.975 14.833488
57.980 15.242832
57.985 15.674348
57.990 16.322699
57.995 16.561424
58.000 16.381172
58.005 16.071911
58.010 15.911243
58.015 16.204075
58.020 16.224022
58.025 15.822424
58.030 15.702815
58.035 15.834833
58.040 16.436182
58.045 16.276194
58.050 15.834441
58.055 15.543129
58.060 15.645418
58.065 15.053788
58.070 14.522603
58.075 14.27253
58.080 14.476578
58.085 14.926878
58.090 14.976051
58.095 14.958531
58.100 15.445715
58.105 15.723309
58.110 15.822262
58.115 15.809661
58.120 15.45588
58.125 15.204523
58.130 14.824755
58.135 15.170238
58.140 15.723528
58.145 16.188818
58.150 16.723228
58.155 17.49765
58.160 17.802465
58.165 18.232208
58.170 18.210541
58.175 17.230509
58.180 16.566715
58.185 15.786862
58.190 15.630445
58.195 15.865478
58.200 15.68511
58.205 15.852715
58.210 16.443928
58.215 17.095465
58.220 17.517611
58.225 17.480717
58.230 17.625933
58.235 17.360149
58.240 17.041733
58.245 16.654215
58.250 15.974813
58.255 15.931908
58.260 15.82606
58.265 15.766038
58.270 16.026281
58.275 16.315826
58.280 16.94799
58.285 17.800346
58.290 18.336004
58.295 18.295561
58.300 18.719503
58.305 18.987984
58.310 18.755384
58.315 18.703827
58.320 18.318924
58.325 18.208664
58.330 18.840996
58.335 18.988344
58.340 18.817146
58.345 19.33967
58.350 18.80829
58.355 18.806322
58.360 18.982241
58.365 18.713484
58.370 19.202551
58.375 19.111824
58.380 18.759829
58.385 19.94099
58.390 20.466782
58.395 21.089598
58.400 21.679974
58.405 21.444284
58.410 22.23344
58.415 22.789709
58.420 23.13637
58.425 23.023968
58.430 22.831572
58.435 22.966812
58.440 23.146765
58.445 23.596985
58.450 23.48468
58.455 23.222946
58.460 22.865473
58.465 22.510317
58.470 22.526333
58.475 22.952702
58.480 22.955826
58.485 23.394213
58.490 24.041512
58.495 25.174213
58.500 25.21043
58.505 25.790123
58.510 26.111603
58.515 26.750917
58.520 27.265148
58.525 27.862535
58.530 28.438015
