!@!!GADDS PLOTSO FILE: Chi integration type
!@!!Title/SampleName: map-11c
!@!!Comment: ?
!@!!User: Bruker Instrument Administrator
!@!!Site: University of Illinois Chicago
!@!!Frame: map-11c_01_000.gfrm
!@!!Wavelengths    1.54184   1.54056   1.54439
!@!!Frame angles: 2Theta: 63.000 Omega: 50.000 Phi: 0.000 Chi: 90.000
!@!!Integration range: 2Theta: 53.000 to 73.000  Gamma: -105.000 to -75.000
!@!!Integration method: bin normalized
!@!N
!@!SS
!@!M
!@!L 0.0 0.0 0.0 0.0
!@!XDegrees
!@!YCounts
53.000 7.558602
53.005 7.698253
53.010 7.822071
53.015 7.615643
53.020 7.598248
53.025 7.680765
53.030 7.834877
53.035 8.093015
53.040 7.928945
53.045 7.695507
53.050 7.54916
53.055 7.069976
53.060 7.082024
53.065 7.249859
53.070 7.074086
53.075 7.291499
53.080 7.467476
53.085 7.667716
53.090 7.858375
53.095 7.483742
53.100 7.300456
53.105 7.491531
53.110 7.550885
53.115 7.425081
53.120 7.226601
53.125 7.781645
53.130 8.130082
53.135 8.130168
53.140 8.053091
53.145 8.072452
53.150 7.880069
53.155 8.344019
53.160 8.30029
53.165 8.120478
53.170 8.438559
53.175 8.661976
53.180 8.820312
53.185 9.054777
53.190 8.616405
53.195 8.370832
53.200 8.644485
53.205 8.50192
53.210 8.077024
53.215 7.793612
53.220 7.575869
53.225 7.939554
53.230 7.67578
53.235 7.256103
53.240 7.066874
53.245 7.050808
53.250 7.467124
53.255 7.427588
53.260 7.135387
53.265 7.649817
53.270 7.680919
53.275 7.646161
53.280 7.435438
53.285 7.055203
53.290 7.133469
53.295 7.238708
53.300 7.179555
53.305 7.418973
53.310 7.565083
53.315 7.489164
53.320 7.630165
53.325 7.699354
53.330 7.96521
53.335 8.09335
53.340 7.893517
53.345 8.120378
53.350 8.307212
53.355 8.083961
53.360 7.714323
53.365 7.390171
53.370 7.385696
53.375 7.540689
53.380 7.559669
53.385 7.990648
53.390 8.267367
53.395 8.677773
53.400 8.617891
53.405 8.635108
53.410 8.689732
53.415 8.72197
53.420 8.841239
53.425 9.157537
53.430 8.679578
53.435 8.559859
53.440 8.741015
53.445 8.41408
53.450 8.448137
53.455 8.291049
53.460 8.009319
53.465 8.10095
53.470 7.923002
53.475 7.868617
53.480 7.913951
53.485 7.544153
53.490 7.199604
53.495 7.448255
53.500 7.781573
53.505 8.045119
53.510 8.140708
53.515 8.481983
53.520 8.88856
53.525 8.83869
53.530 8.575078
53.535 8.552914
53.540 8.323109
53.545 8.176625
53.550 8.293688
53.555 8.428772
53.560 8.615602
53.565 8.964979
53.570 9.344315
53.575 9.543112
53.580 9.435173
53.585 8.972887
53.590 8.49361
53.595 8.137885
53.600 7.912485
53.605 7.545965
53.610 7.196963
53.615 7.386824
53.620 7.635231
53.625 8.283452
53.630 8.63895
53.635 8.36813
53.640 8.28751
53.645 8.304939
53.650 8.44215
53.655 8.322374
53.660 7.948215
53.665 7.988644
53.670 8.192888
53.675 8.403038
53.680 8.214884
53.685 7.926984
53.690 8.012211
53.695 8.030525
53.700 7.57421
53.705 7.552031
53.710 7.771895
53.715 8.247834
53.720 8.248768
53.725 8.210855
53.730 8.419222
53.735 8.690338
53.740 8.559869
53.745 8.597138
53.750 8.425494
53.755 8.372877
53.760 8.432725
53.765 8.142588
53.770 8.165522
53.775 8.064896
53.780 7.4652
53.785 7.455106
53.790 7.725863
53.795 7.587109
53.800 7.443303
53.805 7.88776
53.810 8.489987
53.815 8.673615
53.820 8.596093
53.825 8.687243
53.830 8.697591
53.835 8.811822
53.840 8.355826
53.845 8.360453
53.850 8.432101
53.855 8.47051
53.860 8.591063
53.865 8.973868
53.870 9.168134
53.875 9.367184
53.880 9.337193
53.885 9.19275
53.890 8.751755
53.895 8.208051
53.900 7.974362
53.905 8.011819
53.910 8.017075
53.915 8.240313
53.920 8.498181
53.925 8.967115
53.930 9.043192
53.935 8.703064
53.940 8.952045
53.945 8.895826
53.950 9.091136
53.955 9.302048
53.960 9.366379
53.965 9.547276
53.970 9.467726
53.975 9.38464
53.980 9.263225
53.985 9.000052
53.990 8.725002
53.995 9.052576
54.000 9.10517
54.005 8.966709
54.010 8.708426
54.015 8.673537
54.020 8.934941
54.025 8.867391
54.030 8.646082
54.035 9.001997
54.040 9.095918
54.045 9.034042
54.050 9.001388
54.055 8.946026
54.060 8.806128
54.065 8.589142
54.070 8.266196
54.075 8.299855
54.080 8.561341
54.085 8.542511
54.090 8.286383
54.095 8.127337
54.100 7.866131
54.105 8.342218
54.110 8.286152
54.115 7.735533
54.120 7.903533
54.125 8.059739
54.130 8.241425
54.135 8.595253
54.140 8.453511
54.145 8.797659
54.150 9.038658
54.155 9.12043
54.160 9.365302
54.165 9.409335
54.170 9.258704
54.175 8.905682
54.180 9.086174
54.185 9.087764
54.190 9.264507
54.195 9.282783
54.200 9.45252
54.205 9.995932
54.210 10.242859
54.215 10.077406
54.220 9.851776
54.225 9.670519
54.230 9.854995
54.235 9.675693
54.240 9.235025
54.245 9.185627
54.250 9.110349
54.255 8.926701
54.260 8.881907
54.265 8.790651
54.270 8.893952
54.275 9.013823
54.280 9.282165
54.285 9.165558
54.290 9.778378
54.295 9.929273
54.300 9.317505
54.305 9.180538
54.310 8.849518
54.315 8.561731
54.320 8.736684
54.325 8.389307
54.330 8.681858
54.335 9.1395
54.340 9.387661
54.345 9.769904
54.350 9.821815
54.355 9.821371
54.360 9.830235
54.365 9.378524
54.370 9.256777
54.375 9.392326
54.380 9.179354
54.385 9.092653
54.390 9.003171
54.395 8.751767
54.400 8.801134
54.405 8.711661
54.410 8.797715
54.415 8.934458
54.420 9.231588
54.425 9.136932
54.430 9.08654
54.435 9.137962
54.440 8.678003
54.445 8.341015
54.450 8.303994
54.455 8.155615
54.460 8.327801
54.465 8.687094
54.470 8.682529
54.475 8.648984
54.480 8.684003
54.485 8.600568
54.490 8.707308
54.495 8.466857
54.500 8.162909
54.505 8.419099
54.510 8.865472
54.515 9.13564
54.520 8.830248
54.525 8.593932
54.530 8.545761
54.535 8.782523
54.540 9.204788
54.545 9.072221
54.550 8.951588
54.555 9.069477
54.560 9.449378
54.565 9.996131
54.570 9.984439
54.575 9.844555
54.580 9.54318
54.585 9.692106
54.590 9.762831
54.595 9.673341
54.600 9.403907
54.605 9.312535
54.610 9.77739
54.615 10.069888
54.620 10.170369
54.625 10.192837
54.630 10.275552
54.635 10.408759
54.640 9.872925
54.645 9.727308
54.650 10.167827
54.655 10.06289
54.660 10.113153
54.665 10.211133
54.670 10.017649
54.675 9.530957
54.680 9.156102
54.685 8.843119
54.690 9.205584
54.695 9.215482
54.700 8.758227
54.705 8.737446
54.710 8.495417
54.715 8.249858
54.720 8.198771
54.725 7.91192
54.730 7.691308
54.735 7.933305
54.740 8.353563
54.745 9.03579
54.750 9.16968
54.755 8.61445
54.760 8.828718
54.765 9.206712
54.770 9.184793
54.775 9.09034
54.780 8.760939
54.785 9.151448
54.790 9.924365
54.795 10.051691
54.800 10.314524
54.805 10.583526
54.810 10.758272
54.815 10.841289
54.820 10.938528
54.825 10.675268
54.830 10.448632
54.835 10.359314
54.840 10.2702
54.845 10.534679
54.850 10.493931
54.855 10.525639
54.860 10.797979
54.865 10.691652
54.870 10.32778
54.875 10.555479
54.880 10.482927
54.885 10.43978
54.890 10.060981
54.895 9.714905
54.900 9.7435
54.905 9.965563
54.910 9.913187
54.915 10.148871
54.920 10.048119
54.925 9.918802
54.930 9.986949
54.935 10.19755
54.940 10.550156
54.945 10.882378
54.950 10.756712
54.955 10.892633
54.960 11.080647
54.965 10.897932
54.970 10.48163
54.975 10.061424
54.980 9.970863
54.985 10.186092
54.990 9.757462
54.995 9.427834
55.000 9.393628
55.005 9.131038
55.010 9.187979
55.015 9.005933
55.020 9.07323
55.025 9.766837
55.030 10.25378
55.035 10.528481
55.040 10.765683
55.045 10.84582
55.050 10.607062
55.055 10.236422
55.060 9.729032
55.065 9.556328
55.070 9.60353
55.075 9.035461
55.080 9.043465
55.085 9.270559
55.090 9.444416
55.095 9.573675
55.100 9.257107
55.105 9.470337
55.110 9.948568
55.115 10.216514
55.120 9.906536
55.125 9.80094
55.130 9.62956
55.135 9.631866
55.140 9.30512
55.145 9.128248
55.150 8.992708
55.155 9.258915
55.160 9.318302
55.165 9.582903
55.170 9.937724
55.175 10.211596
55.180 10.098085
55.185 10.093184
55.190 9.876963
55.195 10.019284
55.200 10.033822
55.205 9.943232
55.210 9.95207
55.215 10.16595
55.220 9.989505
55.225 9.946748
55.230 9.98631
55.235 10.038423
55.240 10.038372
55.245 9.882496
55.250 9.843113
55.255 9.97242
55.260 10.194532
55.265 10.448254
55.270 10.407802
55.275 10.621752
55.280 10.352317
55.285 9.980625
55.290 9.582186
55.295 9.340139
55.300 9.162819
55.305 9.78552
55.310 9.934727
55.315 10.190849
55.320 10.554353
55.325 10.980117
55.330 11.272913
55.335 11.275071
55.340 10.827846
55.345 10.347884
55.350 9.774601
55.355 9.7353
55.360 9.426074
55.365 9.286353
55.370 9.435556
55.375 9.38711
55.380 9.699154
55.385 9.803608
55.390 9.87805
55.395 9.660571
55.400 9.46319
55.405 9.446536
55.410 9.640463
55.415 9.790959
55.420 10.225842
55.425 10.779641
55.430 11.388149
55.435 11.214009
55.440 10.514794
55.445 10.18003
55.450 10.127835
55.455 9.776571
55.460 9.193661
55.465 8.625342
55.470 8.71055
55.475 8.860662
55.480 8.539021
55.485 8.507754
55.490 8.766845
55.495 9.167512
55.500 9.463916
55.505 9.632926
55.510 10.227786
55.515 10.835969
55.520 10.85268
55.525 10.574555
55.530 10.045086
55.535 10.730412
55.540 11.076545
55.545 11.180831
55.550 11.461084
55.555 11.395374
55.560 11.576898
55.565 11.676526
55.570 11.280536
55.575 10.979717
55.580 10.759093
55.585 10.754059
55.590 10.648275
55.595 10.510632
55.600 10.91389
55.605 10.861428
55.610 11.229464
55.615 11.045023
55.620 11.007842
55.625 11.306411
55.630 11.68174
55.635 11.46491
55.640 11.025607
55.645 11.247909
55.650 11.227605
55.655 11.112294
55.660 10.9264
55.665 10.614944
55.670 10.263451
55.675 10.500285
55.680 10.013179
55.685 10.373908
55.690 10.454934
55.695 10.262216
55.700 9.864515
55.705 9.938969
55.710 9.944868
55.715 10.178117
55.720 9.836847
55.725 9.838263
55.730 9.929229
55.735 10.799923
55.740 11.161297
55.745 10.913256
55.750 10.874334
55.755 10.554916
55.760 10.530287
55.765 10.769712
55.770 11.090775
55.775 10.666039
55.780 10.677941
55.785 10.37332
55.790 10.58471
55.795 10.197423
55.800 9.826515
55.805 8.888939
55.810 8.834235
55.815 8.945783
55.820 9.18859
55.825 9.340591
55.830 10.13219
55.835 10.404233
55.840 11.02862
55.845 11.154605
55.850 10.933506
55.855 10.734347
55.860 10.471459
55.865 10.119458
55.870 10.024923
55.875 9.898684
55.880 10.05752
55.885 10.362184
55.890 10.291965
55.895 10.023561
55.900 9.72814
55.905 9.731044
55.910 9.624229
55.915 9.672721
55.920 9.769491
55.925 9.801905
55.930 10.380157
55.935 10.629786
55.940 10.670194
55.945 11.117918
55.950 11.010182
55.955 10.838078
55.960 10.867324
55.965 10.457963
55.970 10.833072
55.975 10.106649
55.980 9.633624
55.985 9.882143
55.990 9.907872
55.995 10.222232
56.000 10.196004
56.005 9.996628
56.010 10.397958
56.015 10.586325
56.020 10.450518
56.025 10.588036
56.030 10.378074
56.035 10.496163
56.040 10.529486
56.045 11.160794
56.050 11.28629
56.055 11.278489
56.060 11.488975
56.065 11.759495
56.070 11.807251
56.075 11.721264
56.080 11.230497
56.085 11.634316
56.090 11.912
56.095 11.33636
56.100 11.135027
56.105 11.14472
56.110 10.956775
56.115 10.768733
56.120 10.34174
56.125 9.951479
56.130 10.180712
56.135 10.092404
56.140 9.885123
56.145 10.212919
56.150 10.345308
56.155 10.581537
56.160 11.306985
56.165 11.898266
56.170 12.466887
56.175 12.767952
56.180 12.997694
56.185 12.673005
56.190 12.69937
56.195 12.162202
56.200 11.737568
56.205 11.503421
56.210 11.565833
56.215 11.237736
56.220 11.549074
56.225 11.590932
56.230 11.49695
56.235 11.599999
56.240 11.442218
56.245 11.28346
56.250 11.064736
56.255 11.100513
56.260 11.218266
56.265 10.912831
56.270 10.662779
56.275 10.431945
56.280 10.211305
56.285 10.157849
56.290 9.531833
56.295 9.200912
56.300 9.63228
56.305 9.890733
56.310 10.242875
56.315 10.549662
56.320 10.58711
56.325 11.330446
56.330 11.454341
56.335 11.646164
56.340 11.634695
56.345 11.568537
56.350 11.548043
56.355 11.414858
56.360 11.406316
56.365 11.693493
56.370 11.009543
56.375 10.719271
56.380 10.525521
56.385 10.766905
56.390 10.874694
56.395 10.276231
56.400 9.967078
56.405 9.893915
56.410 9.86709
56.415 10.056829
56.420 9.972546
56.425 9.89041
56.430 10.00604
56.435 10.031515
56.440 10.413623
56.445 10.539165
56.450 10.883904
56.455 11.680613
56.460 11.988195
56.465 11.519865
56.470 11.388445
56.475 11.590131
56.480 11.795061
56.485 11.452929
56.490 10.806519
56.495 10.821072
56.500 11.232344
56.505 11.014997
56.510 10.693472
56.515 10.918432
56.520 10.860599
56.525 11.242542
56.530 11.285823
56.535 11.529988
56.540 12.105004
56.545 12.360508
56.550 11.98149
56.555 11.686988
56.560 10.969522
56.565 10.957464
56.570 10.947426
56.575 10.525471
56.580 10.518524
56.585 10.900798
56.590 11.087915
56.595 11.220074
56.600 10.665469
56.605 10.735469
56.610 11.180074
56.615 10.933929
56.620 11.002433
56.625 11.215449
56.630 11.741055
56.635 12.546756
56.640 12.502054
56.645 12.145595
56.650 12.332556
56.655 11.815019
56.660 11.402005
56.665 10.870264
56.670 10.319663
56.675 10.637603
56.680 10.908554
56.685 10.725911
56.690 11.111894
56.695 11.335672
56.700 11.24486
56.705 11.314544
56.710 11.04897
56.715 10.851431
56.720 10.697519
56.725 10.933142
56.730 11.546235
56.735 12.034657
56.740 12.492223
56.745 12.56069
56.750 12.905829
56.755 12.788181
56.760 12.242455
56.765 12.369791
56.770 12.134593
56.775 11.29534
56.780 11.389315
56.785 11.05897
56.790 11.234466
56.795 11.280205
56.800 10.980371
56.805 11.124955
56.810 11.521704
56.815 11.451286
56.820 11.636764
56.825 11.881233
56.830 11.651592
56.835 11.729897
56.840 12.224005
56.845 12.213458
56.850 12.377494
56.855 12.223767
56.860 12.260842
56.865 12.521048
56.870 12.771629
56.875 12.551435
56.880 13.011761
56.885 12.855786
56.890 12.681492
56.895 12.847758
56.900 12.840174
56.905 12.018493
56.910 11.973522
56.915 11.7394
56.920 11.924902
56.925 12.115036
56.930 11.820161
56.935 12.328624
56.940 12.551784
56.945 12.318926
56.950 12.051996
56.955 12.182504
56.960 11.942972
56.965 11.654408
56.970 11.179266
56.975 12.250031
56.980 12.371845
56.985 12.468648
56.990 12.461979
56.995 12.958054
57.000 13.3248
57.005 13.380635
57.010 12.694661
57.015 12.712382
57.020 12.608638
57.025 12.296845
57.030 12.152453
57.035 12.037479
57.040 11.479145
57.045 11.073526
57.050 11.324235
57.055 11.552159
57.060 11.585431
57.065 11.53099
57.070 11.803251
57.075 12.556189
57.080 12.497717
57.085 12.393826
57.090 12.222413
57.095 11.997149
57.100 11.748544
57.105 12.14814
57.110 12.003033
57.115 12.19121
57.120 12.03249
57.125 12.258317
57.130 12.311682
57.135 12.027411
57.140 11.518086
57.145 11.691942
57.150 11.78951
57.155 11.678471
57.160 11.669225
57.165 11.801911
57.170 11.765931
57.175 11.565589
57.180 11.198004
57.185 11.059746
57.190 10.556298
57.195 10.701436
57.200 10.786628
57.205 10.818305
57.210 11.313791
57.215 11.235366
57.220 11.426702
57.225 11.722178
57.230 11.6257
57.235 12.071603
57.240 12.250279
57.245 12.167383
57.250 12.702762
57.255 12.928242
57.260 13.156605
57.265 13.397686
57.270 12.8148
57.275 12.568078
57.280 12.085635
57.285 11.720669
57.290 11.579215
57.295 11.643029
57.300 12.069952
57.305 12.221476
57.310 12.050844
57.315 12.613268
57.320 13.117122
57.325 13.334736
57.330 13.331846
57.335 12.760504
57.340 12.804364
57.345 13.266086
57.350 12.73877
57.355 12.197814
57.360 11.980282
57.365 11.818192
57.370 11.786716
57.375 12.118984
57.380 11.785565
57.385 11.800262
57.390 11.785912
57.395 12.070434
57.400 12.594854
57.405 12.509943
57.410 12.271736
57.415 12.218616
57.420 12.100249
57.425 12.198469
57.430 12.055934
57.435 11.78363
57.440 11.485497
57.445 11.363122
57.450 11.632631
57.455 11.886586
57.460 12.243113
57.465 11.83232
57.470 11.263412
57.475 11.476778
57.480 11.426258
57.485 11.425369
57.490 11.451373
57.495 10.970131
57.500 11.496947
57.505 12.365089
57.510 12.27702
57.515 11.902191
57.520 11.993254
57.525 12.366241
57.530 12.615728
57.535 12.370308
57.540 11.953621
57.545 12.454808
57.550 13.049841
57.555 13.024381
57.560 12.790374
57.565 13.034066
57.570 13.354927
57.575 13.33984
57.580 13.10236
57.585 13.376357
57.590 13.227669
57.595 13.019639
57.600 12.778358
57.605 12.539857
57.610 12.318046
57.615 12.183727
57.620 11.853921
57.625 11.705877
57.630 11.368652
57.635 11.06353
57.640 11.146568
57.645 11.483352
57.650 11.587273
57.655 11.439649
57.660 11.613191
57.665 11.794279
57.670 12.300098
57.675 12.420708
57.680 12.53591
57.685 12.814577
57.690 12.889426
57.695 12.872185
57.700 13.092594
57.705 12.41821
57.710 12.435752
57.715 12.069709
57.720 11.930604
57.725 12.073263
57.730 11.969707
57.735 12.076167
57.740 12.671102
57.745 12.608301
57.750 12.366612
57.755 12.569361
57.760 12.421633
57.765 12.6114
57.770 12.746122
57.775 12.337454
57.780 12.391898
57.785 12.673458
57.790 12.595017
57.795 12.406493
57.800 11.915715
57.805 11.778866
57.810 12.184433
57.815 12.589655
57.820 12.592763
57.825 12.82624
57.830 12.951567
57.835 13.210279
57.840 13.335265
57.845 13.28116
57.850 12.833154
57.855 13.189483
57.860 13.34031
57.865 13.708141
57.870 13.557918
57.875 13.364666
57.880 13.46524
57.885 13.293368
57.890 12.774637
57.895 12.148581
57.900 11.783262
57.905 11.932238
57.910 12.34669
57.915 12.775694
57.920 13.330747
57.925 13.353818
57.930 13.45266
57.935 13.335216
57.940 13.299668
57.945 12.714574
57.950 12.568089
57.955 12.420714
57.960 12.575329
57.965 12.369738
57.970 12.452532
57.975 12.356833
57.980 12.55141
57.985 12.418836
57.990 12.2984
57.995 12.28171
58.000 12.545805
58.005 12.488193
58.010 12.389547
58.015 12.345557
58.020 12.645711
58.025 13.174116
58.030 13.554398
58.035 13.889854
58.040 14.560693
58.045 14.527995
58.050 14.54757
58.055 14.281625
58.060 14.024827
58.065 13.811275
58.070 13.340834
58.075 13.566791
58.080 13.935111
58.085 13.755492
58.090 13.556141
58.095 13.767344
58.100 14.470769
58.105 15.106822
58.110 14.950981
58.115 15.639348
58.120 16.157492
58.125 16.512482
58.130 16.537981
58.135 16.24452
58.140 16.748663
58.145 16.967997
58.150 16.497677
58.155 16.671503
58.160 16.072145
58.165 15.76972
58.170 15.621653
58.175 14.862446
58.180 14.719895
58.185 14.752019
58.190 14.3139
58.195 14.507355
58.200 14.906122
58.205 14.857604
58.210 15.064762
58.215 15.157124
58.220 15.714174
58.225 16.15135
58.230 16.717728
58.235 17.129347
58.240 17.114397
58.245 17.446831
58.250 17.724709
58.255 17.567152
58.260 17.133068
58.265 16.714607
58.270 16.657814
58.275 17.218136
58.280 17.03826
58.285 16.451265
58.290 16.854076
58.295 17.583666
58.300 17.601578
58.305 17.925299
58.310 17.82708
58.315 18.207054
58.320 18.623512
58.325 18.742321
58.330 18.650059
58.335 18.98468
58.340 19.396955
58.345 19.939974
58.350 20.084429
58.355 20.412874
58.360 20.111137
58.365 20.45203
58.370 20.853933
58.375 20.641256
58.380 19.671005
58.385 19.760206
58.390 20.321058
58.395 20.853703
58.400 20.884624
58.405 20.141907
58.410 20.503384
58.415 21.757439
58.420 22.088356
58.425 21.822165
58.430 21.486399
58.435 21.54274
58.440 21.937838
58.445 21.63707
58.450 20.755892
58.455 20.365669
58.460 20.211117
58.465 20.119488
58.470 19.669804
58.475 19.224012
58.480 18.665424
58.485 19.123325
58.490 19.997778
58.495 20.08604
58.500 20.871881
58.505 21.513313
58.510 22.372049
58.515 23.088043
58.520 22.653929
58.525 21.877214
58.530 21.60483
58.535 21.054056
58.540 21.134115
58.545 21.066099
58.550 21.296213
58.555 21.616772
58.560 22.200621
58.565 22.220655
58.570 22.011349
58.575 21.892925
