!@!!GADDS PLOTSO FILE: Chi integration type
!@!!Title/SampleName: map-50
!@!!Comment: ?
!@!!User: Bruker Instrument Administrator
!@!!Site: University of Illinois Chicago
!@!!Frame: map-50_01_000.gfrm
!@!!Wavelengths    1.54184   1.54056   1.54439
!@!!Frame angles: 2Theta: 63.000 Omega: 50.000 Phi: 0.000 Chi: 90.000
!@!!Integration range: 2Theta: 53.000 to 73.000  Gamma: -105.000 to -75.000
!@!!Integration method: bin normalized
!@!N
!@!SS
!@!M
!@!L 0.0 0.0 0.0 0.0
!@!XDegrees
!@!YCounts
53.000 11.543748
53.005 12.015261
53.010 12.166221
53.015 11.432867
53.020 11.082185
53.025 11.298332
53.030 11.147477
53.035 10.428079
53.040 9.93597
53.045 10.447828
53.050 10.850348
53.055 10.898603
53.060 10.608137
53.065 10.71855
53.070 11.212162
53.075 11.447845
53.080 11.057581
53.085 10.924153
53.090 10.871093
53.095 10.815002
53.100 10.765553
53.105 10.697705
53.110 10.626698
53.115 10.152434
53.120 10.26496
53.125 10.13447
53.130 10.189429
53.135 10.416929
53.140 10.20164
53.145 10.39256
53.150 10.773184
53.155 10.731983
53.160 11.123384
53.165 11.182943
53.170 11.090402
53.175 10.981045
53.180 10.881261
53.185 10.939398
53.190 10.746986
53.195 10.67668
53.200 10.529083
53.205 10.329954
53.210 10.201329
53.215 10.005625
53.220 10.098791
53.225 10.21644
53.230 10.401679
53.235 10.555489
53.240 10.526337
53.245 11.010757
53.250 11.274652
53.255 11.277567
53.260 10.720245
53.265 10.786274
53.270 11.389414
53.275 11.772251
53.280 11.523108
53.285 11.030272
53.290 11.019677
53.295 11.092114
53.300 10.511429
53.305 10.11706
53.310 10.271276
53.315 10.528381
53.320 10.934229
53.325 11.172915
53.330 11.240002
53.335 11.445027
53.340 11.330209
53.345 10.980597
53.350 10.765274
53.355 10.661841
53.360 10.692456
53.365 11.07619
53.370 11.085717
53.375 11.195142
53.380 11.235824
53.385 11.107552
53.390 11.453289
53.395 11.50112
53.400 11.115849
53.405 10.919869
53.410 10.997179
53.415 11.185858
53.420 11.387362
53.425 11.358009
53.430 11.891483
53.435 12.147956
53.440 12.236074
53.445 12.059443
53.450 11.567875
53.455 11.241747
53.460 11.295478
53.465 10.856588
53.470 10.569848
53.475 10.726974
53.480 10.646108
53.485 10.931124
53.490 10.739895
53.495 10.485929
53.500 10.490514
53.505 10.618847
53.510 10.353687
53.515 9.916195
53.520 9.991972
53.525 10.254945
53.530 9.857719
53.535 10.036012
53.540 10.236219
53.545 10.63866
53.550 10.947758
53.555 10.70019
53.560 10.897511
53.565 11.430591
53.570 11.311143
53.575 11.11246
53.580 11.348001
53.585 11.304656
53.590 11.837346
53.595 11.661969
53.600 11.751739
53.605 11.800749
53.610 11.619759
53.615 11.771354
53.620 11.901205
53.625 11.25354
53.630 10.90937
53.635 11.039113
53.640 11.261717
53.645 11.102962
53.650 11.123115
53.655 10.339976
53.660 10.4288
53.665 10.754986
53.670 10.353003
53.675 10.125582
53.680 10.053497
53.685 10.155776
53.690 10.712241
53.695 10.902056
53.700 11.110939
53.705 11.758142
53.710 12.071599
53.715 12.440054
53.720 12.361123
53.725 12.097631
53.730 12.195148
53.735 11.654363
53.740 11.511456
53.745 11.392385
53.750 10.943296
53.755 10.768237
53.760 10.542433
53.765 10.388812
53.770 10.2969
53.775 10.41313
53.780 10.573303
53.785 11.181128
53.790 11.760089
53.795 11.720024
53.800 11.306005
53.805 11.361156
53.810 11.561766
53.815 11.50629
53.820 10.898053
53.825 10.457557
53.830 10.792974
53.835 10.939919
53.840 10.907676
53.845 10.398997
53.850 10.463467
53.855 11.1573
53.860 11.998359
53.865 12.070066
53.870 11.892854
53.875 12.110144
53.880 12.649343
53.885 12.626672
53.890 12.474751
53.895 12.021688
53.900 11.8539
53.905 11.978903
53.910 11.678268
53.915 11.58704
53.920 11.529332
53.925 11.153815
53.930 11.163679
53.935 11.333449
53.940 11.393838
53.945 11.625893
53.950 10.88931
53.955 10.765727
53.960 10.882992
53.965 11.136187
53.970 11.342733
53.975 11.122303
53.980 10.997407
53.985 11.527621
53.990 11.8901
53.995 11.845579
54.000 11.605289
54.005 11.704267
54.010 11.842233
54.015 11.656996
54.020 11.61937
54.025 11.686292
54.030 11.578333
54.035 11.962296
54.040 12.602715
54.045 12.868979
54.050 13.197401
54.055 12.909225
54.060 12.953887
54.065 12.89349
54.070 12.138225
54.075 11.38647
54.080 11.392981
54.085 11.557734
54.090 11.311828
54.095 11.127712
54.100 10.993267
54.105 11.219169
54.110 11.552716
54.115 11.430824
54.120 11.316311
54.125 11.826982
54.130 12.000381
54.135 12.426424
54.140 12.332572
54.145 11.682261
54.150 11.583964
54.155 11.643674
54.160 11.863086
54.165 12.394446
54.170 12.453344
54.175 12.410786
54.180 12.525954
54.185 12.935631
54.190 12.543646
54.195 12.189725
54.200 12.136107
54.205 12.041619
54.210 12.089489
54.215 12.20805
54.220 12.024527
54.225 12.542377
54.230 12.846041
54.235 13.223421
54.240 13.414417
54.245 13.7473
54.250 13.829215
54.255 13.82806
54.260 13.688857
54.265 13.308514
54.270 12.527802
54.275 12.201159
54.280 11.367931
54.285 11.246547
54.290 11.270396
54.295 10.980688
54.300 11.013379
54.305 11.338527
54.310 11.645656
54.315 12.272419
54.320 12.022684
54.325 12.480501
54.330 12.682323
54.335 12.812699
54.340 12.626433
54.345 12.53611
54.350 12.779467
54.355 12.541708
54.360 12.054107
54.365 11.861402
54.370 11.721619
54.375 11.678661
54.380 11.630041
54.385 11.299652
54.390 11.59226
54.395 11.669718
54.400 11.690506
54.405 11.727868
54.410 11.636272
54.415 11.737235
54.420 11.977859
54.425 11.837051
54.430 11.92567
54.435 12.02907
54.440 11.991349
54.445 12.72532
54.450 12.647552
54.455 12.390593
54.460 12.264514
54.465 12.222688
54.470 12.471125
54.475 12.213221
54.480 11.938553
54.485 11.9817
54.490 12.363242
54.495 12.803486
54.500 12.728181
54.505 12.630263
54.510 12.440967
54.515 12.276602
54.520 12.312046
54.525 12.689419
54.530 12.467534
54.535 12.437423
54.540 12.739768
54.545 12.629736
54.550 12.405929
54.555 12.210489
54.560 11.875109
54.565 12.200087
54.570 12.028022
54.575 11.412534
54.580 11.493836
54.585 11.9768
54.590 11.791368
54.595 11.537512
54.600 11.176109
54.605 11.767045
54.610 12.438836
54.615 12.35966
54.620 12.456212
54.625 12.202251
54.630 12.027905
54.635 11.877751
54.640 11.308132
54.645 11.001
54.650 10.629387
54.655 10.077376
54.660 10.360788
54.665 10.63797
54.670 10.999603
54.675 10.621241
54.680 11.079031
54.685 11.672101
54.690 12.029602
54.695 11.841706
54.700 11.800551
54.705 12.155852
54.710 12.508616
54.715 12.319357
54.720 12.057465
54.725 11.970518
54.730 11.844827
54.735 11.575934
54.740 11.532757
54.745 11.573487
54.750 11.625684
54.755 11.68259
54.760 11.918925
54.765 12.064318
54.770 12.546021
54.775 12.747543
54.780 13.002152
54.785 13.040745
54.790 13.200896
54.795 13.496373
54.800 13.31486
54.805 13.202987
54.810 12.563623
54.815 12.224174
54.820 12.190587
54.825 11.660025
54.830 11.692898
54.835 11.671719
54.840 11.927062
54.845 12.532315
54.850 12.767175
54.855 13.349799
54.860 13.666391
54.865 13.616289
54.870 13.481552
54.875 13.271437
54.880 12.864219
54.885 12.197477
54.890 11.630957
54.895 11.41489
54.900 11.419342
54.905 11.692862
54.910 12.084591
54.915 12.629787
54.920 13.003939
54.925 13.030447
54.930 13.016073
54.935 12.694105
54.940 12.328576
54.945 11.987535
54.950 12.028938
54.955 12.251036
54.960 12.164688
54.965 12.083865
54.970 12.136422
54.975 12.244649
54.980 12.589154
54.985 12.640919
54.990 12.862737
54.995 12.695292
55.000 12.893674
55.005 13.40003
55.010 12.940108
55.015 12.196498
55.020 11.532537
55.025 11.658723
55.030 12.029475
55.035 11.720882
55.040 11.443692
55.045 11.80981
55.050 12.249342
55.055 12.374357
55.060 12.415522
55.065 12.12896
55.070 12.029355
55.075 12.00093
55.080 12.010769
55.085 12.210793
55.090 12.356024
55.095 12.49758
55.100 13.122575
55.105 13.546174
55.110 13.519911
55.115 13.752841
55.120 13.388778
55.125 13.028337
55.130 12.660814
55.135 12.106694
55.140 11.908189
55.145 11.644667
55.150 11.450573
55.155 11.874266
55.160 11.846361
55.165 12.031328
55.170 12.236359
55.175 12.283778
55.180 12.631459
55.185 12.759498
55.190 13.074641
55.195 14.028272
55.200 13.863707
55.205 13.783731
55.210 14.258251
55.215 14.378109
55.220 13.503767
55.225 12.94311
55.230 12.622719
55.235 13.17837
55.240 13.230629
55.245 12.761509
55.250 12.611533
55.255 13.234143
55.260 13.273114
55.265 13.171367
55.270 13.078928
55.275 13.479929
55.280 13.487493
55.285 13.205727
55.290 13.20219
55.295 13.479573
55.300 13.144341
55.305 12.742084
55.310 13.049406
55.315 13.141542
55.320 13.267733
55.325 12.994751
55.330 12.424903
55.335 12.442836
55.340 11.931614
55.345 11.434555
55.350 11.638126
55.355 11.47557
55.360 11.671825
55.365 12.157992
55.370 12.236958
55.375 12.656652
55.380 12.383389
55.385 12.444364
55.390 12.920642
55.395 13.042616
55.400 12.756819
55.405 12.606716
55.410 12.685056
55.415 12.91469
55.420 13.271556
55.425 13.717661
55.430 13.655107
55.435 14.054295
55.440 14.340542
55.445 14.599215
55.450 14.785461
55.455 14.202952
55.460 14.109618
55.465 14.675435
55.470 14.769491
55.475 14.833945
55.480 14.456689
55.485 14.513074
55.490 14.794921
55.495 14.35388
55.500 14.15084
55.505 14.138606
55.510 14.05356
55.515 14.044855
55.520 13.871445
55.525 13.776067
55.530 13.872626
55.535 13.679416
55.540 13.539899
55.545 13.394814
55.550 13.511033
55.555 13.363079
55.560 13.229242
55.565 13.064721
55.570 12.727053
55.575 12.796243
55.580 12.926404
55.585 12.647038
55.590 12.84666
55.595 12.297162
55.600 12.175117
55.605 11.982668
55.610 11.91374
55.615 11.758302
55.620 11.68959
55.625 12.036895
55.630 12.539078
55.635 12.843984
55.640 13.257414
55.645 13.55291
55.650 13.783823
55.655 14.367372
55.660 13.954312
55.665 13.645681
55.670 13.558469
55.675 13.30181
55.680 13.139926
55.685 12.809243
55.690 12.041362
55.695 12.275187
55.700 13.100012
55.705 13.283999
55.710 13.476617
55.715 13.548941
55.720 13.696265
55.725 13.687716
55.730 13.574817
55.735 13.401096
55.740 13.477878
55.745 13.317949
55.750 13.031021
55.755 13.568039
55.760 13.776036
55.765 14.172904
55.770 14.735529
55.775 14.866302
55.780 15.487137
55.785 15.714587
55.790 15.374158
55.795 15.744613
55.800 15.27283
55.805 14.590747
55.810 14.413347
55.815 14.568881
55.820 14.965036
55.825 14.720983
55.830 14.124574
55.835 14.008334
55.840 14.546207
55.845 14.327817
55.850 14.085305
55.855 13.520521
55.860 13.455705
55.865 13.794044
55.870 13.829528
55.875 14.462063
55.880 15.134219
55.885 15.254833
55.890 15.700793
55.895 15.735628
55.900 15.570525
55.905 15.103318
55.910 14.445036
55.915 13.749279
55.920 13.325287
55.925 13.053475
55.930 13.078917
55.935 13.053674
55.940 13.256942
55.945 13.090219
55.950 13.620728
55.955 14.064049
55.960 14.086537
55.965 14.301266
55.970 14.32563
55.975 14.133304
55.980 14.185286
55.985 13.662527
55.990 13.385068
55.995 13.703637
56.000 13.827382
56.005 14.201822
56.010 14.775722
56.015 14.715801
56.020 14.714115
56.025 14.590732
56.030 14.397922
56.035 14.391518
56.040 14.026135
56.045 13.447373
56.050 13.665372
56.055 14.208461
56.060 14.833184
56.065 15.20847
56.070 14.768866
56.075 14.609277
56.080 14.553756
56.085 14.058752
56.090 13.561959
56.095 13.238198
56.100 12.909314
56.105 13.311578
56.110 13.776219
56.115 14.082997
56.120 14.634911
56.125 14.833366
56.130 14.447572
56.135 14.470901
56.140 14.254765
56.145 13.807871
56.150 13.573576
56.155 13.54341
56.160 13.47343
56.165 13.839888
56.170 13.932193
56.175 14.083113
56.180 13.90498
56.185 13.54631
56.190 13.381081
56.195 13.407022
56.200 12.773602
56.205 12.717864
56.210 12.762202
56.215 12.811741
56.220 12.879061
56.225 12.71575
56.230 13.001721
56.235 13.723926
56.240 13.565171
56.245 13.60607
56.250 13.64021
56.255 13.281641
56.260 13.381045
56.265 13.307869
56.270 13.043878
56.275 13.042366
56.280 12.95189
56.285 13.756076
56.290 13.940742
56.295 13.886148
56.300 13.659061
56.305 13.759247
56.310 14.105369
56.315 14.127085
56.320 13.298417
56.325 13.027162
56.330 12.876921
56.335 12.840912
56.340 12.671537
56.345 12.651567
56.350 13.294047
56.355 14.308969
56.360 14.771312
56.365 15.097023
56.370 15.404144
56.375 15.465771
56.380 15.05563
56.385 14.536254
56.390 14.467772
56.395 14.370604
56.400 14.311079
56.405 14.467123
56.410 14.531568
56.415 14.468117
56.420 13.828969
56.425 13.838015
56.430 13.975508
56.435 14.068717
56.440 13.648566
56.445 13.151334
56.450 13.169742
56.455 13.454402
56.460 13.282885
56.465 13.010732
56.470 12.777101
56.475 13.167282
56.480 13.19643
56.485 13.348922
56.490 14.249288
56.495 14.013753
56.500 13.92745
56.505 13.950275
56.510 13.637404
56.515 13.481644
56.520 13.369466
56.525 13.188991
56.530 12.911109
56.535 12.640921
56.540 12.209061
56.545 12.278831
56.550 12.320988
56.555 11.791285
56.560 11.274002
56.565 11.792563
56.570 12.127996
56.575 12.769335
56.580 13.232784
56.585 13.292728
56.590 13.052931
56.595 13.760683
56.600 13.858991
56.605 13.967174
56.610 13.584496
56.615 13.889939
56.620 13.832326
56.625 14.053072
56.630 13.8433
56.635 13.927654
56.640 14.278798
56.645 13.849889
56.650 14.082486
56.655 14.880137
56.660 15.485847
56.665 15.634729
56.670 15.241374
56.675 15.39037
56.680 15.948186
56.685 15.669766
56.690 15.619663
56.695 15.352854
56.700 15.759794
56.705 16.219641
56.710 15.978768
56.715 15.693104
56.720 15.51965
56.725 15.467599
56.730 15.161804
56.735 14.45278
56.740 13.746683
56.745 13.972966
56.750 13.7199
56.755 13.727477
56.760 13.336571
56.765 13.208445
56.770 13.258049
56.775 13.208492
56.780 13.27313
56.785 13.68922
56.790 14.335006
56.795 14.669974
56.800 14.888647
56.805 15.418504
56.810 15.471766
56.815 15.683641
56.820 15.699815
56.825 15.340286
56.830 15.365849
56.835 15.515503
56.840 15.282483
56.845 15.137566
56.850 14.586376
56.855 14.699353
56.860 14.859685
56.865 15.207362
56.870 15.16
56.875 14.637957
56.880 14.745652
56.885 14.983666
56.890 14.341114
56.895 14.056164
56.900 13.401128
56.905 13.500118
56.910 14.101799
56.915 13.511273
56.920 13.25891
56.925 13.22262
56.930 13.198869
56.935 13.265514
56.940 13.354698
56.945 13.420357
56.950 13.614802
56.955 13.55799
56.960 14.037046
56.965 13.950014
56.970 13.903785
56.975 14.465788
56.980 14.750511
56.985 14.876351
56.990 14.994904
56.995 15.300512
57.000 15.778952
57.005 16.078703
57.010 15.369367
57.015 15.588417
57.020 15.780663
57.025 15.843809
57.030 15.4781
57.035 15.322204
57.040 14.445683
57.045 14.36089
57.050 14.455757
57.055 14.213506
57.060 14.12545
57.065 13.809566
57.070 14.26494
57.075 15.320516
57.080 15.409389
57.085 15.242122
57.090 15.793736
57.095 15.785542
57.100 15.963318
57.105 15.354925
57.110 15.493298
57.115 15.204658
57.120 15.641216
57.125 15.592849
57.130 15.822165
57.135 16.186031
57.140 16.967731
57.145 17.073154
57.150 17.19903
57.155 16.485786
57.160 16.011364
57.165 15.676226
57.170 15.516169
57.175 14.875925
57.180 14.586826
57.185 14.705686
57.190 15.211043
57.195 15.618442
57.200 15.848041
57.205 15.789921
57.210 15.822615
57.215 15.835455
57.220 15.630362
57.225 15.668848
57.230 15.429822
57.235 15.14278
57.240 15.157342
57.245 14.992953
57.250 15.13341
57.255 15.256115
57.260 15.349625
57.265 15.886687
57.270 16.124073
57.275 16.074869
57.280 16.03154
57.285 16.180359
57.290 15.841471
57.295 15.304479
57.300 15.523242
57.305 15.222414
57.310 15.385159
57.315 15.765535
57.320 16.044807
57.325 16.230301
57.330 16.091124
57.335 15.852248
57.340 15.714565
57.345 15.305502
57.350 14.897236
57.355 14.28643
57.360 14.440576
57.365 14.623518
57.370 14.784546
57.375 14.971937
57.380 15.082894
57.385 15.043695
57.390 15.282297
57.395 15.457062
57.400 15.746784
57.405 15.981085
57.410 16.418367
57.415 16.214838
57.420 15.806499
57.425 15.530863
57.430 15.286995
57.435 14.752212
57.440 14.239268
57.445 14.209251
57.450 14.432293
57.455 15.079894
57.460 15.222903
57.465 14.984447
57.470 15.391232
57.475 15.68383
57.480 15.854053
57.485 15.753201
57.490 15.360408
57.495 15.364047
57.500 15.736171
57.505 15.268274
57.510 15.084128
57.515 15.090893
57.520 16.177921
57.525 17.041134
57.530 16.993921
57.535 16.774658
57.540 16.626722
57.545 16.220018
57.550 16.064013
57.555 16.114388
57.560 15.605323
57.565 16.353512
57.570 16.929976
57.575 17.014851
57.580 17.130224
57.585 17.296192
57.590 17.334097
57.595 17.311914
57.600 17.000122
57.605 17.00161
57.610 18.106695
57.615 18.441261
57.620 18.336506
57.625 17.412268
57.630 17.131477
57.635 16.795395
57.640 16.816362
57.645 16.515594
57.650 16.140295
57.655 15.664842
57.660 15.676243
57.665 15.56321
57.670 15.782811
57.675 15.756474
57.680 16.043455
57.685 16.471222
57.690 16.385065
57.695 16.386911
57.700 16.570019
57.705 16.460718
57.710 16.347197
57.715 16.451565
57.720 16.78373
57.725 17.191193
57.730 17.251961
57.735 16.956572
57.740 16.555542
57.745 16.237665
57.750 16.081505
57.755 16.097738
57.760 16.175436
57.765 16.915064
57.770 17.038473
57.775 17.199068
57.780 17.472628
57.785 17.501862
57.790 17.534185
57.795 17.603569
57.800 17.48259
57.805 17.75984
57.810 17.499422
57.815 17.166067
57.820 16.97554
57.825 16.838882
57.830 16.649
57.835 16.176987
57.840 16.349155
57.845 16.554106
57.850 17.041443
57.855 16.824474
57.860 17.029104
57.865 17.068132
57.870 17.246969
57.875 17.29351
57.880 17.461042
57.885 16.997789
57.890 16.803337
57.895 16.744209
57.900 17.404629
57.905 17.746778
57.910 17.325039
57.915 17.258171
57.920 17.417242
57.925 17.305361
57.930 16.893669
57.935 16.144651
57.940 16.139437
57.945 16.079159
57.950 16.009418
57.955 15.926208
57.960 16.245068
57.965 16.484257
57.970 16.46368
57.975 15.872086
57.980 15.690282
57.985 15.636385
57.990 15.599649
57.995 15.598096
58.000 15.652635
58.005 16.265909
58.010 16.940413
58.015 17.341263
58.020 17.768429
58.025 17.681938
58.030 17.406073
58.035 17.319796
58.040 17.012489
58.045 16.891142
58.050 17.274107
58.055 17.273127
58.060 17.116991
58.065 17.517223
58.070 17.754911
58.075 18.3601
58.080 18.446388
58.085 18.483868
58.090 18.610544
58.095 18.989498
58.100 19.22337
58.105 19.748032
58.110 19.399818
58.115 18.929985
58.120 18.620537
58.125 18.70882
58.130 18.892178
58.135 18.328819
58.140 17.522837
58.145 18.157263
58.150 18.159906
58.155 18.213564
58.160 17.846199
58.165 18.416235
58.170 18.855501
58.175 18.650423
58.180 18.371704
58.185 18.655941
58.190 18.819178
58.195 19.410576
58.200 19.12426
58.205 19.063932
58.210 18.959362
58.215 18.619328
58.220 18.847696
58.225 18.816616
58.230 18.559595
58.235 18.699261
58.240 18.982313
58.245 19.812342
58.250 20.402576
58.255 20.038445
58.260 19.390831
58.265 18.959135
58.270 18.289114
58.275 18.057028
58.280 18.265913
58.285 19.029522
58.290 20.02854
58.295 21.150881
58.300 21.879879
58.305 22.239832
58.310 22.987349
58.315 23.014771
58.320 22.948563
58.325 23.022463
58.330 22.90439
58.335 23.556458
58.340 24.049683
58.345 24.46431
58.350 25.434233
58.355 25.085293
58.360 24.576805
58.365 24.872421
58.370 24.955091
58.375 24.866522
58.380 24.320568
58.385 23.492317
58.390 23.312477
58.395 23.129963
58.400 22.619095
58.405 22.308876
58.410 22.434467
58.415 22.572624
58.420 22.449053
58.425 23.226803
58.430 24.205946
58.435 24.615408
58.440 24.960432
58.445 25.000532
