!@!!GADDS PLOTSO FILE: Chi integration type
!@!!Title/SampleName: map-171
!@!!Comment: ?
!@!!User: Bruker Instrument Administrator
!@!!Site: University of Illinois Chicago
!@!!Frame: map-171_01_000.gfrm
!@!!Wavelengths    1.54184   1.54056   1.54439
!@!!Frame angles: 2Theta: 63.000 Omega: 50.000 Phi: 0.000 Chi: 90.000
!@!!Integration range: 2Theta: 53.000 to 73.000  Gamma: -105.000 to -75.000
!@!!Integration method: bin normalized
!@!N
!@!SS
!@!M
!@!L 0.0 0.0 0.0 0.0
!@!XDegrees
!@!YCounts
53.000 4.229452
53.005 4.292195
53.010 4.311441
53.015 4.204143
53.020 4.052428
53.025 3.586768
53.030 3.611116
53.035 3.571636
53.040 3.310585
53.045 3.283991
53.050 3.353922
53.055 3.674688
53.060 4.036013
53.065 4.154424
53.070 4.472311
53.075 4.586866
53.080 4.514576
53.085 4.341547
53.090 4.166021
53.095 4.154202
53.100 3.984979
53.105 3.817888
53.110 4.15318
53.115 4.279145
53.120 4.429151
53.125 4.361998
53.130 4.441115
53.135 4.536906
53.140 4.599996
53.145 4.46751
53.150 4.450424
53.155 4.620502
53.160 4.541251
53.165 4.345292
53.170 4.190711
53.175 4.03858
53.180 3.786424
53.185 3.581093
53.190 3.516262
53.195 3.508881
53.200 3.641032
53.205 3.95806
53.210 4.153568
53.215 4.4543
53.220 4.431147
53.225 4.520988
53.230 4.708028
53.235 4.498286
53.240 4.112204
53.245 3.954335
53.250 4.052118
53.255 4.528586
53.260 4.04718
53.265 3.787255
53.270 3.881034
53.275 3.893033
53.280 3.91972
53.285 3.822675
53.290 3.567493
53.295 3.886851
53.300 4.024107
53.305 3.995808
53.310 4.245306
53.315 4.320524
53.320 4.225311
53.325 4.314739
53.330 4.27318
53.335 4.219221
53.340 4.307122
53.345 3.936033
53.350 3.945376
53.355 4.086635
53.360 3.871139
53.365 3.913529
53.370 3.908035
53.375 3.940202
53.380 3.739542
53.385 3.541145
53.390 3.386959
53.395 3.521745
53.400 3.458963
53.405 3.620725
53.410 3.879509
53.415 4.305295
53.420 4.26392
53.425 4.256715
53.430 4.303343
53.435 4.004793
53.440 4.012354
53.445 3.693734
53.450 3.716092
53.455 3.873461
53.460 3.898674
53.465 3.781971
53.470 3.66611
53.475 3.325398
53.480 3.552691
53.485 3.401582
53.490 3.395836
53.495 3.588957
53.500 3.967448
53.505 4.521313
53.510 4.52053
53.515 4.326011
53.520 4.778699
53.525 4.690295
53.530 4.328645
53.535 3.787425
53.540 3.472857
53.545 3.761207
53.550 3.905895
53.555 3.740449
53.560 3.86375
53.565 4.072194
53.570 4.414629
53.575 4.567914
53.580 4.418257
53.585 4.297945
53.590 4.435972
53.595 4.477245
53.600 4.21766
53.605 3.832011
53.610 3.637852
53.615 3.460765
53.620 3.264393
53.625 2.894011
53.630 2.893774
53.635 2.935595
53.640 3.426731
53.645 3.663459
53.650 3.836195
53.655 3.729305
53.660 3.889333
53.665 3.937164
53.670 3.971241
53.675 3.741737
53.680 3.591929
53.685 3.469198
53.690 3.599112
53.695 3.65437
53.700 3.444509
53.705 3.268135
53.710 2.965721
53.715 2.965732
53.720 2.975098
53.725 2.996321
53.730 3.090212
53.735 3.238747
53.740 3.449759
53.745 3.619405
53.750 3.829738
53.755 4.021947
53.760 3.943135
53.765 3.713686
53.770 3.960316
53.775 4.001657
53.780 3.922802
53.785 3.743407
53.790 3.753883
53.795 4.237005
53.800 4.342937
53.805 4.080286
53.810 3.825124
53.815 3.792434
53.820 3.801059
53.825 3.802144
53.830 3.281602
53.835 3.366378
53.840 3.682646
53.845 3.990392
53.850 4.167677
53.855 4.136933
53.860 4.105391
53.865 4.226646
53.870 4.067303
53.875 3.778628
53.880 3.746894
53.885 3.458389
53.890 3.251487
53.895 3.482722
53.900 3.308342
53.905 3.507925
53.910 3.587993
53.915 3.42564
53.920 3.586011
53.925 3.629211
53.930 3.905779
53.935 4.334273
53.940 4.424329
53.945 4.348346
53.950 4.486349
53.955 4.727704
53.960 4.763441
53.965 4.564103
53.970 4.163352
53.975 4.103519
53.980 3.943674
53.985 3.778092
53.990 3.631778
53.995 3.434832
54.000 3.657956
54.005 3.925508
54.010 3.9535
54.015 4.18968
54.020 4.32569
54.025 4.50622
54.030 4.510039
54.035 4.045491
54.040 3.665114
54.045 3.79935
54.050 3.862548
54.055 3.560218
54.060 3.193949
54.065 3.017898
54.070 3.413038
54.075 3.507152
54.080 3.333405
54.085 3.411494
54.090 3.661005
54.095 3.678187
54.100 3.714729
54.105 3.856525
54.110 3.982039
54.115 3.978292
54.120 4.18369
54.125 4.229592
54.130 4.209775
54.135 3.884173
54.140 3.462405
54.145 3.562863
54.150 3.631458
54.155 3.560645
54.160 3.58617
54.165 3.668958
54.170 4.065569
54.175 4.07412
54.180 4.166436
54.185 3.909429
54.190 3.943184
54.195 4.170785
54.200 4.581527
54.205 4.464469
54.210 4.443568
54.215 4.472077
54.220 4.791271
54.225 4.805241
54.230 4.770648
54.235 4.870577
54.240 4.951427
54.245 4.810124
54.250 4.601306
54.255 4.351718
54.260 4.226233
54.265 3.893117
54.270 3.70114
54.275 3.545323
54.280 3.670922
54.285 3.82658
54.290 3.816214
54.295 3.74495
54.300 3.841624
54.305 3.814748
54.310 3.925339
54.315 3.878309
54.320 3.935177
54.325 3.906223
54.330 3.872362
54.335 3.643611
54.340 3.635617
54.345 3.550718
54.350 3.531408
54.355 3.51339
54.360 3.67359
54.365 3.790881
54.370 3.779059
54.375 3.683137
54.380 3.876405
54.385 3.739269
54.390 3.534301
54.395 3.46609
54.400 3.511908
54.405 3.421808
54.410 3.573711
54.415 3.570039
54.420 3.672154
54.425 3.603468
54.430 3.669934
54.435 3.530889
54.440 3.758222
54.445 3.622883
54.450 3.353121
54.455 3.549734
54.460 3.615805
54.465 3.667699
54.470 3.675598
54.475 3.80802
54.480 3.833669
54.485 3.853345
54.490 3.66619
54.495 3.580894
54.500 3.380853
54.505 3.348186
54.510 3.365656
54.515 3.740157
54.520 3.883111
54.525 4.036454
54.530 3.938313
54.535 3.914731
54.540 3.779396
54.545 3.521202
54.550 3.306971
54.555 3.065439
54.560 3.287661
54.565 3.553699
54.570 3.611108
54.575 3.742773
54.580 3.770098
54.585 3.838552
54.590 4.009371
54.595 3.793629
54.600 3.76569
54.605 3.541918
54.610 3.452775
54.615 3.608863
54.620 3.31675
54.625 3.150639
54.630 3.170395
54.635 3.141215
54.640 3.249582
54.645 3.32188
54.650 3.463904
54.655 3.684129
54.660 3.647941
54.665 3.47625
54.670 3.632157
54.675 3.85303
54.680 3.769692
54.685 3.621961
54.690 3.795507
54.695 4.016309
54.700 3.95792
54.705 3.851213
54.710 4.177583
54.715 4.125909
54.720 3.896103
54.725 3.614161
54.730 3.411242
54.735 3.462638
54.740 3.198066
54.745 3.020665
54.750 3.181866
54.755 3.257725
54.760 3.641006
54.765 3.623492
54.770 3.647416
54.775 3.607989
54.780 3.399475
54.785 3.3016
54.790 3.194685
54.795 3.057991
54.800 3.336692
54.805 3.496812
54.810 3.725529
54.815 3.58932
54.820 3.859012
54.825 4.213542
54.830 4.148091
54.835 4.151135
54.840 4.079156
54.845 3.840567
54.850 3.835997
54.855 3.747113
54.860 3.897411
54.865 4.19539
54.870 4.352862
54.875 4.48118
54.880 4.907734
54.885 5.112159
54.890 4.834754
54.895 4.553949
54.900 4.181657
54.905 3.935157
54.910 3.940938
54.915 3.611652
54.920 3.617638
54.925 3.465358
54.930 3.451949
54.935 3.428637
54.940 3.441664
54.945 3.297408
54.950 3.492409
54.955 3.291924
54.960 3.445259
54.965 3.530118
54.970 3.76955
54.975 3.581472
54.980 3.726359
54.985 3.680176
54.990 3.951588
54.995 4.065836
55.000 3.919646
55.005 3.93161
55.010 4.208269
55.015 4.264651
55.020 4.132963
55.025 3.877198
55.030 3.801519
55.035 3.668956
55.040 3.327508
55.045 3.320097
55.050 3.391789
55.055 3.67349
55.060 3.567362
55.065 3.380183
55.070 3.50225
55.075 3.477472
55.080 3.25697
55.085 3.321483
55.090 3.31239
55.095 3.449124
55.100 3.796652
55.105 3.896552
55.110 3.931239
55.115 3.835433
55.120 3.762851
55.125 4.216494
55.130 4.240608
55.135 4.366064
55.140 4.501365
55.145 4.841825
55.150 4.786811
55.155 4.526291
55.160 4.490288
55.165 4.74977
55.170 4.666605
55.175 4.684028
55.180 4.636506
55.185 4.723075
55.190 4.506836
55.195 4.37131
55.200 4.340765
55.205 4.261559
55.210 4.02808
55.215 3.909178
55.220 4.053469
55.225 4.090848
55.230 3.776578
55.235 3.588253
55.240 3.596101
55.245 3.8054
55.250 3.896926
55.255 4.145246
55.260 4.353508
55.265 4.693573
55.270 4.544722
55.275 4.591935
55.280 4.528749
55.285 4.354507
55.290 4.117631
55.295 3.898301
55.300 3.753747
55.305 4.016996
55.310 3.69264
55.315 3.442551
55.320 3.386504
55.325 3.522392
55.330 3.434691
55.335 3.513752
55.340 3.574646
55.345 3.703231
55.350 3.778033
55.355 3.871363
55.360 3.873304
55.365 3.925408
55.370 3.73515
55.375 3.517217
55.380 3.796255
55.385 3.785888
55.390 3.769116
55.395 3.800014
55.400 3.899096
55.405 3.908896
55.410 3.863281
55.415 3.683436
55.420 3.693506
55.425 3.549542
55.430 3.589499
55.435 3.401243
55.440 3.528266
55.445 3.812591
55.450 4.106831
55.455 4.247733
55.460 4.486636
55.465 4.41905
55.470 4.45762
55.475 4.468165
55.480 4.202617
55.485 4.132074
55.490 4.037913
55.495 3.940685
55.500 3.923193
55.505 4.107787
55.510 4.070707
55.515 3.981583
55.520 3.950704
55.525 4.006888
55.530 3.856458
55.535 3.837787
55.540 3.683381
55.545 3.734389
55.550 3.58301
55.555 3.770503
55.560 3.774722
55.565 4.205784
55.570 4.226651
55.575 4.329919
55.580 4.668432
55.585 4.611517
55.590 4.338249
55.595 4.219851
55.600 4.011245
55.605 4.006679
55.610 3.767275
55.615 3.679316
55.620 3.796017
55.625 3.81802
55.630 3.832623
55.635 3.981735
55.640 3.873282
55.645 3.771762
55.650 3.842885
55.655 3.879132
55.660 4.197492
55.665 4.291952
55.670 4.111472
55.675 4.351894
55.680 4.315402
55.685 4.1296
55.690 4.005009
55.695 3.948891
55.700 3.777347
55.705 3.845153
55.710 3.753522
55.715 4.12438
55.720 4.31886
55.725 4.462877
55.730 4.435292
55.735 4.42345
55.740 4.559516
55.745 4.525156
55.750 4.381383
55.755 4.278784
55.760 4.178753
55.765 3.96699
55.770 4.200077
55.775 4.066912
55.780 4.013927
55.785 4.145208
55.790 4.086281
55.795 4.213626
55.800 4.285716
55.805 4.133204
55.810 4.382864
55.815 4.408265
55.820 4.247302
55.825 4.244146
55.830 3.934618
55.835 4.200458
55.840 4.300764
55.845 4.626738
55.850 4.927451
55.855 4.979489
55.860 5.126184
55.865 5.319486
55.870 4.96945
55.875 5.078683
55.880 4.637666
55.885 4.473493
55.890 4.555252
55.895 4.511038
55.900 4.331415
55.905 4.320503
55.910 4.266214
55.915 4.272346
55.920 4.363724
55.925 4.245225
55.930 4.562713
55.935 4.862964
55.940 5.091032
55.945 5.216174
55.950 5.067137
55.955 4.873084
55.960 4.605436
55.965 4.205913
55.970 4.11129
55.975 3.772718
55.980 3.502442
55.985 3.796495
55.990 3.907892
55.995 4.143858
56.000 4.343136
56.005 4.120425
56.010 4.329881
56.015 4.49957
56.020 4.135282
56.025 4.203435
56.030 3.948877
56.035 3.999709
56.040 4.081211
56.045 4.352049
56.050 4.661356
56.055 4.926772
56.060 4.987164
56.065 5.109422
56.070 5.132751
56.075 4.953237
56.080 4.478149
56.085 4.422094
56.090 4.280521
56.095 4.083064
56.100 3.969123
56.105 3.862775
56.110 3.97507
56.115 4.145093
56.120 3.867294
56.125 3.756287
56.130 3.81568
56.135 3.844922
56.140 3.898741
56.145 3.73362
56.150 3.4783
56.155 3.573066
56.160 3.597767
56.165 3.623948
56.170 3.704535
56.175 3.812541
56.180 3.842455
56.185 3.784535
56.190 3.803183
56.195 3.795561
56.200 3.783367
56.205 3.640299
56.210 3.558727
56.215 3.581923
56.220 3.771095
56.225 3.834336
56.230 4.18685
56.235 4.419975
56.240 4.773076
56.245 4.612818
56.250 4.505919
56.255 4.395595
56.260 4.351138
56.265 4.249613
56.270 4.1504
56.275 4.113776
56.280 4.389108
56.285 4.408933
56.290 4.367945
56.295 4.417394
56.300 4.291214
56.305 4.040395
56.310 4.000882
56.315 3.582673
56.320 3.693219
56.325 3.835728
56.330 3.784982
56.335 4.00136
56.340 4.027059
56.345 4.082274
56.350 4.513976
56.355 4.613688
56.360 4.530181
56.365 4.50254
56.370 4.33457
56.375 4.646383
56.380 4.618874
56.385 4.785171
56.390 4.708035
56.395 4.722516
56.400 4.646527
56.405 4.688989
56.410 4.492584
56.415 4.332543
56.420 3.921433
56.425 4.099085
56.430 4.454947
56.435 4.443865
56.440 4.33974
56.445 4.298703
56.450 4.126584
56.455 4.377092
56.460 4.659009
56.465 4.491042
56.470 4.66758
56.475 4.420116
56.480 4.422184
56.485 4.597813
56.490 4.304941
56.495 3.900465
56.500 3.904801
56.505 3.859301
56.510 4.35369
56.515 4.384945
56.520 4.365082
56.525 4.591034
56.530 4.626213
56.535 4.65992
56.540 4.729639
56.545 4.747313
56.550 4.722069
56.555 4.602269
56.560 4.722987
56.565 4.921237
56.570 5.233665
56.575 5.014995
56.580 4.855718
56.585 4.935964
56.590 4.838218
56.595 4.341039
56.600 3.706562
56.605 3.663981
56.610 3.726881
56.615 3.712275
56.620 3.780651
56.625 3.824103
56.630 4.034272
56.635 4.205661
56.640 4.048713
56.645 3.987309
56.650 3.761627
56.655 3.56454
56.660 3.826024
56.665 3.94253
56.670 4.084849
56.675 4.361909
56.680 4.634189
56.685 4.996039
56.690 4.943283
56.695 4.529289
56.700 4.542334
56.705 4.313075
56.710 3.939046
56.715 3.770259
56.720 3.585261
56.725 3.749724
56.730 4.162942
56.735 3.939307
56.740 3.822088
56.745 4.03475
56.750 4.065664
56.755 4.298742
56.760 4.554495
56.765 4.594132
56.770 4.880481
56.775 5.007451
56.780 5.249267
56.785 5.498172
56.790 5.717185
56.795 5.82023
56.800 5.711022
56.805 5.559711
56.810 5.606559
56.815 5.29384
56.820 5.138344
56.825 4.772029
56.830 4.468203
56.835 4.569902
56.840 5.016582
56.845 5.078474
56.850 4.958051
56.855 4.736715
56.860 4.744401
56.865 4.518343
56.870 4.556485
56.875 4.476243
56.880 4.592999
56.885 4.913898
56.890 4.872649
56.895 5.113311
56.900 5.537663
56.905 5.258265
56.910 4.876605
56.915 4.631932
56.920 4.237672
56.925 4.138526
56.930 3.800994
56.935 3.181913
56.940 3.021409
56.945 3.013445
56.950 3.083385
56.955 3.251689
56.960 3.177156
56.965 3.367445
56.970 3.805695
56.975 4.183536
56.980 4.104503
56.985 4.293474
56.990 4.473573
56.995 4.758003
57.000 4.572817
57.005 4.426613
57.010 4.096421
57.015 4.279974
57.020 3.877359
57.025 3.606646
57.030 3.366662
57.035 3.398876
57.040 3.556265
57.045 3.622796
57.050 3.582115
57.055 3.791249
57.060 4.103254
57.065 4.385396
57.070 4.297246
57.075 4.545506
57.080 5.041839
57.085 5.218978
57.090 5.001625
57.095 5.016068
57.100 5.097879
57.105 5.185376
57.110 5.083663
57.115 4.915521
57.120 4.805535
57.125 4.936847
57.130 4.892548
57.135 4.698236
57.140 4.606213
57.145 4.394746
57.150 4.244096
57.155 4.356099
57.160 4.086495
57.165 4.10315
57.170 4.368952
57.175 4.446189
57.180 4.517615
57.185 4.614119
57.190 4.743292
57.195 4.816389
57.200 5.029273
57.205 4.896151
57.210 4.89749
57.215 4.812315
57.220 4.742617
57.225 4.554479
57.230 4.608599
57.235 4.326935
57.240 4.193961
57.245 3.950631
57.250 3.964154
57.255 4.087189
57.260 3.990754
57.265 3.842952
57.270 3.898581
57.275 3.941386
57.280 4.046203
57.285 3.902829
57.290 4.049318
57.295 4.135944
57.300 4.513939
57.305 4.652226
57.310 4.486105
57.315 4.681613
57.320 4.824648
57.325 4.532979
57.330 4.34007
57.335 3.65748
57.340 3.535803
57.345 3.549885
57.350 3.468807
57.355 3.101868
57.360 3.251949
57.365 3.623112
57.370 3.938645
57.375 4.33529
57.380 4.727244
57.385 4.576164
57.390 4.565919
57.395 4.580592
57.400 4.513401
57.405 4.527235
57.410 4.180225
57.415 3.979567
57.420 4.048249
57.425 4.23522
57.430 4.281429
57.435 3.898858
57.440 3.784794
57.445 3.815502
57.450 4.021677
57.455 4.096522
57.460 3.857792
57.465 3.700234
57.470 4.004835
57.475 4.12886
57.480 4.179956
57.485 4.286169
57.490 4.445363
57.495 4.521307
57.500 4.789642
57.505 4.61695
57.510 4.663954
57.515 4.823607
57.520 4.788413
57.525 5.136207
57.530 5.104148
57.535 5.00929
57.540 5.316258
57.545 5.405161
57.550 5.059556
57.555 4.554811
57.560 4.290334
57.565 4.438342
57.570 4.404766
57.575 4.136731
57.580 4.091082
57.585 4.493546
57.590 4.968663
57.595 4.891037
57.600 4.710042
57.605 4.761213
57.610 5.042375
57.615 4.855455
57.620 4.601545
57.625 4.4566
57.630 4.589371
57.635 4.613229
57.640 4.593076
57.645 4.566833
57.650 4.92998
57.655 5.034737
57.660 5.002016
57.665 4.91387
57.670 4.899923
57.675 4.971047
57.680 4.584025
57.685 4.006352
57.690 4.202886
57.695 4.362504
57.700 4.577495
57.705 4.615346
57.710 4.644562
57.715 4.959557
57.720 5.069497
57.725 4.675802
57.730 4.576584
57.735 4.51366
57.740 4.460129
57.745 4.340141
57.750 4.373468
57.755 4.41404
57.760 4.592155
57.765 4.736377
57.770 4.824144
57.775 4.778092
57.780 4.841544
57.785 4.764562
57.790 4.722841
57.795 4.635904
57.800 4.397449
57.805 4.243882
57.810 4.503922
57.815 4.553888
57.820 4.524512
57.825 4.711557
57.830 4.616872
57.835 4.561128
57.840 4.764875
57.845 4.663255
57.850 4.583087
57.855 4.439762
57.860 4.120208
57.865 4.368822
57.870 4.556606
57.875 4.393961
57.880 4.613007
57.885 4.773428
57.890 4.918277
57.895 5.068598
57.900 4.782557
57.905 4.88616
57.910 4.912525
57.915 4.692335
57.920 4.534827
57.925 4.74907
57.930 4.98998
57.935 5.082607
57.940 5.18456
57.945 5.244974
57.950 5.156754
57.955 5.109799
57.960 4.877382
57.965 4.864331
57.970 4.923517
57.975 4.614992
57.980 4.75591
57.985 4.938441
57.990 5.25603
57.995 5.230776
58.000 5.453869
58.005 5.49517
58.010 5.399973
58.015 5.244686
58.020 5.210909
58.025 5.169999
58.030 5.197245
58.035 4.692496
58.040 4.893633
58.045 5.130023
58.050 5.08071
58.055 5.046881
58.060 5.247713
58.065 5.330959
58.070 5.642154
58.075 5.339414
58.080 4.95381
58.085 4.943623
58.090 4.997375
58.095 5.045718
58.100 5.214185
58.105 5.032883
58.110 5.195523
58.115 5.430202
58.120 5.416468
58.125 5.539342
58.130 5.394471
58.135 5.299262
58.140 5.61565
58.145 5.827885
58.150 5.60945
58.155 5.773312
58.160 5.787483
58.165 5.971474
58.170 6.265332
58.175 5.89023
58.180 5.801296
58.185 5.69131
58.190 5.273654
58.195 4.894234
58.200 4.46767
58.205 4.192578
58.210 4.098689
58.215 3.843705
58.220 4.140946
58.225 4.318241
58.230 4.368712
58.235 4.496506
58.240 4.500444
58.245 4.592553
58.250 5.020623
58.255 5.058509
58.260 4.752237
58.265 4.703149
58.270 4.864743
58.275 4.897765
58.280 4.637833
58.285 4.538477
58.290 4.810441
58.295 5.072878
58.300 5.21213
58.305 5.429004
58.310 5.82481
58.315 5.97868
58.320 5.845535
58.325 5.583071
58.330 5.644065
58.335 5.565447
58.340 5.241069
58.345 4.798399
58.350 4.971017
58.355 4.94884
58.360 5.189185
58.365 5.074472
58.370 4.941985
58.375 5.289208
58.380 5.596868
58.385 5.634054
58.390 5.801771
58.395 5.716954
58.400 6.204897
58.405 6.334694
58.410 5.966673
58.415 6.000689
58.420 6.103869
58.425 5.99041
58.430 5.904907
58.435 5.917546
58.440 5.782359
58.445 5.803609
58.450 5.609097
58.455 5.512544
58.460 5.616314
58.465 5.642112
58.470 5.494115
58.475 5.761296
58.480 5.936273
58.485 6.082772
58.490 6.101079
58.495 6.24228
58.500 6.118776
58.505 6.073624
58.510 5.94017
58.515 6.147817
58.520 6.079087
58.525 5.762836
58.530 5.475832
58.535 5.821988
58.540 6.033906
58.545 6.27414
58.550 6.093899
58.555 6.321744
58.560 6.922315
58.565 7.188111
58.570 6.945738
58.575 6.761881
58.580 6.495407
58.585 6.592886
58.590 6.629673
58.595 6.770902
58.600 7.01838
58.605 6.867155
58.610 6.840662
58.615 6.866963
58.620 6.741342
58.625 6.808868
58.630 6.602509
58.635 6.531059
58.640 7.032697
58.645 7.232563
58.650 7.286556
58.655 7.306322
58.660 7.488641
58.665 7.758596
58.670 7.962727
58.675 8.473885
58.680 9.001645
58.685 9.43401
58.690 9.854178
58.695 9.424181
58.700 9.270809
58.705 9.311522
58.710 8.480392
58.715 7.989571
58.720 8.003999
58.725 7.919809
58.730 8.256935
58.735 8.600398
58.740 8.838968
58.745 9.079125
58.750 9.501619
58.755 9.367102
58.760 9.069758
58.765 9.018832
