!@!!GADDS PLOTSO FILE: Chi integration type
!@!!Title/SampleName: map-9b
!@!!Comment: ?
!@!!User: Bruker Instrument Administrator
!@!!Site: University of Illinois Chicago
!@!!Frame: map-9b_01_000.gfrm
!@!!Wavelengths    1.54184   1.54056   1.54439
!@!!Frame angles: 2Theta: 63.000 Omega: 50.000 Phi: 0.000 Chi: 90.000
!@!!Integration range: 2Theta: 53.000 to 73.000  Gamma: -105.000 to -75.000
!@!!Integration method: bin normalized
!@!N
!@!SS
!@!M
!@!L 0.0 0.0 0.0 0.0
!@!XDegrees
!@!YCounts
53.000 8.248277
53.005 8.420682
53.010 9.19022
53.015 9.713766
53.020 9.814093
53.025 10.12667
53.030 10.347563
53.035 10.234737
53.040 10.38246
53.045 10.218786
53.050 10.368494
53.055 10.464494
53.060 10.207906
53.065 10.310423
53.070 10.387112
53.075 10.708948
53.080 10.943995
53.085 11.158926
53.090 10.708708
53.095 10.579438
53.100 10.739078
53.105 10.671949
53.110 10.225107
53.115 9.061758
53.120 8.808337
53.125 9.165427
53.130 9.288568
53.135 9.332902
53.140 9.151527
53.145 9.072378
53.150 9.554155
53.155 9.129314
53.160 8.630567
53.165 8.681378
53.170 8.597437
53.175 8.325124
53.180 8.594588
53.185 9.106117
53.190 9.357603
53.195 8.906045
53.200 8.627124
53.205 8.869319
53.210 8.997608
53.215 8.557274
53.220 8.580319
53.225 8.986753
53.230 9.38948
53.235 9.640712
53.240 9.594628
53.245 9.714668
53.250 9.593542
53.255 9.384996
53.260 9.325276
53.265 9.348843
53.270 9.358589
53.275 9.527143
53.280 9.430866
53.285 9.742005
53.290 9.59543
53.295 9.460876
53.300 9.013946
53.305 8.819016
53.310 8.866559
53.315 8.903607
53.320 8.664378
53.325 8.688832
53.330 8.746713
53.335 9.086845
53.340 9.570518
53.345 9.717334
53.350 9.599926
53.355 9.609055
53.360 9.675572
53.365 9.765791
53.370 9.264105
53.375 9.095592
53.380 9.637717
53.385 10.358026
53.390 10.624781
53.395 10.526287
53.400 10.524209
53.405 10.795876
53.410 11.029171
53.415 10.395658
53.420 9.924614
53.425 9.882546
53.430 9.714022
53.435 10.04749
53.440 9.733732
53.445 9.293172
53.450 9.606319
53.455 9.561384
53.460 10.025267
53.465 10.242839
53.470 9.894588
53.475 10.074667
53.480 10.201061
53.485 10.312853
53.490 10.280283
53.495 10.502928
53.500 10.722666
53.505 10.854903
53.510 10.636486
53.515 10.83186
53.520 10.872842
53.525 11.04287
53.530 10.752123
53.535 10.565327
53.540 10.505335
53.545 10.155659
53.550 10.032074
53.555 9.993121
53.560 10.026712
53.565 9.927384
53.570 9.761632
53.575 9.872189
53.580 9.634349
53.585 9.49007
53.590 9.155538
53.595 9.024579
53.600 9.589115
53.605 9.775056
53.610 9.689872
53.615 9.970826
53.620 10.158615
53.625 10.284882
53.630 10.213013
53.635 10.049217
53.640 10.453157
53.645 10.489991
53.650 10.544341
53.655 10.481576
53.660 10.533221
53.665 10.114573
53.670 9.872476
53.675 9.641391
53.680 9.784527
53.685 9.545829
53.690 10.057362
53.695 10.443222
53.700 10.629345
53.705 10.885867
53.710 10.924934
53.715 10.651312
53.720 10.687658
53.725 9.796316
53.730 9.44587
53.735 9.235918
53.740 8.560021
53.745 8.144207
53.750 7.861337
53.755 7.658116
53.760 7.589808
53.765 7.906931
53.770 8.007816
53.775 8.591272
53.780 9.070773
53.785 9.821023
53.790 10.179458
53.795 10.081063
53.800 10.472112
53.805 10.763309
53.810 11.118353
53.815 11.103996
53.820 10.624969
53.825 11.005461
53.830 10.755405
53.835 10.122526
53.840 9.608721
53.845 8.871696
53.850 9.27219
53.855 8.90703
53.860 8.525826
53.865 8.477499
53.870 8.619871
53.875 8.999101
53.880 9.385621
53.885 8.951477
53.890 8.963746
53.895 9.047826
53.900 9.086037
53.905 9.330964
53.910 9.915812
53.915 10.331677
53.920 10.659954
53.925 11.206245
53.930 11.89341
53.935 12.273191
53.940 12.231356
53.945 11.439084
53.950 11.160044
53.955 11.018825
53.960 10.889219
53.965 11.004251
53.970 11.024437
53.975 11.090507
53.980 10.939907
53.985 10.699333
53.990 10.590195
53.995 10.370555
54.000 10.109015
54.005 9.76998
54.010 9.718795
54.015 10.016987
54.020 9.937357
54.025 9.623465
54.030 9.33869
54.035 9.259074
54.040 9.393605
54.045 9.886293
54.050 10.084458
54.055 10.319322
54.060 10.84727
54.065 10.770048
54.070 10.66127
54.075 10.526211
54.080 9.892651
54.085 9.558421
54.090 9.499718
54.095 9.218814
54.100 9.35411
54.105 9.769898
54.110 10.058323
54.115 9.991211
54.120 10.26533
54.125 10.439257
54.130 11.14745
54.135 11.033641
54.140 10.476471
54.145 10.51431
54.150 10.283545
54.155 10.680205
54.160 11.100311
54.165 10.863654
54.170 11.41451
54.175 12.271505
54.180 12.63239
54.185 13.22876
54.190 12.58891
54.195 12.421644
54.200 12.406516
54.205 12.213833
54.210 11.424438
54.215 11.451262
54.220 11.165195
54.225 11.0366
54.230 10.912697
54.235 10.681908
54.240 10.316084
54.245 10.604357
54.250 10.502945
54.255 11.056832
54.260 11.269007
54.265 10.980066
54.270 11.246579
54.275 11.592007
54.280 11.800753
54.285 11.869827
54.290 11.446905
54.295 11.773612
54.300 12.263194
54.305 12.001854
54.310 11.32198
54.315 10.690368
54.320 10.913777
54.325 10.599366
54.330 10.503198
54.335 10.29926
54.340 10.230536
54.345 10.510355
54.350 10.789621
54.355 11.02971
54.360 11.15468
54.365 10.81426
54.370 10.915274
54.375 11.40579
54.380 11.663074
54.385 11.391298
54.390 10.997583
54.395 10.666212
54.400 10.788155
54.405 11.207267
54.410 10.875298
54.415 10.838494
54.420 11.129458
54.425 11.315583
54.430 11.638961
54.435 11.491665
54.440 10.903923
54.445 11.005509
54.450 11.082156
54.455 11.276079
54.460 11.618931
54.465 12.016063
54.470 12.163052
54.475 12.195784
54.480 11.96942
54.485 11.55289
54.490 11.446765
54.495 11.027285
54.500 10.325292
54.505 10.196426
54.510 9.990211
54.515 10.370853
54.520 10.090643
54.525 9.924252
54.530 10.574072
54.535 11.039513
54.540 11.460176
54.545 11.799794
54.550 12.248693
54.555 12.598263
54.560 12.258218
54.565 12.139422
54.570 12.107782
54.575 11.962186
54.580 11.359438
54.585 10.465527
54.590 10.441517
54.595 10.777478
54.600 10.729374
54.605 10.846362
54.610 11.133832
54.615 11.479996
54.620 11.828487
54.625 11.688574
54.630 11.224978
54.635 11.157135
54.640 10.903544
54.645 10.639882
54.650 10.640125
54.655 10.661382
54.660 11.401631
54.665 11.768462
54.670 11.134464
54.675 10.871216
54.680 10.76792
54.685 10.759531
54.690 10.498591
54.695 9.713238
54.700 9.212768
54.705 9.558984
54.710 10.371755
54.715 10.813858
54.720 10.84384
54.725 10.668641
54.730 10.746993
54.735 11.197136
54.740 11.471239
54.745 11.183826
54.750 11.174702
54.755 11.166058
54.760 11.427087
54.765 11.719854
54.770 11.560198
54.775 11.313636
54.780 11.445243
54.785 11.374999
54.790 11.471569
54.795 11.919505
54.800 12.462668
54.805 12.413853
54.810 12.253609
54.815 11.910666
54.820 12.230227
54.825 11.9731
54.830 11.148052
54.835 10.812929
54.840 11.148561
54.845 11.586018
54.850 11.829123
54.855 11.742401
54.860 11.852142
54.865 12.227534
54.870 12.217226
54.875 11.926311
54.880 11.547098
54.885 11.298121
54.890 11.492562
54.895 11.896626
54.900 12.062596
54.905 12.110129
54.910 12.558616
54.915 12.577562
54.920 12.525577
54.925 12.229376
54.930 11.985724
54.935 11.101986
54.940 10.917193
54.945 11.00074
54.950 11.373932
54.955 11.487372
54.960 12.233917
54.965 12.7451
54.970 13.263535
54.975 13.2004
54.980 12.861043
54.985 12.738132
54.990 12.544271
54.995 11.986162
55.000 11.954711
55.005 11.62114
55.010 11.790657
55.015 11.777507
55.020 11.595778
55.025 11.653872
55.030 11.539441
55.035 11.007145
55.040 11.232319
55.045 11.075821
55.050 11.092875
55.055 10.848656
55.060 10.299438
55.065 10.077209
55.070 10.002675
55.075 10.083115
55.080 10.377275
55.085 10.516082
55.090 10.883679
55.095 11.344535
55.100 11.364683
55.105 12.103414
55.110 11.986238
55.115 11.846114
55.120 11.82269
55.125 11.865586
55.130 12.118734
55.135 12.466036
55.140 12.31731
55.145 12.603848
55.150 12.421787
55.155 12.098377
55.160 11.993703
55.165 11.640029
55.170 11.867174
55.175 11.605213
55.180 11.577969
55.185 12.143243
55.190 12.569021
55.195 12.755546
55.200 12.79208
55.205 12.442014
55.210 12.26
55.215 11.856185
55.220 11.571922
55.225 11.030463
55.230 10.716301
55.235 10.536283
55.240 10.453993
55.245 10.539447
55.250 10.521478
55.255 10.425336
55.260 10.565181
55.265 10.381149
55.270 9.94218
55.275 10.052378
55.280 10.068098
55.285 9.880843
55.290 10.137488
55.295 10.368305
55.300 10.994226
55.305 10.684319
55.310 10.880093
55.315 11.205029
55.320 11.545132
55.325 11.980134
55.330 11.91394
55.335 11.85789
55.340 12.248686
55.345 12.109219
55.350 12.532573
55.355 12.974821
55.360 12.538164
55.365 12.107334
55.370 12.221836
55.375 12.089387
55.380 11.842207
55.385 11.304297
55.390 11.412726
55.395 11.90413
55.400 12.466063
55.405 12.758999
55.410 13.549212
55.415 13.441335
55.420 13.051017
55.425 12.498056
55.430 12.291066
55.435 11.94603
55.440 11.671644
55.445 11.262923
55.450 11.575562
55.455 11.480523
55.460 11.169734
55.465 11.319082
55.470 11.544134
55.475 11.535442
55.480 11.192347
55.485 11.597513
55.490 12.06248
55.495 12.550673
55.500 12.457207
55.505 12.5601
55.510 12.370199
55.515 12.265126
55.520 11.490049
55.525 10.98372
55.530 10.821713
55.535 11.011019
55.540 11.069812
55.545 12.172229
55.550 12.592843
55.555 12.802942
55.560 13.084195
55.565 12.740813
55.570 12.399035
55.575 11.851901
55.580 11.393774
55.585 11.918107
55.590 12.497583
55.595 12.384622
55.600 12.369649
55.605 12.15219
55.610 12.093508
55.615 12.063974
55.620 11.57359
55.625 11.361122
55.630 11.074443
55.635 11.421778
55.640 11.73275
55.645 11.584979
55.650 11.492115
55.655 11.943025
55.660 11.684634
55.665 12.162574
55.670 11.971962
55.675 12.646163
55.680 12.643472
55.685 12.650773
55.690 12.405153
55.695 12.35477
55.700 12.388462
55.705 12.632329
55.710 11.890904
55.715 12.067595
55.720 11.899755
55.725 12.126524
55.730 12.555662
55.735 12.479716
55.740 12.055942
55.745 12.130661
55.750 12.475934
55.755 12.328394
55.760 11.946131
55.765 12.012096
55.770 11.827905
55.775 12.705535
55.780 12.718276
55.785 12.55298
55.790 12.814624
55.795 12.934268
55.800 12.690467
55.805 12.438041
55.810 11.98683
55.815 12.274186
55.820 12.178805
55.825 11.770297
55.830 11.791781
55.835 11.905025
55.840 12.454734
55.845 12.240479
55.850 12.047103
55.855 12.044138
55.860 12.254414
55.865 12.096707
55.870 12.181782
55.875 12.738233
55.880 13.405586
55.885 13.484669
55.890 13.566808
55.895 13.751699
55.900 13.783519
55.905 13.439485
55.910 13.092663
55.915 12.749232
55.920 12.532286
55.925 12.503168
55.930 12.344163
55.935 12.716922
55.940 13.296707
55.945 13.307447
55.950 13.90592
55.955 13.934906
55.960 14.15169
55.965 14.219254
55.970 14.069698
55.975 13.227207
55.980 13.149168
55.985 12.942833
55.990 12.951565
55.995 13.130584
56.000 13.242529
56.005 13.181277
56.010 13.736765
56.015 13.564594
56.020 13.541965
56.025 13.480357
56.030 13.42754
56.035 13.394485
56.040 13.166081
56.045 12.57805
56.050 11.98032
56.055 11.634141
56.060 11.485202
56.065 10.657544
56.070 10.695669
56.075 10.573168
56.080 11.088086
56.085 11.560302
56.090 11.711684
56.095 11.724234
56.100 11.988394
56.105 11.931484
56.110 12.194756
56.115 11.601895
56.120 11.30977
56.125 11.523718
56.130 12.147704
56.135 12.691248
56.140 12.657376
56.145 12.495226
56.150 12.947135
56.155 13.32555
56.160 13.197547
56.165 12.958641
56.170 12.742134
56.175 12.829041
56.180 12.92925
56.185 13.431982
56.190 13.118286
56.195 13.249131
56.200 13.533411
56.205 13.247626
56.210 13.064563
56.215 13.300817
56.220 13.253302
56.225 13.263388
56.230 13.156281
56.235 13.193417
56.240 13.293364
56.245 13.557133
56.250 13.541067
56.255 13.947173
56.260 13.957623
56.265 13.15612
56.270 12.757336
56.275 12.785567
56.280 12.374556
56.285 11.917215
56.290 11.485988
56.295 12.050335
56.300 12.397723
56.305 12.503787
56.310 12.249663
56.315 12.357751
56.320 12.206289
56.325 11.89245
56.330 11.826463
56.335 11.922376
56.340 11.814773
56.345 11.719872
56.350 11.467199
56.355 11.545599
56.360 11.827621
56.365 11.979866
56.370 11.982836
56.375 12.022633
56.380 12.166021
56.385 11.706122
56.390 11.327271
56.395 11.43072
56.400 11.526364
56.405 11.461415
56.410 11.538116
56.415 11.676374
56.420 11.94314
56.425 12.270162
56.430 12.071552
56.435 11.479313
56.440 12.229614
56.445 12.613045
56.450 12.691779
56.455 13.183837
56.460 13.065914
56.465 13.10008
56.470 13.260728
56.475 12.668068
56.480 12.817459
56.485 13.043506
56.490 13.671744
56.495 13.977302
56.500 14.139624
56.505 14.034775
56.510 14.072516
56.515 13.7068
56.520 13.467601
56.525 12.807992
56.530 12.245386
56.535 12.0078
56.540 12.143353
56.545 12.067175
56.550 12.342051
56.555 12.98722
56.560 13.508341
56.565 13.799043
56.570 14.344301
56.575 14.658523
56.580 14.588923
56.585 14.39339
56.590 13.350564
56.595 13.042765
56.600 12.656058
56.605 13.035718
56.610 12.968156
56.615 12.940817
56.620 13.294168
56.625 13.817372
56.630 13.853392
56.635 14.023764
56.640 13.349121
56.645 13.681819
56.650 13.844913
56.655 13.620549
56.660 13.51348
56.665 13.089876
56.670 12.962471
56.675 12.934676
56.680 12.882871
56.685 13.273252
56.690 13.897912
56.695 15.208328
56.700 15.738202
56.705 15.316967
56.710 15.246415
56.715 14.737975
56.720 14.194162
56.725 13.580453
56.730 12.610339
56.735 12.569861
56.740 13.57763
56.745 13.938771
56.750 14.706341
56.755 15.089984
56.760 14.837225
56.765 15.092688
56.770 15.389132
56.775 14.536118
56.780 14.246725
56.785 13.785445
56.790 13.900944
56.795 14.414144
56.800 14.292057
56.805 13.946391
56.810 14.456887
56.815 14.721977
56.820 15.115579
56.825 15.148762
56.830 15.028632
56.835 15.371715
56.840 15.734862
56.845 15.665432
56.850 15.51683
56.855 15.411888
56.860 15.06916
56.865 14.759814
56.870 15.103077
56.875 14.864231
56.880 14.658354
56.885 14.851992
56.890 14.53837
56.895 14.645453
56.900 14.931669
56.905 14.345071
56.910 14.132736
56.915 13.842365
56.920 13.470998
56.925 13.493612
56.930 13.355431
56.935 12.869265
56.940 13.025899
56.945 13.407378
56.950 13.433769
56.955 13.220442
56.960 13.049661
56.965 13.274927
56.970 13.305402
56.975 13.227033
56.980 13.428134
56.985 13.560726
56.990 14.009439
56.995 13.976053
57.000 13.523947
57.005 13.432104
57.010 13.259483
57.015 13.155784
57.020 13.47205
57.025 13.743423
57.030 13.926941
57.035 14.194307
57.040 13.963199
57.045 13.922242
57.050 13.529102
57.055 13.062193
57.060 12.562669
57.065 12.957259
57.070 13.142012
57.075 13.298261
57.080 13.343956
57.085 13.315896
57.090 13.081349
57.095 13.105076
57.100 12.700935
57.105 12.538133
57.110 12.836102
57.115 13.098348
57.120 13.294518
57.125 13.438409
57.130 13.695113
57.135 13.668422
57.140 13.74479
57.145 13.439487
57.150 13.24062
57.155 13.517641
57.160 13.79276
57.165 13.632016
57.170 13.984617
57.175 13.89019
57.180 13.919333
57.185 14.059962
57.190 13.708609
57.195 13.587443
57.200 13.642252
57.205 13.650547
57.210 13.745044
57.215 13.435056
57.220 13.276806
57.225 13.157567
57.230 13.444119
57.235 13.437991
57.240 13.583549
57.245 13.55411
57.250 13.908388
57.255 13.892227
57.260 14.279605
57.265 14.542363
57.270 14.403763
57.275 14.093779
57.280 14.485307
57.285 14.584977
57.290 14.704612
57.295 14.345965
57.300 14.330585
57.305 14.357251
57.310 14.862158
57.315 14.314979
57.320 14.415275
57.325 14.746731
57.330 14.789039
57.335 14.833168
57.340 14.938689
57.345 15.093526
57.350 15.647654
57.355 15.16307
57.360 14.759359
57.365 14.66215
57.370 14.302024
57.375 13.496787
57.380 13.118671
57.385 13.295341
57.390 13.927777
57.395 13.875763
57.400 13.891082
57.405 13.973617
57.410 14.138486
57.415 13.853977
57.420 13.219143
57.425 12.776561
57.430 13.229917
57.435 13.021906
57.440 13.17247
57.445 13.195743
57.450 13.27591
57.455 13.830781
57.460 13.844513
57.465 13.476719
57.470 13.629823
57.475 13.473416
57.480 13.904452
57.485 14.137295
57.490 14.339965
57.495 14.33918
57.500 14.342075
57.505 14.652379
57.510 14.822932
57.515 14.677295
57.520 14.466595
57.525 13.988656
57.530 13.973412
57.535 14.182993
57.540 13.759311
57.545 13.822389
57.550 13.829271
57.555 13.737089
57.560 13.934528
57.565 14.412107
57.570 14.376667
57.575 14.257098
57.580 14.436437
57.585 14.409881
57.590 14.630821
57.595 14.655677
57.600 14.353452
57.605 14.819078
57.610 14.889954
57.615 14.755049
57.620 14.694448
57.625 15.231205
57.630 15.626966
57.635 15.711955
57.640 15.612994
57.645 15.653508
57.650 15.854061
57.655 16.422773
57.660 15.763648
57.665 15.084041
57.670 14.956963
57.675 15.051145
57.680 15.14245
57.685 14.63369
57.690 15.104536
57.695 15.999576
57.700 16.5257
57.705 16.798323
57.710 17.406847
57.715 18.010035
57.720 18.421982
57.725 18.031399
57.730 17.774002
57.735 17.455133
57.740 17.012714
57.745 17.116991
57.750 16.826338
57.755 16.849396
57.760 16.23826
57.765 15.996131
57.770 16.388592
57.775 16.611328
57.780 15.768296
57.785 15.447436
57.790 15.323808
57.795 15.386275
57.800 15.271728
57.805 15.112305
57.810 14.940332
57.815 15.110022
57.820 15.388697
57.825 15.264531
57.830 15.297529
57.835 15.202194
57.840 15.190129
57.845 14.841721
57.850 14.727774
57.855 14.607858
57.860 14.568865
57.865 14.406726
57.870 14.223738
57.875 14.439604
57.880 14.624476
57.885 14.853195
57.890 15.031785
57.895 15.372673
57.900 15.704787
57.905 15.702056
57.910 15.326289
57.915 15.466702
57.920 15.571836
57.925 15.882183
57.930 15.793448
57.935 15.442491
57.940 15.764546
57.945 15.929997
57.950 15.931136
57.955 15.441438
57.960 15.199067
57.965 15.314506
57.970 14.92679
57.975 14.720652
57.980 14.678767
57.985 14.568764
57.990 14.691859
57.995 14.898337
58.000 14.988546
58.005 15.530212
58.010 15.908412
58.015 16.193922
58.020 16.366056
58.025 16.829779
58.030 16.780207
58.035 16.786728
58.040 17.128561
58.045 17.112507
58.050 17.185871
58.055 17.320601
58.060 17.401499
58.065 17.616283
58.070 17.608421
58.075 17.503021
58.080 17.384184
58.085 17.442831
58.090 17.313011
58.095 17.258976
58.100 16.602482
58.105 16.411753
58.110 16.464127
58.115 16.843771
58.120 16.924959
58.125 17.180035
58.130 17.237158
58.135 17.907114
58.140 18.067381
58.145 18.226519
58.150 18.182808
58.155 18.181414
58.160 18.119596
58.165 18.231573
58.170 18.298416
58.175 17.903427
58.180 18.068201
58.185 17.57358
58.190 16.868204
58.195 16.825962
58.200 17.108114
58.205 17.592745
58.210 17.984758
58.215 17.740332
58.220 18.351698
58.225 18.72401
58.230 18.504036
58.235 18.010466
58.240 17.886463
58.245 18.052244
58.250 18.379766
58.255 18.399908
58.260 18.431831
58.265 18.480042
58.270 18.560373
58.275 18.482336
58.280 18.324266
58.285 18.23509
58.290 18.486694
58.295 18.721228
58.300 18.749689
58.305 19.16445
58.310 19.162806
58.315 19.432072
58.320 19.498846
58.325 20.310965
58.330 20.510983
58.335 20.47438
58.340 20.57246
58.345 20.816965
58.350 21.198538
58.355 21.21241
58.360 20.354397
58.365 20.035095
58.370 20.455238
58.375 20.352694
58.380 20.364891
58.385 20.394911
58.390 20.533386
58.395 21.373787
58.400 22.429588
58.405 22.410604
58.410 22.191927
58.415 22.61198
58.420 23.520639
58.425 23.793964
58.430 24.134741
58.435 23.448997
58.440 24.071861
58.445 25.204575
58.450 25.116465
58.455 25.667509
58.460 26.658634
58.465 27.24651
58.470 28.134706
58.475 28.220076
