!@!!GADDS PLOTSO FILE: Chi integration type
!@!!Title/SampleName: map-ff
!@!!Comment: ?
!@!!User: Bruker Instrument Administrator
!@!!Site: University of Illinois Chicago
!@!!Frame: map-ff_01_000.gfrm
!@!!Wavelengths    1.54184   1.54056   1.54439
!@!!Frame angles: 2Theta: 63.000 Omega: 50.000 Phi: 0.000 Chi: 90.000
!@!!Integration range: 2Theta: 53.000 to 73.000  Gamma: -105.000 to -75.000
!@!!Integration method: bin normalized
!@!N
!@!SS
!@!M
!@!L 0.0 0.0 0.0 0.0
!@!XDegrees
!@!YCounts
53.000 8.037476
53.005 8.234037
53.010 8.937909
53.015 9.000423
53.020 8.204495
53.025 8.268697
53.030 8.617339
53.035 8.734625
53.040 8.373994
53.045 7.701451
53.050 7.887349
53.055 8.248569
53.060 8.808702
53.065 8.818817
53.070 8.973947
53.075 9.359244
53.080 9.041338
53.085 8.946425
53.090 8.959015
53.095 8.256974
53.100 7.998337
53.105 7.975273
53.110 8.004467
53.115 8.450623
53.120 8.254992
53.125 8.18774
53.130 8.959874
53.135 9.273471
53.140 8.879177
53.145 8.72683
53.150 8.912436
53.155 8.965858
53.160 8.918935
53.165 8.939178
53.170 8.900532
53.175 8.774697
53.180 8.389712
53.185 8.065288
53.190 8.373286
53.195 8.472822
53.200 8.607979
53.205 8.783421
53.210 8.920463
53.215 9.320229
53.220 8.938381
53.225 8.768934
53.230 8.721725
53.235 8.579102
53.240 8.466491
53.245 8.299211
53.250 8.141077
53.255 8.455667
53.260 8.62098
53.265 8.519242
53.270 8.62456
53.275 8.86503
53.280 8.821488
53.285 8.915598
53.290 8.533717
53.295 8.393242
53.300 8.585454
53.305 8.628058
53.310 8.96776
53.315 9.394589
53.320 9.614828
53.325 10.008881
53.330 10.18251
53.335 10.0011
53.340 9.805863
53.345 9.615605
53.350 9.513266
53.355 9.7672
53.360 9.676578
53.365 9.550154
53.370 9.45162
53.375 9.240194
53.380 9.182014
53.385 9.219307
53.390 9.017359
53.395 8.81317
53.400 8.750648
53.405 8.979951
53.410 9.185583
53.415 9.076698
53.420 8.699802
53.425 8.640121
53.430 8.819274
53.435 8.980385
53.440 8.847072
53.445 8.942505
53.450 9.190523
53.455 9.462827
53.460 9.516827
53.465 9.267984
53.470 9.351065
53.475 9.221046
53.480 9.120326
53.485 9.569686
53.490 9.423127
53.495 9.490176
53.500 9.549726
53.505 9.946505
53.510 10.406584
53.515 10.184065
53.520 9.572405
53.525 9.26335
53.530 8.937415
53.535 9.034426
53.540 8.85647
53.545 8.71796
53.550 8.429549
53.555 8.738577
53.560 9.312784
53.565 9.211947
53.570 9.113697
53.575 8.507765
53.580 8.525799
53.585 8.616931
53.590 8.634395
53.595 8.756455
53.600 8.955485
53.605 8.480381
53.610 8.690725
53.615 8.73969
53.620 9.189971
53.625 9.131474
53.630 8.672876
53.635 9.573622
53.640 10.114991
53.645 10.169751
53.650 10.061509
53.655 9.47212
53.660 9.899762
53.665 9.56239
53.670 8.728735
53.675 9.160125
53.680 9.172916
53.685 9.519236
53.690 9.593946
53.695 8.949126
53.700 8.845299
53.705 8.711726
53.710 8.253795
53.715 8.526921
53.720 8.434376
53.725 8.418092
53.730 9.016072
53.735 9.199697
53.740 9.212607
53.745 9.327229
53.750 9.15727
53.755 9.302384
53.760 9.483685
53.765 9.279009
53.770 9.205368
53.775 9.369018
53.780 9.824714
53.785 9.905526
53.790 10.208945
53.795 9.661564
53.800 9.958621
53.805 10.426871
53.810 10.01438
53.815 9.383378
53.820 8.963176
53.825 8.606821
53.830 8.503022
53.835 8.315572
53.840 8.273178
53.845 8.291667
53.850 8.616716
53.855 8.897803
53.860 8.976032
53.865 9.081427
53.870 8.603167
53.875 8.066525
53.880 8.023657
53.885 7.975953
53.890 7.734693
53.895 7.922218
53.900 8.155225
53.905 8.590694
53.910 9.095836
53.915 8.986753
53.920 8.890433
53.925 8.93385
53.930 9.083793
53.935 9.279207
53.940 9.491981
53.945 9.585214
53.950 9.410647
53.955 9.546836
53.960 9.69917
53.965 9.739088
53.970 9.529617
53.975 9.387177
53.980 9.533518
53.985 9.981788
53.990 10.001894
53.995 10.267952
54.000 9.971674
54.005 9.858909
54.010 9.762945
54.015 9.498452
54.020 9.386047
54.025 9.496222
54.030 9.273304
54.035 9.711553
54.040 9.747123
54.045 9.635145
54.050 9.837585
54.055 9.704609
54.060 9.546304
54.065 9.837465
54.070 9.567436
54.075 9.5194
54.080 9.504398
54.085 9.478289
54.090 9.21688
54.095 8.881147
54.100 8.185173
54.105 8.160719
54.110 7.99346
54.115 7.881352
54.120 7.987789
54.125 8.126478
54.130 8.873906
54.135 9.21009
54.140 9.422351
54.145 9.737503
54.150 9.94947
54.155 10.224442
54.160 10.329656
54.165 9.829861
54.170 9.695632
54.175 9.85351
54.180 9.887254
54.185 9.937371
54.190 10.151013
54.195 10.133543
54.200 10.676765
54.205 10.725471
54.210 10.345572
54.215 10.169624
54.220 9.756697
54.225 9.589809
54.230 9.763257
54.235 9.426962
54.240 9.312684
54.245 9.364423
54.250 9.547999
54.255 9.662168
54.260 9.768236
54.265 9.756852
54.270 10.265495
54.275 10.775335
54.280 10.746074
54.285 10.754197
54.290 10.9565
54.295 11.223602
54.300 11.507904
54.305 11.035978
54.310 10.92522
54.315 11.026819
54.320 10.679119
54.325 10.004077
54.330 9.494374
54.335 9.512793
54.340 9.374059
54.345 9.397472
54.350 9.379527
54.355 9.992318
54.360 10.280768
54.365 10.304295
54.370 9.94008
54.375 9.842792
54.380 9.610641
54.385 9.397459
54.390 9.093406
54.395 9.36974
54.400 9.734119
54.405 9.936505
54.410 10.00433
54.415 9.731842
54.420 9.428602
54.425 9.307055
54.430 8.905813
54.435 8.726637
54.440 9.084626
54.445 9.607155
54.450 9.729937
54.455 9.874532
54.460 10.088778
54.465 10.346339
54.470 10.416264
54.475 9.811174
54.480 9.791934
54.485 9.675008
54.490 9.567119
54.495 9.252208
54.500 9.289137
54.505 9.164068
54.510 9.023472
54.515 9.463453
54.520 9.503856
54.525 9.77127
54.530 9.788878
54.535 9.837041
54.540 9.680032
54.545 9.744583
54.550 9.797576
54.555 9.891242
54.560 10.011265
54.565 9.978101
54.570 9.919867
54.575 9.837165
54.580 9.813151
54.585 10.232191
54.590 10.530714
54.595 10.01831
54.600 9.802416
54.605 10.320042
54.610 10.581055
54.615 10.387402
54.620 9.809964
54.625 9.990131
54.630 10.327669
54.635 10.386879
54.640 10.04021
54.645 10.354619
54.650 10.406686
54.655 10.407636
54.660 10.483551
54.665 10.46598
54.670 10.370698
54.675 10.633739
54.680 10.791705
54.685 10.972271
54.690 11.517161
54.695 11.499983
54.700 11.68259
54.705 11.503066
54.710 10.928331
54.715 10.875847
54.720 10.608592
54.725 9.905664
54.730 9.865498
54.735 9.610153
54.740 9.420382
54.745 9.374815
54.750 9.737696
54.755 9.981987
54.760 9.822271
54.765 9.638563
54.770 9.614299
54.775 10.006989
54.780 9.795137
54.785 9.073638
54.790 8.568803
54.795 8.866095
54.800 9.079987
54.805 9.50655
54.810 9.772112
54.815 9.787803
54.820 10.188089
54.825 10.520454
54.830 10.399666
54.835 10.452003
54.840 9.913556
54.845 9.918021
54.850 10.14803
54.855 10.250437
54.860 10.818877
54.865 10.865458
54.870 10.98519
54.875 11.418064
54.880 11.886552
54.885 11.565932
54.890 11.396328
54.895 10.970643
54.900 10.771674
54.905 10.733371
54.910 10.733581
54.915 10.334853
54.920 10.778317
54.925 10.884214
54.930 11.273648
54.935 11.490635
54.940 11.477479
54.945 11.629162
54.950 11.836854
54.955 11.611781
54.960 11.301905
54.965 10.998933
54.970 10.770742
54.975 10.485016
54.980 10.047155
54.985 9.613419
54.990 9.461397
54.995 9.862069
55.000 9.751764
55.005 9.75331
55.010 9.472849
55.015 10.237714
55.020 10.573446
55.025 10.773602
55.030 10.379206
55.035 10.527426
55.040 10.688469
55.045 11.077908
55.050 10.59605
55.055 10.696816
55.060 10.5782
55.065 10.808703
55.070 10.780583
55.075 10.674912
55.080 10.437307
55.085 10.214953
55.090 9.848272
55.095 9.771737
55.100 9.747954
55.105 9.995799
55.110 9.858525
55.115 9.68082
55.120 9.842999
55.125 10.071523
55.130 10.136521
55.135 10.23487
55.140 10.581536
55.145 10.747311
55.150 10.869283
55.155 11.01019
55.160 10.873903
55.165 10.528941
55.170 10.483626
55.175 10.78377
55.180 11.101596
55.185 11.312515
55.190 11.685861
55.195 11.686415
55.200 11.713358
55.205 11.286068
55.210 10.576921
55.215 10.483033
55.220 10.327358
55.225 10.221842
55.230 10.342552
55.235 10.562034
55.240 10.970618
55.245 11.121958
55.250 11.195511
55.255 11.304977
55.260 11.046603
55.265 11.097064
55.270 11.171573
55.275 10.874164
55.280 10.834641
55.285 10.659943
55.290 10.547311
55.295 10.617956
55.300 10.756637
55.305 10.670686
55.310 10.867373
55.315 10.848492
55.320 10.758268
55.325 11.135696
55.330 11.354446
55.335 11.507593
55.340 11.139121
55.345 10.955984
55.350 10.985539
55.355 10.835719
55.360 10.676942
55.365 10.884074
55.370 10.499994
55.375 10.628855
55.380 10.583943
55.385 10.774506
55.390 11.402045
55.395 12.043868
55.400 11.734219
55.405 12.151159
55.410 12.246408
55.415 12.327653
55.420 12.01673
55.425 11.440497
55.430 11.051361
55.435 11.498343
55.440 11.568776
55.445 11.966872
55.450 12.236907
55.455 12.497128
55.460 12.134895
55.465 11.817983
55.470 10.87638
55.475 10.218788
55.480 10.1531
55.485 10.086331
55.490 10.076704
55.495 9.915018
55.500 10.27994
55.505 11.084271
55.510 11.458598
55.515 11.127535
55.520 10.841539
55.525 10.916758
55.530 11.137245
55.535 11.09732
55.540 11.24741
55.545 11.111793
55.550 11.890633
55.555 12.802949
55.560 13.037221
55.565 13.225074
55.570 12.783408
55.575 12.506408
55.580 12.730534
55.585 11.775895
55.590 11.39286
55.595 11.996037
55.600 12.529905
55.605 12.819405
55.610 12.585688
55.615 11.761484
55.620 12.136532
55.625 12.115387
55.630 11.075423
55.635 10.574634
55.640 10.595593
55.645 10.914021
55.650 11.66743
55.655 11.289713
55.660 11.028966
55.665 11.358592
55.670 11.345487
55.675 11.230393
55.680 11.032013
55.685 11.284622
55.690 11.275044
55.695 11.743206
55.700 11.874219
55.705 12.03744
55.710 12.203513
55.715 12.445345
55.720 12.339294
55.725 12.302719
55.730 12.434954
55.735 12.038087
55.740 12.173128
55.745 12.147659
55.750 11.722636
55.755 11.734926
55.760 11.574084
55.765 11.049776
55.770 11.423491
55.775 11.823965
55.780 11.684094
55.785 11.896413
55.790 11.529014
55.795 11.467539
55.800 11.567093
55.805 10.98085
55.810 10.652662
55.815 10.980984
55.820 10.416
55.825 10.092856
55.830 10.345154
55.835 10.929863
55.840 11.331997
55.845 11.235194
55.850 11.399554
55.855 11.736136
55.860 12.075098
55.865 11.874903
55.870 11.487082
55.875 11.813795
55.880 12.067943
55.885 11.904654
55.890 11.828596
55.895 11.72444
55.900 11.729265
55.905 11.402265
55.910 10.775219
55.915 10.578903
55.920 11.011188
55.925 11.248577
55.930 11.382305
55.935 11.580006
55.940 12.17628
55.945 12.840976
55.950 13.095892
55.955 13.118304
55.960 13.755181
55.965 13.776596
55.970 13.710334
55.975 14.088652
55.980 14.01268
55.985 14.012162
55.990 13.826056
55.995 13.119085
56.000 13.106678
56.005 13.084315
56.010 13.344847
56.015 13.371376
56.020 13.047281
56.025 13.122543
56.030 13.206877
56.035 13.377165
56.040 13.058039
56.045 12.007378
56.050 11.75598
56.055 11.491743
56.060 11.120385
56.065 10.866669
56.070 10.77999
56.075 10.95903
56.080 11.342134
56.085 11.633561
56.090 11.831758
56.095 12.095763
56.100 12.255318
56.105 11.982903
56.110 11.375075
56.115 11.55861
56.120 11.243786
56.125 11.091646
56.130 10.840414
56.135 10.993586
56.140 11.386136
56.145 11.467271
56.150 11.503266
56.155 11.760989
56.160 11.942986
56.165 11.927149
56.170 11.606895
56.175 11.833716
56.180 11.704904
56.185 11.093489
56.190 10.773075
56.195 10.423287
56.200 11.030138
56.205 10.943737
56.210 10.40874
56.215 10.805557
56.220 11.103534
56.225 11.572718
56.230 12.465597
56.235 12.463549
56.240 12.724901
56.245 13.210366
56.250 13.350342
56.255 13.332221
56.260 12.85292
56.265 12.453512
56.270 12.547972
56.275 12.289653
56.280 12.081364
56.285 12.55262
56.290 13.261792
56.295 13.545602
56.300 13.479167
56.305 13.514499
56.310 13.90071
56.315 13.679909
56.320 12.7325
56.325 11.992624
56.330 12.376631
56.335 12.271891
56.340 12.124378
56.345 11.917521
56.350 11.793672
56.355 12.189507
56.360 12.096671
56.365 11.481185
56.370 11.13131
56.375 10.260406
56.380 9.953021
56.385 10.264797
56.390 10.401061
56.395 10.604907
56.400 11.12043
56.405 11.623822
56.410 12.421745
56.415 13.111021
56.420 13.153735
56.425 13.062198
56.430 13.292867
56.435 13.131746
56.440 13.056324
56.445 12.839101
56.450 12.629422
56.455 12.673327
56.460 12.747182
56.465 12.520024
56.470 12.805675
56.475 12.884252
56.480 12.502947
56.485 12.203013
56.490 12.286749
56.495 12.226992
56.500 12.231959
56.505 12.175454
56.510 12.363615
56.515 12.582949
56.520 12.375613
56.525 11.982193
56.530 11.813591
56.535 11.489108
56.540 11.696695
56.545 11.357733
56.550 11.313633
56.555 11.423146
56.560 11.10058
56.565 11.549219
56.570 11.847713
56.575 11.820178
56.580 12.262576
56.585 12.474423
56.590 12.594233
56.595 12.556813
56.600 12.19093
56.605 12.047699
56.610 11.887913
56.615 11.435305
56.620 10.842289
56.625 10.756406
56.630 11.277485
56.635 11.814197
56.640 11.686766
56.645 11.87432
56.650 12.539966
56.655 13.228429
56.660 13.592484
56.665 13.317868
56.670 12.985728
56.675 13.433535
56.680 13.550347
56.685 13.30757
56.690 12.770965
56.695 12.099702
56.700 12.047654
56.705 11.847622
56.710 11.619305
56.715 11.205623
56.720 11.568402
56.725 12.412794
56.730 13.45924
56.735 13.454057
56.740 13.64333
56.745 13.64878
56.750 13.805806
56.755 13.960189
56.760 13.721739
56.765 13.132056
56.770 13.31881
56.775 12.868441
56.780 12.597838
56.785 12.6308
56.790 12.55901
56.795 12.401551
56.800 12.243125
56.805 12.769103
56.810 13.311448
56.815 13.56172
56.820 13.346074
56.825 13.361163
56.830 13.815217
56.835 14.383409
56.840 13.757824
56.845 13.368932
56.850 13.42096
56.855 13.222723
56.860 12.653436
56.865 12.182401
56.870 12.051002
56.875 12.274236
56.880 12.202703
56.885 12.240801
56.890 12.685863
56.895 12.937787
56.900 12.688992
56.905 12.723253
56.910 12.772341
56.915 12.685734
56.920 12.803266
56.925 12.97717
56.930 13.324897
56.935 13.255369
56.940 12.945496
56.945 12.911378
56.950 12.813776
56.955 12.666186
56.960 12.384587
56.965 12.312607
56.970 12.461218
56.975 12.701599
56.980 13.174006
56.985 13.529981
56.990 13.660199
56.995 13.753168
57.000 13.598785
57.005 13.654374
57.010 13.175763
57.015 12.708209
57.020 12.598411
57.025 12.396976
57.030 12.340671
57.035 12.869699
57.040 13.300596
57.045 13.593072
57.050 13.740285
57.055 13.79653
57.060 13.704681
57.065 13.998749
57.070 13.964489
57.075 14.082358
57.080 14.427227
57.085 14.387609
57.090 14.381113
57.095 14.398745
57.100 13.784932
57.105 13.363703
57.110 12.834145
57.115 12.352962
57.120 12.690645
57.125 12.460483
57.130 12.962193
57.135 13.480866
57.140 13.566301
57.145 13.911473
57.150 14.050372
57.155 13.499906
57.160 13.360617
57.165 12.819203
57.170 12.291892
57.175 11.999153
57.180 11.977378
57.185 11.890332
57.190 12.392349
57.195 12.151779
57.200 12.547312
57.205 12.775868
57.210 13.031459
57.215 12.722171
57.220 12.701155
57.225 12.364503
57.230 12.656732
57.235 12.660347
57.240 12.827571
57.245 12.713541
57.250 12.739777
57.255 13.059922
57.260 13.051748
57.265 13.205547
57.270 13.275875
57.275 13.143073
57.280 13.124021
57.285 13.000762
57.290 12.444028
57.295 12.433955
57.300 12.238314
57.305 12.105873
57.310 12.033075
57.315 12.064541
57.320 12.580272
57.325 13.041403
57.330 13.416598
57.335 13.67661
57.340 13.90143
57.345 13.808858
57.350 14.197398
57.355 13.680045
57.360 13.762419
57.365 13.790172
57.370 13.649301
57.375 13.750738
57.380 13.747652
57.385 13.129501
57.390 13.4104
57.395 13.323569
57.400 12.762241
57.405 12.220907
57.410 12.166258
57.415 12.239808
57.420 12.661844
57.425 12.216354
57.430 12.491259
57.435 12.740679
57.440 12.888949
57.445 12.945963
57.450 13.207756
57.455 13.402946
57.460 13.639154
57.465 13.729452
57.470 14.078352
57.475 14.431576
57.480 14.400233
57.485 14.170252
57.490 14.592457
57.495 14.84611
57.500 14.637401
57.505 14.340197
57.510 14.360677
57.515 14.623757
57.520 15.139533
57.525 14.788672
57.530 15.227125
57.535 15.637019
57.540 15.426187
57.545 15.115026
57.550 14.899676
57.555 14.702087
57.560 15.176295
57.565 14.979158
57.570 15.302835
57.575 15.948802
57.580 16.10289
57.585 15.983952
57.590 16.061886
57.595 15.67817
57.600 15.008857
57.605 14.307595
57.610 13.824975
57.615 13.663216
57.620 13.760609
57.625 13.684031
57.630 13.719709
57.635 13.921359
57.640 13.916371
57.645 14.298253
57.650 14.329273
57.655 14.65694
57.660 14.707359
57.665 14.48557
57.670 14.360085
57.675 14.433254
57.680 14.460619
57.685 14.746471
57.690 14.35158
57.695 13.65138
57.700 13.684627
57.705 14.013561
57.710 14.314729
57.715 14.181259
57.720 14.061571
57.725 13.988655
57.730 14.452687
57.735 14.727999
57.740 14.64023
57.745 14.775657
57.750 15.060803
57.755 15.085144
57.760 15.040625
57.765 14.784739
57.770 14.609089
57.775 14.754798
57.780 14.791399
57.785 14.920093
57.790 14.868839
57.795 15.2921
57.800 15.631366
57.805 15.800861
57.810 15.581793
57.815 15.270593
57.820 15.032642
57.825 15.229375
57.830 15.763161
57.835 15.879677
57.840 15.680764
57.845 15.845227
57.850 16.081335
57.855 16.428923
57.860 16.248276
57.865 15.763491
57.870 16.338602
57.875 16.706469
57.880 16.652637
57.885 16.403181
57.890 15.865105
57.895 15.630457
57.900 15.149174
57.905 14.285197
57.910 13.829554
57.915 14.065522
57.920 14.625612
57.925 15.110269
57.930 15.552958
57.935 15.783178
57.940 15.868748
57.945 15.955956
57.950 15.710414
57.955 15.68417
57.960 15.318431
57.965 15.09369
57.970 14.934834
57.975 14.703535
57.980 14.492964
57.985 14.443314
57.990 13.999012
57.995 14.125329
58.000 13.842996
58.005 14.403105
58.010 15.145457
58.015 15.466397
58.020 15.941367
58.025 16.509842
58.030 16.879625
58.035 17.278078
58.040 17.201553
58.045 16.733654
58.050 16.305067
58.055 15.717803
58.060 15.522051
58.065 15.476644
58.070 15.674611
58.075 15.981193
58.080 16.477625
58.085 16.894196
58.090 17.073681
58.095 16.93815
58.100 16.856276
58.105 16.503334
58.110 15.611147
58.115 14.891549
58.120 15.014938
58.125 15.039587
58.130 14.89331
58.135 14.689219
58.140 14.836911
58.145 15.455701
58.150 16.189333
58.155 16.872934
58.160 16.961901
58.165 17.154341
58.170 17.580338
58.175 17.594913
58.180 17.624592
58.185 17.409727
58.190 16.659542
58.195 16.77862
58.200 16.339153
58.205 15.843081
58.210 16.08534
58.215 15.825781
58.220 15.198783
58.225 14.796803
58.230 14.820866
58.235 15.825565
58.240 16.247965
58.245 15.97884
58.250 16.222363
58.255 16.769321
58.260 17.568638
58.265 17.914927
58.270 17.085629
58.275 16.717976
58.280 16.958147
58.285 17.739061
58.290 17.652538
58.295 17.185686
58.300 17.271555
58.305 18.153744
58.310 18.625065
58.315 18.69183
58.320 18.212473
58.325 18.531847
58.330 18.773695
58.335 18.829767
58.340 19.012466
58.345 19.496502
58.350 19.770424
58.355 19.752985
58.360 19.454803
58.365 19.747822
58.370 19.476879
58.375 19.370359
58.380 19.235924
58.385 19.407082
58.390 20.461552
58.395 21.011196
58.400 21.099655
58.405 22.208738
58.410 22.666286
58.415 22.911098
58.420 23.680889
58.425 23.128178
58.430 23.840897
58.435 24.548138
58.440 23.834454
58.445 24.065397
58.450 24.423599
58.455 24.35597
58.460 24.87101
58.465 24.479029
58.470 24.53713
58.475 25.03293
58.480 24.827038
58.485 24.332361
58.490 24.781931
58.495 25.017826
58.500 25.122328
58.505 24.720375
58.510 24.72073
58.515 25.017208
58.520 25.606787
58.525 25.959188
58.530 26.624908
