!@!!GADDS PLOTSO FILE: Chi integration type
!@!!Title/SampleName: map-5b
!@!!Comment: ?
!@!!User: Bruker Instrument Administrator
!@!!Site: University of Illinois Chicago
!@!!Frame: map-5b_01_000.gfrm
!@!!Wavelengths    1.54184   1.54056   1.54439
!@!!Frame angles: 2Theta: 63.000 Omega: 50.000 Phi: 0.000 Chi: 90.000
!@!!Integration range: 2Theta: 53.000 to 73.000  Gamma: -105.000 to -75.000
!@!!Integration method: bin normalized
!@!N
!@!SS
!@!M
!@!L 0.0 0.0 0.0 0.0
!@!XDegrees
!@!YCounts
53.000 8.835248
53.005 8.560806
53.010 8.460386
53.015 8.068688
53.020 8.357319
53.025 8.54457
53.030 8.745716
53.035 8.958161
53.040 8.888616
53.045 9.218961
53.050 9.361387
53.055 9.65668
53.060 10.02774
53.065 9.631987
53.070 9.551953
53.075 9.458858
53.080 8.946639
53.085 9.102593
53.090 8.369663
53.095 8.125952
53.100 8.321755
53.105 8.471084
53.110 8.74296
53.115 9.161767
53.120 9.057313
53.125 9.395936
53.130 9.855422
53.135 10.157701
53.140 9.741945
53.145 9.456303
53.150 9.392129
53.155 9.635502
53.160 9.429824
53.165 9.170427
53.170 9.435653
53.175 9.70037
53.180 9.853002
53.185 9.575424
53.190 9.384127
53.195 9.51608
53.200 8.979213
53.205 8.754099
53.210 8.649273
53.215 8.355094
53.220 8.120986
53.225 8.133137
53.230 8.138896
53.235 8.100718
53.240 8.365872
53.245 8.745343
53.250 8.914081
53.255 9.268844
53.260 9.424784
53.265 9.764091
53.270 10.239235
53.275 9.75523
53.280 9.869538
53.285 10.006432
53.290 9.73698
53.295 9.335592
53.300 9.490674
53.305 9.548847
53.310 9.756053
53.315 9.832019
53.320 10.173367
53.325 10.537327
53.330 10.93799
53.335 10.677261
53.340 10.639917
53.345 10.658873
53.350 10.52679
53.355 10.267429
53.360 10.084938
53.365 9.927011
53.370 10.123849
53.375 10.372493
53.380 10.298675
53.385 10.081411
53.390 9.995904
53.395 10.103649
53.400 10.009643
53.405 9.265846
53.410 9.108878
53.415 9.248129
53.420 9.670495
53.425 10.024147
53.430 10.4612
53.435 10.535207
53.440 11.174198
53.445 11.104357
53.450 10.58168
53.455 10.455388
53.460 10.045869
53.465 9.982207
53.470 10.00281
53.475 9.595193
53.480 9.651731
53.485 9.922807
53.490 9.885116
53.495 9.608271
53.500 9.746847
53.505 9.726157
53.510 9.743738
53.515 9.78104
53.520 9.848303
53.525 10.002851
53.530 9.760363
53.535 9.421023
53.540 9.784598
53.545 10.023078
53.550 10.39149
53.555 10.142468
53.560 9.972443
53.565 10.187998
53.570 10.142012
53.575 10.098908
53.580 9.823746
53.585 9.644434
53.590 9.933528
53.595 9.867417
53.600 9.975195
53.605 10.267605
53.610 10.387937
53.615 10.422781
53.620 10.241985
53.625 10.181437
53.630 10.399126
53.635 10.47465
53.640 10.467417
53.645 10.398692
53.650 9.974439
53.655 10.524222
53.660 10.79438
53.665 10.762465
53.670 10.324022
53.675 10.217197
53.680 10.608454
53.685 10.932344
53.690 10.541216
53.695 10.296411
53.700 10.537019
53.705 10.608812
53.710 11.051471
53.715 11.186552
53.720 11.178557
53.725 11.088642
53.730 10.817766
53.735 10.418098
53.740 10.238135
53.745 9.38231
53.750 8.96224
53.755 9.683674
53.760 9.827784
53.765 9.932625
53.770 10.489653
53.775 10.777162
53.780 10.958347
53.785 10.96638
53.790 10.787579
53.795 11.132107
53.800 11.021991
53.805 10.634394
53.810 11.029932
53.815 11.135736
53.820 11.15202
53.825 10.79088
53.830 10.69682
53.835 10.694482
53.840 11.070787
53.845 10.463464
53.850 9.919132
53.855 9.730151
53.860 9.730926
53.865 10.15752
53.870 10.510606
53.875 10.135876
53.880 10.379859
53.885 10.694671
53.890 10.67457
53.895 10.115507
53.900 9.589827
53.905 9.472009
53.910 9.796483
53.915 9.808541
53.920 9.627076
53.925 9.571246
53.930 9.955155
53.935 10.296632
53.940 10.136867
53.945 9.93954
53.950 10.083084
53.955 10.115954
53.960 10.218747
53.965 9.833951
53.970 9.88252
53.975 9.646902
53.980 9.906403
53.985 9.688686
53.990 9.453874
53.995 9.49532
54.000 9.299638
54.005 9.477719
54.010 9.414327
54.015 9.329388
54.020 9.626465
54.025 9.700735
54.030 9.854657
54.035 9.883225
54.040 9.701671
54.045 9.932982
54.050 9.684615
54.055 9.65943
54.060 9.89915
54.065 9.438186
54.070 9.357004
54.075 9.430367
54.080 9.410905
54.085 9.553275
54.090 9.616034
54.095 9.951097
54.100 10.659536
54.105 11.089863
54.110 10.869168
54.115 11.168962
54.120 11.295012
54.125 11.40232
54.130 11.087809
54.135 10.961291
54.140 10.628889
54.145 11.125206
54.150 11.535855
54.155 11.658291
54.160 11.557892
54.165 11.539892
54.170 11.56196
54.175 11.419048
54.180 10.602567
54.185 10.200165
54.190 10.014851
54.195 10.038971
54.200 10.252986
54.205 10.349125
54.210 10.554502
54.215 10.972237
54.220 10.937132
54.225 10.839404
54.230 10.853518
54.235 11.120623
54.240 11.20295
54.245 11.666655
54.250 11.386399
54.255 11.713736
54.260 12.174767
54.265 12.248436
54.270 11.648355
54.275 11.535387
54.280 11.072388
54.285 10.96706
54.290 10.73025
54.295 10.68302
54.300 10.787116
54.305 10.78373
54.310 10.810313
54.315 10.505632
54.320 10.559393
54.325 10.489958
54.330 10.312413
54.335 10.631586
54.340 10.442639
54.345 10.781527
54.350 11.156661
54.355 11.656344
54.360 11.987741
54.365 12.064918
54.370 12.141397
54.375 12.237683
54.380 12.187938
54.385 11.842426
54.390 11.369321
54.395 10.963621
54.400 10.456204
54.405 10.696695
54.410 10.8908
54.415 11.164248
54.420 11.297286
54.425 11.284722
54.430 11.469936
54.435 11.687785
54.440 11.21787
54.445 10.777384
54.450 10.764537
54.455 10.999611
54.460 11.270113
54.465 11.569447
54.470 12.094903
54.475 12.297043
54.480 12.223139
54.485 11.92921
54.490 11.906913
54.495 11.530447
54.500 11.394998
54.505 11.416612
54.510 11.758354
54.515 11.877308
54.520 11.903199
54.525 12.086858
54.530 12.130728
54.535 11.928699
54.540 11.413925
54.545 11.382988
54.550 11.559569
54.555 11.435337
54.560 11.146255
54.565 11.012383
54.570 11.129296
54.575 10.731557
54.580 10.648745
54.585 11.042593
54.590 11.45248
54.595 11.429001
54.600 11.287667
54.605 11.065843
54.610 11.125056
54.615 11.121765
54.620 10.695129
54.625 10.336025
54.630 10.579682
54.635 10.745072
54.640 10.478583
54.645 10.160791
54.650 9.523149
54.655 9.831966
54.660 10.406353
54.665 10.80959
54.670 11.002212
54.675 11.677105
54.680 11.964864
54.685 12.20903
54.690 11.838632
54.695 11.347756
54.700 11.192311
54.705 11.440268
54.710 11.261784
54.715 11.265381
54.720 11.562371
54.725 11.844166
54.730 11.826185
54.735 11.494064
54.740 10.814523
54.745 11.083519
54.750 11.216476
54.755 10.970763
54.760 11.164727
54.765 10.811934
54.770 10.874391
54.775 10.931759
54.780 11.090438
54.785 10.935642
54.790 10.969914
54.795 11.037514
54.800 11.526698
54.805 11.657088
54.810 11.455988
54.815 11.113874
54.820 11.132538
54.825 11.271476
54.830 10.983749
54.835 10.427362
54.840 10.322753
54.845 10.764157
54.850 10.993118
54.855 10.621753
54.860 9.942188
54.865 10.151232
54.870 10.407392
54.875 10.913927
54.880 10.521523
54.885 10.264083
54.890 10.559422
54.895 10.916872
54.900 10.985989
54.905 10.899768
54.910 11.494592
54.915 11.932897
54.920 12.525256
54.925 12.442154
54.930 12.202422
54.935 11.927658
54.940 11.728809
54.945 10.875846
54.950 10.714203
54.955 10.304049
54.960 10.835976
54.965 11.484501
54.970 11.700287
54.975 11.57229
54.980 11.834474
54.985 12.297627
54.990 12.211655
54.995 12.051211
55.000 11.686358
55.005 11.623132
55.010 11.89882
55.015 11.81726
55.020 11.772403
55.025 12.158155
55.030 12.101829
55.035 12.233516
55.040 12.614421
55.045 12.236841
55.050 12.255593
55.055 12.304502
55.060 12.080583
55.065 11.627745
55.070 11.719239
55.075 11.493581
55.080 11.699263
55.085 10.902836
55.090 10.189659
55.095 10.404462
55.100 10.764999
55.105 10.766278
55.110 10.930225
55.115 11.030159
55.120 11.394443
55.125 11.600432
55.130 11.745747
55.135 11.70982
55.140 11.743598
55.145 11.272017
55.150 11.021968
55.155 11.185592
55.160 11.045964
55.165 11.002388
55.170 11.135722
55.175 11.140611
55.180 11.676851
55.185 11.776309
55.190 11.796423
55.195 11.7343
55.200 11.881382
55.205 11.850896
55.210 11.785777
55.215 11.941973
55.220 12.231861
55.225 12.204176
55.230 12.142182
55.235 12.314498
55.240 12.285987
55.245 12.355462
55.250 12.037711
55.255 11.829168
55.260 12.109837
55.265 12.294127
55.270 12.058584
55.275 11.956832
55.280 12.116764
55.285 12.082698
55.290 11.505762
55.295 11.448351
55.300 11.40856
55.305 11.496119
55.310 11.311254
55.315 11.066955
55.320 11.38715
55.325 11.828095
55.330 11.758995
55.335 11.433145
55.340 11.54913
55.345 11.131687
55.350 11.173884
55.355 10.90197
55.360 10.767876
55.365 10.838097
55.370 10.763044
55.375 10.762317
55.380 11.217876
55.385 11.127728
55.390 11.191339
55.395 11.378125
55.400 11.440822
55.405 11.394135
55.410 11.942905
55.415 12.33365
55.420 12.668962
55.425 12.843586
55.430 12.887014
55.435 13.181567
55.440 13.293799
55.445 12.118709
55.450 11.8325
55.455 11.76141
55.460 11.484914
55.465 11.156322
55.470 10.860655
55.475 11.193846
55.480 11.752458
55.485 11.655722
55.490 11.544434
55.495 11.531791
55.500 11.419026
55.505 11.53659
55.510 11.405465
55.515 11.114444
55.520 11.329326
55.525 11.21992
55.530 11.391576
55.535 11.931257
55.540 11.949152
55.545 12.328774
55.550 12.818662
55.555 12.302884
55.560 12.46964
55.565 12.498523
55.570 12.667029
55.575 12.403994
55.580 11.759287
55.585 11.425553
55.590 11.935527
55.595 11.922924
55.600 11.668676
55.605 11.471768
55.610 11.703986
55.615 11.771525
55.620 12.031215
55.625 12.213613
55.630 12.440575
55.635 12.314308
55.640 12.251985
55.645 12.01447
55.650 12.072409
55.655 11.672697
55.660 11.290683
55.665 11.219701
55.670 11.438508
55.675 11.78437
55.680 11.933817
55.685 12.373239
55.690 12.869814
55.695 12.79495
55.700 12.190538
55.705 12.010091
55.710 11.522161
55.715 11.529588
55.720 11.366092
55.725 11.93047
55.730 12.510932
55.735 12.849993
55.740 13.106412
55.745 13.289531
55.750 13.599599
55.755 13.666612
55.760 12.8297
55.765 12.205602
55.770 12.012751
55.775 11.780371
55.780 11.540307
55.785 11.207795
55.790 11.126117
55.795 10.833124
55.800 10.824765
55.805 11.212473
55.810 11.167932
55.815 11.577429
55.820 11.573679
55.825 11.741133
55.830 12.697634
55.835 13.437827
55.840 13.575082
55.845 13.892584
55.850 13.788449
55.855 13.641053
55.860 13.271888
55.865 13.406317
55.870 13.416404
55.875 13.262688
55.880 13.0245
55.885 12.866763
55.890 13.198802
55.895 13.23345
55.900 12.53953
55.905 11.930552
55.910 11.59222
55.915 11.74285
55.920 11.598774
55.925 11.366681
55.930 11.441919
55.935 11.485255
55.940 12.112464
55.945 12.440012
55.950 12.804004
55.955 13.197215
55.960 13.004578
55.965 12.901611
55.970 13.165446
55.975 12.505804
55.980 12.485169
55.985 12.260086
55.990 11.683702
55.995 11.73498
56.000 11.461999
56.005 10.985942
56.010 11.585964
56.015 11.447461
56.020 11.515868
56.025 11.703097
56.030 12.048072
56.035 12.683912
56.040 13.457723
56.045 13.580731
56.050 13.62431
56.055 13.404607
56.060 13.670009
56.065 13.323249
56.070 12.785552
56.075 12.439646
56.080 12.208053
56.085 12.025406
56.090 12.062125
56.095 12.051546
56.100 11.928734
56.105 11.642449
56.110 11.437279
56.115 11.501786
56.120 11.929264
56.125 12.030908
56.130 12.504893
56.135 12.890743
56.140 13.117918
56.145 13.541196
56.150 13.516266
56.155 13.390178
56.160 13.166836
56.165 12.879666
56.170 12.831446
56.175 12.877623
56.180 12.812303
56.185 12.724977
56.190 12.834092
56.195 13.106188
56.200 13.132438
56.205 12.9809
56.210 13.016692
56.215 12.793434
56.220 12.965033
56.225 13.789865
56.230 13.853863
56.235 14.23431
56.240 14.395139
56.245 14.808386
56.250 15.373159
56.255 14.989137
56.260 14.068343
56.265 14.105621
56.270 14.57718
56.275 14.532121
56.280 14.132242
56.285 13.94254
56.290 14.827847
56.295 15.764283
56.300 15.396156
56.305 15.095897
56.310 14.771815
56.315 14.862966
56.320 15.233335
56.325 14.406565
56.330 14.019511
56.335 13.95905
56.340 13.596559
56.345 13.608218
56.350 13.606239
56.355 13.520728
56.360 13.178533
56.365 12.884444
56.370 12.64283
56.375 12.655857
56.380 12.727396
56.385 12.313984
56.390 12.013571
56.395 12.095622
56.400 12.277567
56.405 12.851724
56.410 12.605028
56.415 12.667391
56.420 12.57892
56.425 12.780335
56.430 12.911031
56.435 12.846613
56.440 12.915595
56.445 12.885213
56.450 13.041199
56.455 12.60841
56.460 12.890711
56.465 12.424047
56.470 12.107242
56.475 12.181337
56.480 12.435071
56.485 12.241129
56.490 12.665268
56.495 12.474434
56.500 13.109802
56.505 13.116432
56.510 13.407334
56.515 13.268838
56.520 13.804211
56.525 13.748363
56.530 13.882683
56.535 13.69385
56.540 13.558596
56.545 13.485554
56.550 13.542427
56.555 13.138933
56.560 13.063654
56.565 13.0216
56.570 13.282722
56.575 13.261958
56.580 12.976584
56.585 13.228133
56.590 12.856453
56.595 12.708024
56.600 12.789419
56.605 12.897038
56.610 12.95579
56.615 13.092086
56.620 13.328955
56.625 13.344537
56.630 13.525782
56.635 14.024826
56.640 13.961879
56.645 14.029014
56.650 14.019375
56.655 13.942243
56.660 14.610538
56.665 14.749463
56.670 14.557901
56.675 14.898334
56.680 14.891638
56.685 14.968017
56.690 14.819596
56.695 14.704459
56.700 14.123021
56.705 13.69597
56.710 13.618398
56.715 13.756314
56.720 14.211001
56.725 14.350178
56.730 13.849676
56.735 14.133033
56.740 14.358683
56.745 14.417313
56.750 14.463269
56.755 14.115129
56.760 13.92136
56.765 14.129387
56.770 14.23421
56.775 14.376156
56.780 14.490255
56.785 14.402541
56.790 14.350768
56.795 14.427919
56.800 14.299249
56.805 13.989191
56.810 13.533134
56.815 13.792133
56.820 13.895869
56.825 14.277152
56.830 14.559271
56.835 14.529963
56.840 14.776174
56.845 15.123464
56.850 14.476575
56.855 13.730701
56.860 13.293545
56.865 12.956551
56.870 13.405205
56.875 13.106635
56.880 12.802546
56.885 13.024057
56.890 13.193311
56.895 13.241235
56.900 13.187595
56.905 13.077579
56.910 12.979153
56.915 12.75709
56.920 13.202534
56.925 13.379028
56.930 12.958394
56.935 12.657922
56.940 12.582774
56.945 12.586688
56.950 12.53113
56.955 12.297817
56.960 12.445726
56.965 12.799114
56.970 13.17718
56.975 13.214748
56.980 13.229905
56.985 13.332251
56.990 13.346585
56.995 13.474487
57.000 13.322627
57.005 13.209857
57.010 13.078262
57.015 13.256895
57.020 12.627793
57.025 12.619837
57.030 12.206106
57.035 12.369112
57.040 12.427824
57.045 12.216599
57.050 12.41337
57.055 12.749533
57.060 12.654798
57.065 13.244435
57.070 13.448971
57.075 13.841956
57.080 14.001248
57.085 13.767869
57.090 14.114563
57.095 14.493645
57.100 14.055406
57.105 14.395911
57.110 14.891244
57.115 15.336275
57.120 15.711869
57.125 15.623359
57.130 15.338771
57.135 15.491466
57.140 15.046662
57.145 13.832125
57.150 13.654006
57.155 13.009489
57.160 12.633036
57.165 12.731332
57.170 13.045034
57.175 12.934278
57.180 13.379104
57.185 13.466279
57.190 13.88555
57.195 13.673103
57.200 13.200989
57.205 12.873576
57.210 13.269267
57.215 13.406132
57.220 13.405332
57.225 13.502524
57.230 13.800529
57.235 13.771853
57.240 14.058908
57.245 14.427019
57.250 14.27907
57.255 14.605872
57.260 14.849662
57.265 15.138998
57.270 15.671162
57.275 15.449411
57.280 14.904916
57.285 15.078889
57.290 14.572698
57.295 14.088223
57.300 13.907393
57.305 13.268412
57.310 12.901771
57.315 12.624519
57.320 12.277553
57.325 12.616144
57.330 12.712728
57.335 12.637518
57.340 12.863299
57.345 12.70331
57.350 12.894738
57.355 13.097719
57.360 12.979545
57.365 13.091817
57.370 13.198864
57.375 13.159281
57.380 13.689996
57.385 14.193642
57.390 14.447273
57.395 14.397141
57.400 14.515707
57.405 14.939793
57.410 15.215576
57.415 14.719924
57.420 14.105497
57.425 13.440064
57.430 13.082356
57.435 13.114644
57.440 12.865005
57.445 12.664131
57.450 13.347312
57.455 13.988947
57.460 14.680097
57.465 14.741611
57.470 14.555131
57.475 14.795911
57.480 14.613756
57.485 14.085187
57.490 13.299412
57.495 12.95623
57.500 13.111097
57.505 13.28638
57.510 13.005349
57.515 13.010215
57.520 13.133514
57.525 13.508027
57.530 13.713794
57.535 13.776225
57.540 13.264938
57.545 12.940479
57.550 12.863991
57.555 12.773198
57.560 13.242932
57.565 13.321903
57.570 13.588209
57.575 14.283168
57.580 14.727069
57.585 14.780761
57.590 14.714001
57.595 14.551535
57.600 14.050778
57.605 13.476161
57.610 13.638473
57.615 14.248559
57.620 15.060832
57.625 15.850977
57.630 15.6473
57.635 15.929943
57.640 15.925218
57.645 15.116134
57.650 14.740882
57.655 14.767666
57.660 14.61279
57.665 14.866869
57.670 14.659144
57.675 14.836821
57.680 15.207081
57.685 15.245296
57.690 14.772669
57.695 13.952128
57.700 14.219503
57.705 15.025537
57.710 15.2503
57.715 15.405317
57.720 14.980806
57.725 14.999813
57.730 15.175546
57.735 14.520069
57.740 14.403964
57.745 14.152113
57.750 14.000113
57.755 13.791414
57.760 13.592461
57.765 14.037299
57.770 14.128347
57.775 14.431482
57.780 14.877679
57.785 14.875211
57.790 14.821472
57.795 14.669716
57.800 14.284954
57.805 14.560968
57.810 14.134332
57.815 13.991676
57.820 14.259813
57.825 14.509211
57.830 14.695906
57.835 14.565132
57.840 14.228758
57.845 14.39047
57.850 13.921597
57.855 13.741106
57.860 13.320316
57.865 13.641859
57.870 14.24706
57.875 13.837387
57.880 13.645775
57.885 14.097156
57.890 14.231789
57.895 14.483653
57.900 14.240066
57.905 14.428981
57.910 14.700986
57.915 14.667562
57.920 14.280931
57.925 13.949836
57.930 13.817844
57.935 13.700568
57.940 14.035675
57.945 14.143246
57.950 14.003264
57.955 14.251497
57.960 14.561404
57.965 15.077155
57.970 15.232624
57.975 14.221752
57.980 14.154417
57.985 14.236699
57.990 13.914313
57.995 13.766702
58.000 13.302392
58.005 13.558299
58.010 13.676197
58.015 14.346707
58.020 14.837346
58.025 15.133294
58.030 15.39967
58.035 15.519715
58.040 16.08032
58.045 16.239395
58.050 15.673324
58.055 15.671513
58.060 16.045824
58.065 15.919283
58.070 15.461759
58.075 14.797182
58.080 14.372712
58.085 14.080319
58.090 14.209286
58.095 13.886053
58.100 13.956347
58.105 14.277605
58.110 14.937114
58.115 15.685674
58.120 15.598124
58.125 15.411667
58.130 15.210272
58.135 15.417655
58.140 15.683415
58.145 15.568722
58.150 15.284636
58.155 15.254
58.160 15.11772
58.165 15.70745
58.170 15.663375
58.175 15.529815
58.180 14.890588
58.185 15.021732
58.190 15.142715
58.195 15.196454
58.200 15.183236
58.205 15.134574
58.210 14.904801
58.215 15.348759
58.220 15.51686
58.225 15.178432
58.230 15.127565
58.235 14.747042
58.240 14.707662
58.245 14.642642
58.250 14.597112
58.255 15.324947
58.260 15.826751
58.265 16.23797
58.270 16.631071
58.275 16.711466
58.280 16.17486
58.285 15.926196
58.290 15.314537
58.295 14.658637
58.300 14.383853
58.305 14.05094
58.310 13.891866
58.315 13.672346
58.320 13.158869
58.325 12.913829
58.330 13.113588
58.335 13.323149
58.340 13.57888
58.345 14.309084
58.350 15.242499
58.355 15.611667
58.360 15.968265
58.365 16.235741
58.370 15.660129
58.375 14.996231
58.380 14.3435
58.385 13.590247
58.390 13.835462
58.395 13.603584
58.400 13.460048
58.405 13.886687
58.410 14.387134
58.415 14.962833
58.420 15.418676
58.425 15.349038
58.430 15.45948
58.435 15.163557
58.440 15.117465
58.445 14.864414
58.450 14.60244
58.455 14.164087
58.460 14.047101
58.465 13.825851
58.470 14.183507
58.475 14.07993
58.480 14.50421
