!@!!GADDS PLOTSO FILE: Chi integration type
!@!!Title/SampleName: map-15d
!@!!Comment: ?
!@!!User: Bruker Instrument Administrator
!@!!Site: University of Illinois Chicago
!@!!Frame: map-15d_01_000.gfrm
!@!!Wavelengths    1.54184   1.54056   1.54439
!@!!Frame angles: 2Theta: 63.000 Omega: 50.000 Phi: 0.000 Chi: 90.000
!@!!Integration range: 2Theta: 53.000 to 73.000  Gamma: -105.000 to -75.000
!@!!Integration method: bin normalized
!@!N
!@!SS
!@!M
!@!L 0.0 0.0 0.0 0.0
!@!XDegrees
!@!YCounts
53.000 7.113729
53.005 6.926221
53.010 6.739867
53.015 6.694926
53.020 6.855782
53.025 6.962582
53.030 6.918268
53.035 7.337014
53.040 7.304022
53.045 7.031774
53.050 7.239734
53.055 7.437541
53.060 7.52498
53.065 7.436913
53.070 7.397483
53.075 7.653529
53.080 7.586861
53.085 7.088933
53.090 6.952523
53.095 6.697702
53.100 6.38179
53.105 6.177103
53.110 6.078852
53.115 6.115558
53.120 6.261502
53.125 6.184643
53.130 6.37513
53.135 6.730594
53.140 6.620796
53.145 6.528147
53.150 6.648054
53.155 6.76385
53.160 6.751879
53.165 6.801569
53.170 6.694333
53.175 6.843541
53.180 7.022893
53.185 6.996181
53.190 6.962868
53.195 6.88412
53.200 6.807858
53.205 7.070702
53.210 6.902827
53.215 6.454515
53.220 6.587402
53.225 6.737809
53.230 6.619599
53.235 6.518431
53.240 6.457533
53.245 6.556636
53.250 6.971273
53.255 6.751737
53.260 6.752798
53.265 6.408
53.270 6.242087
53.275 6.19019
53.280 5.864777
53.285 5.587339
53.290 5.612003
53.295 5.851975
53.300 6.433194
53.305 6.698053
53.310 6.800311
53.315 7.210746
53.320 7.477345
53.325 7.652129
53.330 7.765377
53.335 7.644483
53.340 7.476408
53.345 7.258172
53.350 7.185792
53.355 7.059998
53.360 6.931272
53.365 6.77302
53.370 6.830634
53.375 7.323932
53.380 7.542074
53.385 7.515719
53.390 7.557467
53.395 7.639975
53.400 7.616142
53.405 7.754424
53.410 7.787919
53.415 7.587505
53.420 7.281911
53.425 7.029102
53.430 7.324259
53.435 7.023825
53.440 6.396889
53.445 6.582412
53.450 6.834343
53.455 6.990491
53.460 6.90144
53.465 6.805475
53.470 7.023609
53.475 7.135516
53.480 6.933441
53.485 7.175147
53.490 6.844258
53.495 6.873832
53.500 6.668035
53.505 6.834321
53.510 6.92445
53.515 6.708097
53.520 6.510432
53.525 6.483319
53.530 6.455843
53.535 6.399353
53.540 6.025123
53.545 5.953311
53.550 6.061431
53.555 6.173052
53.560 6.422765
53.565 6.5674
53.570 6.978308
53.575 7.281843
53.580 7.691428
53.585 8.001683
53.590 7.932623
53.595 7.921654
53.600 7.773048
53.605 7.313613
53.610 7.130681
53.615 7.133814
53.620 7.018482
53.625 6.644485
53.630 6.60758
53.635 6.558002
53.640 6.884102
53.645 6.845499
53.650 6.4605
53.655 6.408751
53.660 7.072275
53.665 7.327283
53.670 7.402663
53.675 6.910029
53.680 7.074187
53.685 7.247194
53.690 7.248195
53.695 6.804976
53.700 6.420496
53.705 6.484597
53.710 6.642388
53.715 6.341305
53.720 6.200719
53.725 5.910481
53.730 5.885042
53.735 5.647965
53.740 5.605381
53.745 5.934864
53.750 6.081799
53.755 6.013906
53.760 6.426054
53.765 6.724533
53.770 7.212382
53.775 6.975643
53.780 6.868865
53.785 7.577881
53.790 7.761083
53.795 7.547085
53.800 7.551446
53.805 7.738747
53.810 8.123267
53.815 7.563875
53.820 7.523749
53.825 7.904953
53.830 8.253169
53.835 8.490348
53.840 8.156074
53.845 8.097426
53.850 8.51874
53.855 8.262109
53.860 7.97086
53.865 7.392755
53.870 6.92815
53.875 7.273259
53.880 6.870965
53.885 6.558098
53.890 6.70078
53.895 6.981444
53.900 7.728779
53.905 7.709986
53.910 7.641895
53.915 7.648296
53.920 7.549773
53.925 7.210647
53.930 7.0896
53.935 6.902575
53.940 6.923765
53.945 6.778514
53.950 6.694884
53.955 6.550053
53.960 6.421175
53.965 6.536835
53.970 6.460369
53.975 6.77997
53.980 7.087082
53.985 7.753489
53.990 7.998645
53.995 8.132421
54.000 8.082154
54.005 8.148271
54.010 8.267443
54.015 8.303358
54.020 8.018314
54.025 8.19532
54.030 7.901107
54.035 7.461555
54.040 7.384174
54.045 7.40267
54.050 7.231059
54.055 7.417933
54.060 7.695521
54.065 7.70281
54.070 7.762912
54.075 7.596965
54.080 7.584297
54.085 7.737593
54.090 7.512167
54.095 7.523067
54.100 7.989223
54.105 8.344234
54.110 8.324371
54.115 8.384695
54.120 8.491927
54.125 8.490883
54.130 8.398987
54.135 8.053333
54.140 7.401804
54.145 7.294074
54.150 6.894641
54.155 6.369372
54.160 6.432708
54.165 6.205278
54.170 6.511479
54.175 6.834879
54.180 6.990119
54.185 7.152988
54.190 7.347888
54.195 7.336405
54.200 7.459381
54.205 7.491386
54.210 7.77423
54.215 7.941266
54.220 8.336004
54.225 8.469476
54.230 8.51041
54.235 8.501479
54.240 8.258661
54.245 8.045693
54.250 7.652552
54.255 7.30514
54.260 7.001003
54.265 6.99224
54.270 6.982744
54.275 6.712756
54.280 6.816914
54.285 6.548967
54.290 6.608485
54.295 6.405394
54.300 6.49122
54.305 6.633382
54.310 6.885912
54.315 7.143138
54.320 7.249024
54.325 7.431758
54.330 7.500068
54.335 7.109756
54.340 7.409917
54.345 7.127454
54.350 6.61019
54.355 6.755614
54.360 6.821751
54.365 6.820648
54.370 7.343292
54.375 6.881857
54.380 7.465849
54.385 7.933095
54.390 7.939369
54.395 8.279727
54.400 8.0184
54.405 7.739607
54.410 7.744116
54.415 7.062956
54.420 6.681438
54.425 6.668848
54.430 6.589914
54.435 6.709397
54.440 6.543329
54.445 6.607915
54.450 6.896736
54.455 6.933383
54.460 6.658528
54.465 6.752787
54.470 7.268231
54.475 7.433273
54.480 7.431812
54.485 7.26103
54.490 7.456672
54.495 7.528753
54.500 7.240775
54.505 6.919348
54.510 6.7784
54.515 6.908236
54.520 7.06302
54.525 6.912875
54.530 6.376401
54.535 6.643008
54.540 6.965002
54.545 7.295756
54.550 7.161144
54.555 6.989084
54.560 7.114662
54.565 7.326967
54.570 7.100132
54.575 6.564744
54.580 6.172996
54.585 6.730178
54.590 7.075041
54.595 6.990242
54.600 6.817523
54.605 6.871408
54.610 7.29709
54.615 7.748158
54.620 7.512335
54.625 7.449321
54.630 7.625243
54.635 7.939609
54.640 7.739231
54.645 7.510372
54.650 7.134041
54.655 7.556432
54.660 7.778221
54.665 7.677516
54.670 7.255487
54.675 7.536663
54.680 8.344889
54.685 8.749537
54.690 8.501297
54.695 8.071073
54.700 8.310143
54.705 8.655487
54.710 8.517941
54.715 7.972083
54.720 7.610102
54.725 7.17426
54.730 7.386228
54.735 7.177754
54.740 7.00082
54.745 7.080499
54.750 7.065905
54.755 7.303686
54.760 7.441507
54.765 7.486976
54.770 8.093865
54.775 8.47647
54.780 8.351647
54.785 8.752996
54.790 8.769469
54.795 8.791457
54.800 8.697672
54.805 8.241611
54.810 8.051657
54.815 7.965312
54.820 7.679489
54.825 7.688127
54.830 7.671808
54.835 7.577806
54.840 7.45113
54.845 6.996951
54.850 6.788946
54.855 7.191099
54.860 7.704629
54.865 8.199446
54.870 8.403849
54.875 8.770567
54.880 9.079329
54.885 9.197519
54.890 8.827816
54.895 8.417288
54.900 7.917255
54.905 7.229912
54.910 7.158729
54.915 7.123559
54.920 7.101787
54.925 6.871745
54.930 6.662509
54.935 6.842982
54.940 7.07485
54.945 7.100769
54.950 7.375974
54.955 7.283303
54.960 7.657218
54.965 7.979141
54.970 8.077846
54.975 8.183266
54.980 7.986794
54.985 7.869326
54.990 7.477902
54.995 7.180088
55.000 7.389523
55.005 7.79598
55.010 8.277447
55.015 8.787108
55.020 8.911802
55.025 9.206547
55.030 9.181275
55.035 8.799027
55.040 8.637189
55.045 8.423642
55.050 8.091039
55.055 7.967676
55.060 8.043636
55.065 8.255954
55.070 8.108411
55.075 7.87032
55.080 7.447017
55.085 7.018096
55.090 7.123041
55.095 6.788512
55.100 6.646439
55.105 6.833342
55.110 7.036298
55.115 7.629863
55.120 7.827293
55.125 7.916472
55.130 8.039726
55.135 7.788552
55.140 7.735365
55.145 7.732557
55.150 7.350133
55.155 7.403457
55.160 7.544566
55.165 7.622949
55.170 7.716779
55.175 7.615988
55.180 7.471054
55.185 7.84546
55.190 7.967031
55.195 8.128308
55.200 8.149871
55.205 8.001125
55.210 8.337584
55.215 8.949917
55.220 8.77081
55.225 8.778908
55.230 8.775354
55.235 8.766147
55.240 9.241076
55.245 8.805765
55.250 8.529617
55.255 8.590433
55.260 8.28154
55.265 8.555584
55.270 8.644896
55.275 8.303082
55.280 8.163651
55.285 8.154575
55.290 8.009479
55.295 7.526784
55.300 7.451461
55.305 7.442487
55.310 7.618293
55.315 7.665925
55.320 7.944337
55.325 8.250517
55.330 8.536524
55.335 8.373931
55.340 8.24577
55.345 7.875034
55.350 7.581025
55.355 7.171219
55.360 7.39297
55.365 7.238029
55.370 7.057113
55.375 6.896659
55.380 7.03735
55.385 7.1253
55.390 7.178488
55.395 7.571107
55.400 7.710896
55.405 7.766003
55.410 8.405368
55.415 8.663627
55.420 9.20026
55.425 8.976687
55.430 8.506989
55.435 8.508374
55.440 8.646132
55.445 8.445041
55.450 8.21736
55.455 7.99067
55.460 8.300464
55.465 8.276256
55.470 8.000835
55.475 7.696049
55.480 7.931551
55.485 8.212647
55.490 8.064065
55.495 7.779522
55.500 7.866343
55.505 8.524569
55.510 9.088135
55.515 8.563848
55.520 8.247584
55.525 8.195081
55.530 8.258972
55.535 8.370597
55.540 7.940746
55.545 7.579791
55.550 8.188075
55.555 8.144506
55.560 7.602332
55.565 7.180263
55.570 6.638243
55.575 6.654244
55.580 6.562506
55.585 6.226207
55.590 6.380136
55.595 7.052819
55.600 7.784164
55.605 8.044007
55.610 8.472562
55.615 8.729013
55.620 8.830829
55.625 8.922419
55.630 8.449307
55.635 8.207268
55.640 8.368402
55.645 8.201921
55.650 8.011919
55.655 8.029076
55.660 7.758138
55.665 8.040051
55.670 7.506407
55.675 7.338359
55.680 7.303128
55.685 7.267035
55.690 7.402918
55.695 7.644027
55.700 7.705951
55.705 7.861379
55.710 7.611158
55.715 7.778931
55.720 7.990539
55.725 7.83115
55.730 7.796834
55.735 7.67578
55.740 8.043832
55.745 8.045114
55.750 7.894882
55.755 7.576293
55.760 7.590121
55.765 7.75942
55.770 7.705402
55.775 7.844285
55.780 7.989501
55.785 7.899644
55.790 7.769564
55.795 7.683908
55.800 7.63509
55.805 7.933146
55.810 7.774962
55.815 7.867286
55.820 7.976101
55.825 8.077621
55.830 8.370067
55.835 8.901999
55.840 8.881602
55.845 8.749705
55.850 8.889192
55.855 8.695191
55.860 8.592147
55.865 8.15011
55.870 7.470071
55.875 7.627128
55.880 7.508581
55.885 7.268309
55.890 7.526154
55.895 7.787875
55.900 7.982705
55.905 8.659132
55.910 8.830379
55.915 8.791543
55.920 8.729213
55.925 8.353333
55.930 7.904819
55.935 7.745163
55.940 7.138099
55.945 7.169836
55.950 7.789993
55.955 7.711828
55.960 7.636413
55.965 8.05211
55.970 7.849403
55.975 7.673041
55.980 7.198219
55.985 6.991642
55.990 7.24212
55.995 7.249195
56.000 7.033525
56.005 7.317587
56.010 6.822725
56.015 6.716177
56.020 6.560968
56.025 6.633362
56.030 6.658568
56.035 7.052405
56.040 7.0801
56.045 7.475504
56.050 7.560321
56.055 7.763154
56.060 7.859694
56.065 8.134505
56.070 8.143155
56.075 8.189197
56.080 8.345756
56.085 8.485637
56.090 8.279439
56.095 8.186499
56.100 7.787079
56.105 7.657464
56.110 7.57878
56.115 7.717304
56.120 7.468113
56.125 7.911544
56.130 8.188996
56.135 8.220465
56.140 8.221984
56.145 8.399365
56.150 8.651947
56.155 8.706203
56.160 8.372468
56.165 8.847183
56.170 9.028233
56.175 8.953507
56.180 8.288307
56.185 7.763438
56.190 7.586815
56.195 7.253191
56.200 6.536642
56.205 6.703516
56.210 6.960074
56.215 7.48544
56.220 7.47988
56.225 7.642207
56.230 7.696235
56.235 7.621767
56.240 7.791459
56.245 8.000768
56.250 7.514763
56.255 7.594302
56.260 7.673721
56.265 8.019076
56.270 8.278124
56.275 8.137227
56.280 8.112199
56.285 8.54832
56.290 8.726914
56.295 8.651271
56.300 8.592337
56.305 8.563648
56.310 8.650347
56.315 9.107855
56.320 9.096945
56.325 9.253093
56.330 9.397712
56.335 9.229697
56.340 9.058049
56.345 8.802727
56.350 8.790752
56.355 8.986423
56.360 9.02423
56.365 8.90709
56.370 9.211716
56.375 9.472203
56.380 9.254955
56.385 9.1743
56.390 8.822094
56.395 8.440961
56.400 8.316741
56.405 8.095976
56.410 7.989931
56.415 7.921272
56.420 7.529889
56.425 7.711139
56.430 7.815141
56.435 7.583916
56.440 7.708986
56.445 7.838105
56.450 8.069129
56.455 8.210879
56.460 8.390145
56.465 8.87958
56.470 9.367446
56.475 9.088843
56.480 8.807273
56.485 8.589667
56.490 8.940934
56.495 8.959666
56.500 8.706532
56.505 8.340327
56.510 8.5322
56.515 8.9236
56.520 9.344696
56.525 9.169041
56.530 9.039026
56.535 9.125227
56.540 9.152051
56.545 9.090743
56.550 8.757753
56.555 8.68114
56.560 8.622217
56.565 8.232964
56.570 8.120086
56.575 8.161474
56.580 8.278064
56.585 8.20487
56.590 8.127567
56.595 8.202364
56.600 8.529329
56.605 8.934767
56.610 9.062149
56.615 9.008216
56.620 9.000712
56.625 8.944329
56.630 9.235369
56.635 9.216073
56.640 8.774806
56.645 8.543749
56.650 8.141838
56.655 8.256567
56.660 8.281707
56.665 8.171882
56.670 8.538219
56.675 8.651136
56.680 8.960937
56.685 9.361804
56.690 9.299934
56.695 8.850062
56.700 8.821467
56.705 8.579556
56.710 8.647972
56.715 8.11944
56.720 7.802048
56.725 7.866663
56.730 7.96164
56.735 7.815425
56.740 7.379184
56.745 7.39474
56.750 7.906822
56.755 8.109876
56.760 7.874309
56.765 7.523725
56.770 7.493919
56.775 7.63617
56.780 7.549776
56.785 7.371463
56.790 7.369271
56.795 7.746396
56.800 8.104609
56.805 7.996474
56.810 7.705334
56.815 7.711702
56.820 7.785686
56.825 7.607719
56.830 7.082704
56.835 6.853246
56.840 7.196356
56.845 7.860633
56.850 7.800868
56.855 7.570237
56.860 7.429855
56.865 7.936221
56.870 8.383904
56.875 8.47621
56.880 8.133105
56.885 8.04097
56.890 8.145515
56.895 8.452224
56.900 8.129553
56.905 7.877147
56.910 7.556434
56.915 7.488719
56.920 7.795705
56.925 7.792089
56.930 7.795245
56.935 8.229957
56.940 8.168322
56.945 8.660019
56.950 8.442274
56.955 8.210873
56.960 8.20974
56.965 7.98125
56.970 7.860202
56.975 7.769859
56.980 8.054217
56.985 8.495143
56.990 8.378601
56.995 8.221028
57.000 8.28795
57.005 8.23385
57.010 8.011312
57.015 7.664735
57.020 7.752994
57.025 8.170842
57.030 8.188644
57.035 8.322084
57.040 8.40616
57.045 8.734072
57.050 8.713579
57.055 8.443411
57.060 8.527994
57.065 8.759613
57.070 8.484366
57.075 8.336276
57.080 7.984397
57.085 7.862184
57.090 7.597259
57.095 7.184103
57.100 7.386602
57.105 7.57013
57.110 7.611241
57.115 8.025696
57.120 7.94736
57.125 8.018107
57.130 8.359131
57.135 8.392661
57.140 8.562725
57.145 8.526386
57.150 8.438476
57.155 8.401871
57.160 8.500384
57.165 8.580592
57.170 8.707314
57.175 8.739742
57.180 8.858658
57.185 8.555244
57.190 8.705198
57.195 8.788684
57.200 8.237789
57.205 7.687436
57.210 7.408309
57.215 7.615888
57.220 7.552598
57.225 7.424743
57.230 7.673874
57.235 7.798722
57.240 7.749555
57.245 7.537756
57.250 7.520055
57.255 7.859849
57.260 8.018964
57.265 8.077973
57.270 8.684208
57.275 8.663025
57.280 8.907179
57.285 8.690189
57.290 8.590071
57.295 8.495295
57.300 8.321701
57.305 8.140621
57.310 8.502814
57.315 8.516232
57.320 9.020616
57.325 9.170386
57.330 8.893379
57.335 8.805951
57.340 8.317395
57.345 7.993855
57.350 7.837622
57.355 7.252371
57.360 7.192878
57.365 7.564975
57.370 7.139295
57.375 7.064687
57.380 7.459344
57.385 7.665451
57.390 7.513953
57.395 7.440489
57.400 7.456273
57.405 7.976619
57.410 8.141435
57.415 7.567748
57.420 7.482946
57.425 7.629374
57.430 7.723634
57.435 7.936142
57.440 7.643347
57.445 7.792182
57.450 8.016479
57.455 8.128944
57.460 8.422352
57.465 8.344583
57.470 8.016981
57.475 8.062487
57.480 7.910086
57.485 7.901779
57.490 7.862105
57.495 7.766493
57.500 7.561848
57.505 7.604483
57.510 7.621266
57.515 7.826816
57.520 7.682948
57.525 7.26733
57.530 7.286139
57.535 7.321593
57.540 7.414198
57.545 7.659109
57.550 7.888381
57.555 8.364193
57.560 8.367669
57.565 8.338004
57.570 8.547282
57.575 8.402047
57.580 8.004169
57.585 7.878582
57.590 7.339981
57.595 7.768865
57.600 7.976631
57.605 7.773027
57.610 7.842083
57.615 7.968317
57.620 8.022263
57.625 8.521593
57.630 8.369618
57.635 8.251551
57.640 8.338449
57.645 8.161054
57.650 7.810837
57.655 7.847599
57.660 7.84309
57.665 7.696668
57.670 7.851961
57.675 7.828292
57.680 8.062642
57.685 8.351286
57.690 8.31007
57.695 8.128038
57.700 8.402137
57.705 8.184821
57.710 8.261311
57.715 7.969145
57.720 8.081337
57.725 8.013284
57.730 8.389771
57.735 8.243294
57.740 8.30795
57.745 8.474127
57.750 8.673814
57.755 8.312085
57.760 7.963414
57.765 8.07904
57.770 7.819298
57.775 7.645618
57.780 7.684597
57.785 7.900994
57.790 7.905945
57.795 7.832896
57.800 7.532725
57.805 7.631531
57.810 7.75378
57.815 8.052735
57.820 8.14654
57.825 8.581847
57.830 8.952864
57.835 9.061867
57.840 9.422796
57.845 9.159419
57.850 8.555136
57.855 8.464587
57.860 8.214745
57.865 8.119074
57.870 8.113872
57.875 8.396005
57.880 8.481123
57.885 8.38634
57.890 8.324905
57.895 8.504807
57.900 7.946984
57.905 7.545277
57.910 7.281772
57.915 7.466993
57.920 7.784397
57.925 7.577806
57.930 7.446481
57.935 7.853523
57.940 7.860611
57.945 7.572916
57.950 7.447517
57.955 7.211788
57.960 7.166101
57.965 7.311695
57.970 7.491023
57.975 7.67351
57.980 8.080138
57.985 8.273373
57.990 8.257429
57.995 8.218173
58.000 7.820639
58.005 7.244613
58.010 7.238038
58.015 7.134834
58.020 6.898487
58.025 7.1959
58.030 7.341284
58.035 7.316233
58.040 7.465461
58.045 7.493134
58.050 7.578619
58.055 8.075081
58.060 8.121202
58.065 8.242335
58.070 8.854386
58.075 9.045145
58.080 9.080263
58.085 8.96027
58.090 8.710591
58.095 8.383454
58.100 8.14003
58.105 8.186669
58.110 8.329185
58.115 8.346486
58.120 8.362995
58.125 8.760571
58.130 8.904864
58.135 9.081306
58.140 8.723316
58.145 8.556515
58.150 8.320836
58.155 7.9244
58.160 7.219524
58.165 7.41791
58.170 7.673258
58.175 7.548731
58.180 7.331532
58.185 7.373013
58.190 7.452015
58.195 7.685343
58.200 7.542102
58.205 7.312214
58.210 7.405787
58.215 7.321267
58.220 7.166574
58.225 6.996834
58.230 6.731634
58.235 6.407021
58.240 6.082005
58.245 5.909815
58.250 6.122031
58.255 6.546626
58.260 7.041853
58.265 7.285194
58.270 7.653058
58.275 8.113859
58.280 8.436233
58.285 8.751712
58.290 8.620539
58.295 8.188199
58.300 8.34956
58.305 8.042045
58.310 7.591795
58.315 7.369507
58.320 7.060751
58.325 7.109222
58.330 7.362138
58.335 7.318151
58.340 7.38106
58.345 7.654221
58.350 7.997254
58.355 8.318979
58.360 8.367057
58.365 8.278749
58.370 8.274866
58.375 8.731224
58.380 8.792592
58.385 8.573202
58.390 8.567635
58.395 8.473164
58.400 8.407794
58.405 8.339386
58.410 8.345246
58.415 7.922354
58.420 7.518441
58.425 7.312473
58.430 7.520622
58.435 7.319462
58.440 7.466436
58.445 7.134138
58.450 7.268446
58.455 7.335684
58.460 7.344233
58.465 7.512104
58.470 7.744498
58.475 7.532125
58.480 7.514254
58.485 7.553332
58.490 7.699065
58.495 7.510007
58.500 7.258572
58.505 7.045008
58.510 7.153648
58.515 7.174624
58.520 7.085321
58.525 6.89086
58.530 6.943012
58.535 7.114576
58.540 7.214393
58.545 7.303147
58.550 7.676591
58.555 7.92283
58.560 7.927604
58.565 8.041231
58.570 8.061537
58.575 7.846037
58.580 7.628741
58.585 7.510121
58.590 7.632708
58.595 8.091072
58.600 8.374798
58.605 8.497775
58.610 8.588214
58.615 8.677714
58.620 8.868944
58.625 9.207608
58.630 9.301483
58.635 8.719834
58.640 8.536522
58.645 8.867878
58.650 8.89998
58.655 8.572045
58.660 8.129428
58.665 7.969341
58.670 7.851087
58.675 7.491378
58.680 7.075585
58.685 6.918938
58.690 7.09345
58.695 7.425291
58.700 7.443117
58.705 7.880014
58.710 8.316276
58.715 8.440241
58.720 8.551257
58.725 8.285248
58.730 7.875737
58.735 8.054873
58.740 8.288938
58.745 8.639131
58.750 9.052644
58.755 9.306528
58.760 9.674047
