!@!!GADDS PLOTSO FILE: Chi integration type
!@!!Title/SampleName: map-ab
!@!!Comment: ?
!@!!User: Bruker Instrument Administrator
!@!!Site: University of Illinois Chicago
!@!!Frame: map-ab_01_000.gfrm
!@!!Wavelengths    1.54184   1.54056   1.54439
!@!!Frame angles: 2Theta: 63.000 Omega: 50.000 Phi: 0.000 Chi: 90.000
!@!!Integration range: 2Theta: 53.000 to 73.000  Gamma: -105.000 to -75.000
!@!!Integration method: bin normalized
!@!N
!@!SS
!@!M
!@!L 0.0 0.0 0.0 0.0
!@!XDegrees
!@!YCounts
53.000 8.752734
53.005 9.160945
53.010 9.306997
53.015 9.200578
53.020 9.055695
53.025 9.287102
53.030 9.418314
53.035 9.177848
53.040 8.960593
53.045 9.256997
53.050 9.921424
53.055 10.204149
53.060 10.511103
53.065 10.461101
53.070 10.393039
53.075 10.28243
53.080 10.424996
53.085 10.450737
53.090 9.939021
53.095 10.099766
53.100 10.418005
53.105 10.772479
53.110 10.998981
53.115 10.778949
53.120 10.590595
53.125 10.46912
53.130 10.233819
53.135 9.634519
53.140 9.302613
53.145 8.729514
53.150 8.760812
53.155 9.055892
53.160 9.067316
53.165 9.111873
53.170 9.525897
53.175 9.40669
53.180 9.522804
53.185 9.739065
53.190 9.367619
53.195 9.098955
53.200 9.238079
53.205 9.193242
53.210 9.229828
53.215 8.947968
53.220 8.988845
53.225 9.708354
53.230 9.759744
53.235 9.691311
53.240 10.096367
53.245 10.419759
53.250 10.869288
53.255 11.27594
53.260 11.40433
53.265 11.783469
53.270 11.782992
53.275 11.442424
53.280 11.269
53.285 11.286345
53.290 10.89346
53.295 10.440424
53.300 9.906186
53.305 10.138036
53.310 10.318322
53.315 10.064451
53.320 10.074168
53.325 10.457932
53.330 10.562862
53.335 10.903358
53.340 10.715163
53.345 10.805021
53.350 10.069395
53.355 9.072847
53.360 8.880765
53.365 9.41881
53.370 9.2081
53.375 9.305011
53.380 9.064676
53.385 9.632419
53.390 10.022784
53.395 9.95812
53.400 9.739898
53.405 10.038836
53.410 10.038987
53.415 10.405578
53.420 10.193499
53.425 10.655248
53.430 10.718043
53.435 10.835024
53.440 11.333156
53.445 11.784487
53.450 11.633715
53.455 11.628842
53.460 11.480329
53.465 11.090932
53.470 11.095645
53.475 10.78467
53.480 10.795656
53.485 10.960301
53.490 10.667421
53.495 10.683469
53.500 10.907166
53.505 10.782216
53.510 10.444059
53.515 10.172265
53.520 10.541507
53.525 10.315269
53.530 10.183663
53.535 9.626631
53.540 9.159317
53.545 9.119956
53.550 9.26662
53.555 9.439528
53.560 9.916117
53.565 10.417695
53.570 10.840611
53.575 11.071815
53.580 11.068652
53.585 11.090131
53.590 11.067391
53.595 11.277569
53.600 11.055565
53.605 10.945515
53.610 11.093912
53.615 11.134877
53.620 11.146939
53.625 10.980725
53.630 10.717813
53.635 10.988798
53.640 11.150668
53.645 11.387918
53.650 11.689622
53.655 11.274052
53.660 10.96565
53.665 10.391292
53.670 9.986327
53.675 9.821648
53.680 9.189489
53.685 9.342607
53.690 9.699804
53.695 9.490238
53.700 9.525943
53.705 9.856986
53.710 9.977612
53.715 10.105684
53.720 10.292619
53.725 10.737656
53.730 11.010561
53.735 10.851096
53.740 10.399546
53.745 10.42903
53.750 10.323769
53.755 9.712208
53.760 9.046139
53.765 9.573105
53.770 10.063087
53.775 10.288659
53.780 10.155955
53.785 10.146921
53.790 10.764071
53.795 10.978743
53.800 10.537004
53.805 10.49897
53.810 10.648695
53.815 10.406532
53.820 10.425322
53.825 11.048983
53.830 11.292439
53.835 11.322611
53.840 11.704728
53.845 12.104877
53.850 12.713769
53.855 12.587282
53.860 12.14604
53.865 12.803564
53.870 12.746939
53.875 12.324601
53.880 11.973855
53.885 11.654157
53.890 11.508684
53.895 11.477528
53.900 11.15259
53.905 11.486759
53.910 11.625295
53.915 11.411807
53.920 11.438055
53.925 11.899196
53.930 11.948089
53.935 11.70188
53.940 11.060656
53.945 11.031144
53.950 11.262647
53.955 10.965382
53.960 10.592564
53.965 10.661927
53.970 10.958731
53.975 11.619018
53.980 11.970503
53.985 11.853991
53.990 11.941172
53.995 11.937897
54.000 11.695966
54.005 11.669361
54.010 11.180004
54.015 10.941285
54.020 10.906023
54.025 10.761611
54.030 10.706447
54.035 10.779441
54.040 10.471661
54.045 10.284019
54.050 10.453681
54.055 10.032307
54.060 9.413342
54.065 9.145082
54.070 8.880612
54.075 8.70458
54.080 9.053121
54.085 9.369678
54.090 10.449964
54.095 11.048221
54.100 11.690214
54.105 12.339098
54.110 13.035864
54.115 13.120242
54.120 12.529736
54.125 12.001469
54.130 12.1316
54.135 11.537741
54.140 11.249437
54.145 11.146933
54.150 11.293533
54.155 11.861828
54.160 11.731201
54.165 11.231505
54.170 11.405697
54.175 11.328514
54.180 11.177137
54.185 11.183886
54.190 11.010664
54.195 11.428043
54.200 12.11925
54.205 12.044734
54.210 11.949623
54.215 11.755745
54.220 11.748603
54.225 11.673529
54.230 11.633113
54.235 12.179299
54.240 12.624326
54.245 12.715869
54.250 12.634262
54.255 12.853223
54.260 13.383647
54.265 12.73087
54.270 11.958202
54.275 11.627539
54.280 11.648491
54.285 11.684855
54.290 11.822172
54.295 11.556205
54.300 12.051347
54.305 11.832781
54.310 11.654378
54.315 11.49988
54.320 11.260918
54.325 11.324139
54.330 11.541505
54.335 11.439553
54.340 11.223036
54.345 11.456197
54.350 11.420619
54.355 11.544345
54.360 11.510905
54.365 11.624711
54.370 11.46517
54.375 11.754333
54.380 11.372751
54.385 11.138031
54.390 10.745496
54.395 10.220097
54.400 10.450814
54.405 11.141722
54.410 11.648124
54.415 12.495447
54.420 12.698811
54.425 12.725085
54.430 12.982448
54.435 12.904914
54.440 12.326277
54.445 12.212237
54.450 11.759943
54.455 11.186328
54.460 11.127112
54.465 10.715346
54.470 10.526895
54.475 10.470135
54.480 10.462443
54.485 11.113994
54.490 11.133671
54.495 11.280079
54.500 11.620309
54.505 11.6039
54.510 11.00814
54.515 10.746072
54.520 10.694757
54.525 10.75957
54.530 10.434348
54.535 10.596861
54.540 11.252822
54.545 11.578099
54.550 12.125917
54.555 12.740092
54.560 13.125668
54.565 12.952348
54.570 12.776108
54.575 12.877685
54.580 12.735664
54.585 12.170931
54.590 11.576343
54.595 11.639121
54.600 11.809903
54.605 11.698601
54.610 11.710851
54.615 11.632676
54.620 11.544794
54.625 11.249639
54.630 11.357623
54.635 11.16075
54.640 11.062061
54.645 11.020069
54.650 11.054015
54.655 11.100948
54.660 11.797274
54.665 12.031825
54.670 12.022234
54.675 11.618858
54.680 11.513122
54.685 11.640058
54.690 11.815414
54.695 11.176276
54.700 11.093521
54.705 11.859111
54.710 11.378999
54.715 11.766224
54.720 12.360497
54.725 12.54098
54.730 13.131967
54.735 13.219562
54.740 12.935772
54.745 13.493692
54.750 13.03228
54.755 12.797119
54.760 12.800956
54.765 12.601721
54.770 12.092556
54.775 12.232322
54.780 11.972689
54.785 11.564549
54.790 11.07767
54.795 10.901001
54.800 10.601147
54.805 10.495906
54.810 10.428391
54.815 11.227115
54.820 11.93634
54.825 12.136409
54.830 12.064763
54.835 12.528323
54.840 12.692277
54.845 12.061935
54.850 11.357306
54.855 11.283128
54.860 11.233833
54.865 11.274003
54.870 10.949486
54.875 11.40167
54.880 11.581817
54.885 11.516146
54.890 11.516902
54.895 11.147575
54.900 11.188664
54.905 11.427502
54.910 11.575984
54.915 12.048264
54.920 11.912066
54.925 11.544988
54.930 11.522366
54.935 11.617464
54.940 11.798494
54.945 11.760965
54.950 12.688141
54.955 12.945359
54.960 13.244159
54.965 13.559433
54.970 13.438497
54.975 13.179386
54.980 13.279328
54.985 12.849787
54.990 13.207837
54.995 13.323491
55.000 13.380561
55.005 13.430798
55.010 13.78973
55.015 13.772876
55.020 13.347088
55.025 13.030305
55.030 13.225334
55.035 13.233395
55.040 13.129381
55.045 12.967913
55.050 13.219325
55.055 13.181832
55.060 13.268192
55.065 13.169291
55.070 13.236742
55.075 13.626761
55.080 13.157166
55.085 12.682843
55.090 13.132298
55.095 12.912457
55.100 12.625818
55.105 12.640996
55.110 12.425013
55.115 12.861214
55.120 12.800129
55.125 12.697321
55.130 12.905128
55.135 12.974018
55.140 12.784674
55.145 12.657067
55.150 12.142355
55.155 12.16267
55.160 12.301795
55.165 11.811082
55.170 11.638051
55.175 11.476454
55.180 11.483739
55.185 11.761984
55.190 11.755086
55.195 11.417658
55.200 11.613505
55.205 11.777882
55.210 11.756677
55.215 11.900367
55.220 12.076609
55.225 11.461205
55.230 11.284789
55.235 11.31471
55.240 11.544604
55.245 11.515339
55.250 11.003943
55.255 10.717847
55.260 11.372806
55.265 11.996285
55.270 12.016739
55.275 11.925331
55.280 12.064383
55.285 12.737686
55.290 12.933198
55.295 12.793259
55.300 12.423697
55.305 12.181479
55.310 11.958205
55.315 11.335462
55.320 11.063658
55.325 11.305283
55.330 11.117
55.335 11.399819
55.340 11.643759
55.345 12.296302
55.350 12.394803
55.355 12.275936
55.360 12.201834
55.365 12.076367
55.370 12.2235
55.375 12.315434
55.380 12.372805
55.385 12.814365
55.390 12.882938
55.395 12.872277
55.400 13.189482
55.405 13.105616
55.410 13.065271
55.415 12.859068
55.420 12.893712
55.425 12.541522
55.430 12.300865
55.435 12.220218
55.440 12.251377
55.445 11.789191
55.450 11.907866
55.455 11.856011
55.460 12.45548
55.465 12.418082
55.470 12.667335
55.475 12.730277
55.480 13.334668
55.485 13.397892
55.490 13.352825
55.495 12.843367
55.500 12.890423
55.505 12.860295
55.510 12.939799
55.515 12.642938
55.520 12.159442
55.525 11.969944
55.530 12.086272
55.535 12.169922
55.540 12.08877
55.545 11.66944
55.550 11.685555
55.555 12.365246
55.560 12.528946
55.565 12.835196
55.570 12.830667
55.575 13.562057
55.580 14.012787
55.585 14.039026
55.590 13.785764
55.595 14.109811
55.600 14.129438
55.605 14.166256
55.610 14.240811
55.615 14.09589
55.620 14.327353
55.625 14.514673
55.630 14.555449
55.635 14.781356
55.640 14.849978
55.645 14.344949
55.650 14.109417
55.655 13.737621
55.660 13.677431
55.665 13.40663
55.670 13.105741
55.675 12.8168
55.680 12.395002
55.685 12.524253
55.690 12.701049
55.695 12.910302
55.700 12.873614
55.705 12.860049
55.710 12.760113
55.715 13.507266
55.720 14.28904
55.725 14.126397
55.730 13.793831
55.735 13.576108
55.740 13.868056
55.745 13.806143
55.750 13.488504
55.755 12.762428
55.760 13.077349
55.765 13.188862
55.770 12.837002
55.775 12.544126
55.780 13.05118
55.785 13.391173
55.790 13.679215
55.795 13.414697
55.800 13.527662
55.805 13.955828
55.810 13.571527
55.815 13.234905
55.820 13.192569
55.825 12.974908
55.830 13.475257
55.835 13.471983
55.840 13.761395
55.845 13.958771
55.850 13.867511
55.855 13.943883
55.860 13.951333
55.865 13.59436
55.870 13.893263
55.875 13.760798
55.880 13.546729
55.885 13.650679
55.890 13.145841
55.895 12.740966
55.900 12.763632
55.905 12.151969
55.910 12.372665
55.915 12.602457
55.920 12.789299
55.925 13.641126
55.930 13.821493
55.935 13.974023
55.940 14.657057
55.945 14.921483
55.950 14.759027
55.955 13.747754
55.960 13.311378
55.965 13.066251
55.970 12.785869
55.975 12.219584
55.980 12.155171
55.985 12.391398
55.990 13.131955
55.995 13.491823
56.000 14.227264
56.005 14.12294
56.010 14.221671
56.015 14.232707
56.020 14.045394
56.025 13.940534
56.030 13.708074
56.035 13.604215
56.040 14.153769
56.045 13.898953
56.050 13.682774
56.055 14.038643
56.060 13.815832
56.065 13.734715
56.070 13.742871
56.075 13.439501
56.080 13.32329
56.085 13.603431
56.090 13.6398
56.095 14.001408
56.100 13.474172
56.105 13.095751
56.110 13.451653
56.115 13.76804
56.120 13.724811
56.125 13.373763
56.130 13.448986
56.135 13.897785
56.140 14.099
56.145 14.009779
56.150 13.851166
56.155 13.97286
56.160 14.171384
56.165 13.967706
56.170 14.069213
56.175 13.79662
56.180 12.923462
56.185 12.337132
56.190 12.041683
56.195 12.239702
56.200 12.535468
56.205 13.089114
56.210 13.760476
56.215 14.44993
56.220 14.874869
56.225 15.758
56.230 15.975418
56.235 15.899002
56.240 15.608225
56.245 15.56451
56.250 15.644054
56.255 15.077868
56.260 14.013187
56.265 13.343621
56.270 13.392939
56.275 13.192166
56.280 12.796035
56.285 12.546044
56.290 13.002417
56.295 13.21081
56.300 13.288052
56.305 12.785579
56.310 12.473323
56.315 12.608018
56.320 12.527158
56.325 12.316737
56.330 12.536279
56.335 12.482685
56.340 12.966085
56.345 13.003227
56.350 13.047312
56.355 13.330794
56.360 13.135891
56.365 13.21876
56.370 13.385436
56.375 12.72553
56.380 12.31506
56.385 12.182644
56.390 12.150906
56.395 12.240406
56.400 12.29708
56.405 12.4497
56.410 13.186953
56.415 13.657952
56.420 13.572884
56.425 13.531543
56.430 13.321991
56.435 12.65163
56.440 12.222685
56.445 12.167312
56.450 12.018229
56.455 12.254786
56.460 12.812851
56.465 13.388706
56.470 14.143861
56.475 14.55621
56.480 14.282425
56.485 14.524864
56.490 14.392262
56.495 13.710989
56.500 13.318328
56.505 13.546157
56.510 13.394379
56.515 13.553987
56.520 13.838397
56.525 13.923755
56.530 14.018356
56.535 14.10908
56.540 13.633709
56.545 13.617778
56.550 13.509597
56.555 13.643634
56.560 14.343346
56.565 14.569954
56.570 14.660776
56.575 14.906232
56.580 14.697506
56.585 14.354172
56.590 14.174248
56.595 14.270192
56.600 15.029612
56.605 15.074602
56.610 14.888659
56.615 15.170943
56.620 15.221055
56.625 15.20784
56.630 14.985117
56.635 14.549911
56.640 14.409049
56.645 14.292417
56.650 14.012579
56.655 13.991891
56.660 13.568738
56.665 13.436499
56.670 12.899398
56.675 13.174488
56.680 13.887921
56.685 14.426334
56.690 14.625403
56.695 14.132441
56.700 13.958186
56.705 14.342797
56.710 14.034895
56.715 13.583495
56.720 13.283057
56.725 13.467486
56.730 13.899096
56.735 14.655984
56.740 15.212049
56.745 15.815372
56.750 16.263155
56.755 16.071003
56.760 15.98951
56.765 15.56805
56.770 15.019358
56.775 14.017563
56.780 13.223061
56.785 13.400811
56.790 13.609199
56.795 13.705323
56.800 13.866796
56.805 13.793383
56.810 14.29905
56.815 14.155199
56.820 13.923512
56.825 13.899655
56.830 13.796163
56.835 14.263762
56.840 14.514778
56.845 14.190717
56.850 14.498828
56.855 15.078765
56.860 15.12461
56.865 15.074492
56.870 14.808805
56.875 15.25725
56.880 15.884802
56.885 15.419702
56.890 14.416807
56.895 13.915944
56.900 13.292032
56.905 12.792293
56.910 11.689952
56.915 11.373063
56.920 11.388968
56.925 12.104759
56.930 12.985448
56.935 14.02139
56.940 15.229015
56.945 15.686177
56.950 15.712695
56.955 15.983996
56.960 15.72248
56.965 15.823709
56.970 15.216366
56.975 14.396172
56.980 14.483406
56.985 14.605556
56.990 14.987702
56.995 14.631175
57.000 14.034569
57.005 13.507743
57.010 13.143313
57.015 12.920631
57.020 12.746528
57.025 12.626581
57.030 12.872845
57.035 13.370231
57.040 14.165956
57.045 14.768331
57.050 14.959431
57.055 14.91193
57.060 14.914048
57.065 15.134107
57.070 15.367378
57.075 15.191109
57.080 14.525615
57.085 14.525317
57.090 14.292374
57.095 14.02418
57.100 14.062904
57.105 13.979248
57.110 13.763032
57.115 14.079144
57.120 13.634398
57.125 13.722367
57.130 13.772926
57.135 13.356707
57.140 13.015877
57.145 13.428191
57.150 13.658436
57.155 13.87816
57.160 13.846766
57.165 13.791752
57.170 13.997883
57.175 14.477138
57.180 14.518741
57.185 14.961113
57.190 15.314528
57.195 15.193607
57.200 14.993106
57.205 14.882826
57.210 15.083294
57.215 14.802742
57.220 14.69926
57.225 14.633523
57.230 14.604756
57.235 14.830469
57.240 15.054755
57.245 14.208616
57.250 14.045403
57.255 13.80471
57.260 13.860047
57.265 14.287399
57.270 14.293751
57.275 13.833235
57.280 14.012957
57.285 14.20082
57.290 13.844655
57.295 13.941216
57.300 13.855554
57.305 13.690909
57.310 14.008907
57.315 14.743331
57.320 15.194699
57.325 16.169504
57.330 16.451797
57.335 16.394892
57.340 17.427692
57.345 17.342194
57.350 16.669115
57.355 16.784451
57.360 16.239336
57.365 15.744374
57.370 15.842051
57.375 14.807489
57.380 14.790965
57.385 14.481296
57.390 13.669962
57.395 13.114554
57.400 12.825271
57.405 12.442933
57.410 12.67322
57.415 12.913706
57.420 13.27592
57.425 13.754443
57.430 14.163426
57.435 14.867993
57.440 15.838511
57.445 15.913121
57.450 15.663905
57.455 15.440372
57.460 15.226224
57.465 15.12822
57.470 14.281009
57.475 13.052192
57.480 13.103152
57.485 13.417528
57.490 13.870211
57.495 14.417964
57.500 14.731943
57.505 15.136216
57.510 15.501832
57.515 15.68452
57.520 15.48056
57.525 15.783257
57.530 15.552627
57.535 15.459823
57.540 15.281789
57.545 15.346065
57.550 14.873997
57.555 15.434745
57.560 14.531278
57.565 14.051792
57.570 13.980382
57.575 13.853406
57.580 13.799225
57.585 14.461568
57.590 14.247017
57.595 14.729394
57.600 15.580687
57.605 15.957511
57.610 16.323376
57.615 16.24939
57.620 15.903119
57.625 16.47208
57.630 16.579924
57.635 15.898176
57.640 15.685101
57.645 15.92511
57.650 15.881721
57.655 15.478946
57.660 14.589113
57.665 14.184342
57.670 14.200066
57.675 14.032164
57.680 13.719293
57.685 13.805084
57.690 14.138616
57.695 14.700599
57.700 14.90512
57.705 15.046475
57.710 14.953563
57.715 14.689194
57.720 14.87866
57.725 14.66144
57.730 13.998808
57.735 14.2151
57.740 14.509285
57.745 15.056153
57.750 15.300267
57.755 15.092912
57.760 15.078981
57.765 15.947476
57.770 15.343616
57.775 14.891185
57.780 14.645834
57.785 14.348157
57.790 14.328103
57.795 14.028356
57.800 13.386814
57.805 13.620266
57.810 13.636563
57.815 13.600668
57.820 13.603627
57.825 13.795877
57.830 14.217402
57.835 14.169139
57.840 14.424148
57.845 14.566895
57.850 14.411335
57.855 14.464714
57.860 14.185619
57.865 14.202411
57.870 14.659029
57.875 14.532497
57.880 14.632299
57.885 14.393591
57.890 14.101499
57.895 13.855467
57.900 13.725297
57.905 13.617775
57.910 13.385063
57.915 13.573287
57.920 13.978601
57.925 14.242616
57.930 14.545228
57.935 14.774212
57.940 14.907939
57.945 14.944436
57.950 15.070735
57.955 15.177923
57.960 14.859671
57.965 14.904765
57.970 14.485793
57.975 14.182183
57.980 14.220287
57.985 14.311583
57.990 14.655614
57.995 14.644481
58.000 14.823861
58.005 15.308296
58.010 15.865651
58.015 15.804072
58.020 15.930524
58.025 16.017767
58.030 16.246201
58.035 16.041504
58.040 15.919923
58.045 15.812145
58.050 15.951676
58.055 15.940063
58.060 15.875144
58.065 15.681687
58.070 15.799154
58.075 15.76435
58.080 15.616019
58.085 15.481952
58.090 15.437159
58.095 15.626429
58.100 15.888851
58.105 15.857126
58.110 15.435646
58.115 15.801985
58.120 15.601683
58.125 15.412032
58.130 15.21212
58.135 15.199832
58.140 15.14318
58.145 15.235693
58.150 14.896223
58.155 15.099106
58.160 15.02202
58.165 15.372579
58.170 15.103523
58.175 15.169671
58.180 15.113379
58.185 14.933119
58.190 14.93737
58.195 15.107893
58.200 15.10456
58.205 15.060764
58.210 15.500982
58.215 16.006985
58.220 16.098532
58.225 16.09918
58.230 15.731257
58.235 15.750092
58.240 16.027102
58.245 15.647609
58.250 15.491894
58.255 15.295445
58.260 14.841734
58.265 14.697403
58.270 14.377278
58.275 14.203147
58.280 14.409347
58.285 14.484605
58.290 14.5973
58.295 15.15346
58.300 15.587823
58.305 15.769745
58.310 15.463609
58.315 15.071361
58.320 15.184568
58.325 15.770513
58.330 16.081924
58.335 15.92406
58.340 15.630363
58.345 15.506094
58.350 15.223961
58.355 14.729908
58.360 14.617289
58.365 14.232712
58.370 14.123047
58.375 14.153405
58.380 14.134084
58.385 14.383925
58.390 14.110982
58.395 13.993786
58.400 14.116405
58.405 13.991561
58.410 14.457286
58.415 14.534851
58.420 15.254417
58.425 15.68099
58.430 15.414389
58.435 15.515301
58.440 15.685102
58.445 15.885681
58.450 16.32633
58.455 15.869308
58.460 15.770478
