!@!!GADDS PLOTSO FILE: Chi integration type
!@!!Title/SampleName: map-16c
!@!!Comment: ?
!@!!User: Bruker Instrument Administrator
!@!!Site: University of Illinois Chicago
!@!!Frame: map-16c_01_000.gfrm
!@!!Wavelengths    1.54184   1.54056   1.54439
!@!!Frame angles: 2Theta: 63.000 Omega: 50.000 Phi: 0.000 Chi: 90.000
!@!!Integration range: 2Theta: 53.000 to 73.000  Gamma: -105.000 to -75.000
!@!!Integration method: bin normalized
!@!N
!@!SS
!@!M
!@!L 0.0 0.0 0.0 0.0
!@!XDegrees
!@!YCounts
53.000 4.342781
53.005 4.03423
53.010 3.747191
53.015 3.703324
53.020 3.583091
53.025 3.801192
53.030 3.981869
53.035 4.028677
53.040 4.46013
53.045 4.595469
53.050 4.614902
53.055 4.69665
53.060 4.845062
53.065 4.698869
53.070 4.705415
53.075 4.476377
53.080 4.431306
53.085 4.505705
53.090 4.566328
53.095 4.640278
53.100 4.531243
53.105 4.172267
53.110 4.147334
53.115 3.969284
53.120 3.995927
53.125 3.827942
53.130 3.931007
53.135 3.848262
53.140 3.885137
53.145 3.715828
53.150 3.557742
53.155 3.276939
53.160 3.234958
53.165 3.27389
53.170 3.335912
53.175 3.352967
53.180 3.440147
53.185 3.330329
53.190 3.378671
53.195 3.294506
53.200 2.9915
53.205 2.889585
53.210 2.822014
53.215 2.947336
53.220 3.102541
53.225 3.132091
53.230 3.018389
53.235 3.289123
53.240 3.69319
53.245 3.799612
53.250 3.777231
53.255 3.573903
53.260 3.474034
53.265 3.553915
53.270 3.486743
53.275 3.469602
53.280 3.328871
53.285 3.429646
53.290 3.548239
53.295 3.825093
53.300 3.759736
53.305 3.563611
53.310 3.609041
53.315 3.777812
53.320 3.846996
53.325 3.7963
53.330 3.801614
53.335 4.10725
53.340 4.294925
53.345 4.239745
53.350 4.369915
53.355 4.41055
53.360 4.321601
53.365 4.229589
53.370 4.142217
53.375 4.129463
53.380 4.148103
53.385 4.191981
53.390 4.427399
53.395 4.472776
53.400 4.554253
53.405 4.670452
53.410 4.594315
53.415 4.48281
53.420 4.45697
53.425 4.620558
53.430 4.593439
53.435 4.306111
53.440 4.046646
53.445 4.191914
53.450 4.065584
53.455 3.828036
53.460 3.347393
53.465 3.145542
53.470 3.394318
53.475 3.356398
53.480 3.140584
53.485 3.397301
53.490 3.269212
53.495 3.513168
53.500 3.62058
53.505 3.484887
53.510 3.388417
53.515 3.337096
53.520 3.067829
53.525 3.212151
53.530 3.1569
53.535 3.36776
53.540 3.369213
53.545 3.545043
53.550 3.61769
53.555 3.962262
53.560 3.951777
53.565 3.906653
53.570 3.842773
53.575 3.978525
53.580 3.948538
53.585 3.85253
53.590 3.474573
53.595 3.507096
53.600 3.737322
53.605 3.746563
53.610 3.808924
53.615 3.881334
53.620 4.393721
53.625 4.780019
53.630 4.718172
53.635 4.30599
53.640 4.151877
53.645 4.033197
53.650 4.025808
53.655 3.595814
53.660 3.411155
53.665 3.477999
53.670 3.683505
53.675 3.997574
53.680 4.054683
53.685 3.89989
53.690 3.886082
53.695 3.950787
53.700 4.267678
53.705 4.339873
53.710 4.135994
53.715 4.078503
53.720 4.10869
53.725 4.110055
53.730 4.055191
53.735 3.585058
53.740 3.374894
53.745 3.374926
53.750 3.597109
53.755 3.77809
53.760 4.067515
53.765 4.189989
53.770 4.407654
53.775 4.627435
53.780 4.537115
53.785 4.645106
53.790 4.767335
53.795 5.012136
53.800 4.87114
53.805 4.769433
53.810 4.678843
53.815 4.568731
53.820 4.378163
53.825 4.046105
53.830 3.868211
53.835 4.017673
53.840 4.299972
53.845 4.367328
53.850 4.431196
53.855 4.383325
53.860 4.526903
53.865 4.975698
53.870 4.81584
53.875 4.719843
53.880 4.672206
53.885 4.522052
53.890 4.266379
53.895 3.623048
53.900 3.24786
53.905 3.100116
53.910 2.82646
53.915 2.930616
53.920 2.88497
53.925 3.072207
53.930 3.413492
53.935 3.470858
53.940 3.80361
53.945 3.959316
53.950 4.072793
53.955 4.213765
53.960 4.277396
53.965 4.130704
53.970 3.870361
53.975 3.581702
53.980 3.645889
53.985 3.354566
53.990 3.431126
53.995 3.40156
54.000 3.397025
54.005 3.527782
54.010 3.373342
54.015 3.114178
54.020 3.333024
54.025 3.294961
54.030 3.578685
54.035 3.548657
54.040 3.471285
54.045 3.766811
54.050 4.10206
54.055 4.121024
54.060 4.190833
54.065 3.78872
54.070 3.904651
54.075 4.166136
54.080 4.454274
54.085 4.305634
54.090 4.226951
54.095 3.948275
54.100 4.218327
54.105 4.129872
54.110 3.766361
54.115 3.558603
54.120 3.542631
54.125 3.647127
54.130 3.647957
54.135 3.424854
54.140 3.420806
54.145 3.391928
54.150 3.475108
54.155 3.537689
54.160 3.607507
54.165 3.852928
54.170 4.057152
54.175 4.235769
54.180 4.249306
54.185 4.033326
54.190 3.963567
54.195 3.730117
54.200 3.521698
54.205 3.341988
54.210 3.19656
54.215 3.5116
54.220 3.428573
54.225 3.49344
54.230 3.766754
54.235 3.788467
54.240 3.846323
54.245 3.842071
54.250 3.434728
54.255 3.58243
54.260 3.36349
54.265 3.14631
54.270 3.699715
54.275 4.038483
54.280 4.243445
54.285 4.582736
54.290 4.612108
54.295 4.6577
54.300 5.010203
54.305 4.716875
54.310 4.562776
54.315 4.308486
54.320 4.133751
54.325 4.023639
54.330 4.201114
54.335 3.876834
54.340 3.689934
54.345 3.428778
54.350 3.519965
54.355 3.48168
54.360 3.473094
54.365 3.404881
54.370 3.413156
54.375 3.65453
54.380 4.0105
54.385 4.05705
54.390 4.319429
54.395 4.274218
54.400 4.060462
54.405 4.051047
54.410 3.704091
54.415 3.588196
54.420 3.299205
54.425 3.11387
54.430 3.303957
54.435 3.596423
54.440 3.668915
54.445 3.981424
54.450 4.337337
54.455 4.618678
54.460 4.789876
54.465 4.386039
54.470 4.287433
54.475 4.497046
54.480 4.481797
54.485 4.343014
54.490 4.445936
54.495 4.389906
54.500 4.607939
54.505 4.4359
54.510 4.328357
54.515 4.350614
54.520 4.296511
54.525 4.048195
54.530 4.095361
54.535 4.46476
54.540 4.816182
54.545 4.708847
54.550 4.552797
54.555 4.593935
54.560 4.556925
54.565 4.468668
54.570 4.365774
54.575 4.34657
54.580 4.224612
54.585 4.381837
54.590 4.506668
54.595 4.641222
54.600 4.664651
54.605 4.502203
54.610 4.72542
54.615 4.786503
54.620 4.534096
54.625 4.318413
54.630 4.344107
54.635 4.208652
54.640 4.068536
54.645 3.890522
54.650 4.161592
54.655 4.341685
54.660 4.46312
54.665 4.595264
54.670 4.692196
54.675 4.64694
54.680 4.427982
54.685 4.353563
54.690 4.599806
54.695 4.484729
54.700 4.590275
54.705 4.661555
54.710 4.60851
54.715 4.583435
54.720 4.366746
54.725 4.311242
54.730 4.311903
54.735 4.162208
54.740 4.069221
54.745 4.345765
54.750 4.391886
54.755 4.215812
54.760 3.795445
54.765 3.812716
54.770 4.167749
54.775 4.300479
54.780 4.154584
54.785 4.175837
54.790 4.132406
54.795 4.393191
54.800 4.400408
54.805 4.239705
54.810 4.112846
54.815 3.937476
54.820 4.138306
54.825 4.34384
54.830 4.535882
54.835 4.49287
54.840 4.55277
54.845 4.840086
54.850 5.273083
54.855 5.344662
54.860 5.082503
54.865 4.551826
54.870 4.157512
54.875 3.754771
54.880 3.506404
54.885 2.951076
54.890 2.948225
54.895 3.28317
54.900 3.566308
54.905 3.535514
54.910 3.603805
54.915 3.559914
54.920 3.893205
54.925 3.925071
54.930 3.610987
54.935 3.677414
54.940 4.061564
54.945 4.308722
54.950 4.367387
54.955 3.943263
54.960 4.146676
54.965 4.564978
54.970 4.508675
54.975 4.320207
54.980 4.244111
54.985 4.657674
54.990 4.831673
54.995 4.491106
55.000 4.093348
55.005 4.078114
55.010 4.182285
55.015 4.042457
55.020 3.716609
55.025 3.607522
55.030 3.741457
55.035 3.952043
55.040 4.178935
55.045 3.987684
55.050 4.175597
55.055 4.447569
55.060 4.438743
55.065 4.383779
55.070 4.293028
55.075 3.986004
55.080 3.828922
55.085 3.836733
55.090 3.941437
55.095 4.074675
55.100 3.994632
55.105 4.026514
55.110 4.554107
55.115 4.573078
55.120 4.459574
55.125 4.12541
55.130 4.025853
55.135 4.064295
55.140 3.957481
55.145 3.720169
55.150 3.935565
55.155 3.88906
55.160 3.899328
55.165 4.067407
55.170 4.164827
55.175 4.197414
55.180 4.109759
55.185 3.899616
55.190 3.981368
55.195 4.178296
55.200 4.048379
55.205 3.817074
55.210 3.611921
55.215 3.629349
55.220 3.798186
55.225 4.020813
55.230 4.047997
55.235 4.078403
55.240 4.637712
55.245 5.121299
55.250 5.069441
55.255 5.277414
55.260 5.174229
55.265 5.291286
55.270 5.257038
55.275 4.861362
55.280 4.871913
55.285 4.896525
55.290 4.550786
55.295 4.250381
55.300 4.14993
55.305 4.298449
55.310 4.296497
55.315 4.273745
55.320 4.312855
55.325 4.453325
55.330 4.334668
55.335 4.343154
55.340 4.417932
55.345 4.377346
55.350 4.15169
55.355 4.243589
55.360 4.469611
55.365 4.54276
55.370 4.703169
55.375 4.380733
55.380 4.472678
55.385 4.670797
55.390 4.242153
55.395 4.209011
55.400 4.152823
55.405 4.130087
55.410 4.236883
55.415 4.298534
55.420 4.43816
55.425 4.392589
55.430 4.430695
55.435 4.463861
55.440 4.253771
55.445 4.31811
55.450 4.454261
55.455 4.47332
55.460 4.653906
55.465 4.639575
55.470 4.715032
55.475 4.9128
55.480 5.084669
55.485 4.864608
55.490 5.103337
55.495 5.126379
55.500 5.064811
55.505 5.239895
55.510 5.230169
55.515 5.00098
55.520 5.237884
55.525 5.235218
55.530 5.288806
55.535 5.341604
55.540 5.070708
55.545 5.058195
55.550 4.63206
55.555 4.341223
55.560 4.09043
55.565 4.041292
55.570 3.888392
55.575 3.763604
55.580 4.001091
55.585 4.166244
55.590 4.099589
55.595 4.409915
55.600 4.310349
55.605 4.795697
55.610 4.705935
55.615 4.652005
55.620 4.706287
55.625 4.667367
55.630 4.506637
55.635 4.542195
55.640 4.308526
55.645 4.391664
55.650 4.401023
55.655 4.570434
55.660 4.494757
55.665 4.191457
55.670 4.035863
55.675 3.91185
55.680 4.11263
55.685 3.961821
55.690 3.860856
55.695 3.938678
55.700 3.991747
55.705 4.084808
55.710 4.187491
55.715 3.988885
55.720 3.901098
55.725 3.882547
55.730 3.890688
55.735 4.146913
55.740 4.203183
55.745 4.108931
55.750 4.302539
55.755 4.415394
55.760 4.758374
55.765 4.930066
55.770 4.62157
55.775 4.800913
55.780 5.032218
55.785 4.923364
55.790 4.986617
55.795 4.670977
55.800 4.358591
55.805 4.33062
55.810 4.126012
55.815 3.804033
55.820 3.620627
55.825 3.676761
55.830 3.620853
55.835 3.872495
55.840 3.951583
55.845 3.896145
55.850 4.266724
55.855 4.126881
55.860 3.837409
55.865 3.764599
55.870 3.85353
55.875 4.191122
55.880 4.785247
55.885 4.908918
55.890 5.250796
55.895 5.628335
55.900 5.864899
55.905 5.631516
55.910 5.334124
55.915 4.918684
55.920 4.787022
55.925 4.527838
55.930 4.213981
55.935 3.985403
55.940 4.04593
55.945 3.90811
55.950 3.85447
55.955 3.894125
55.960 4.102629
55.965 4.179116
55.970 4.190125
55.975 3.941436
55.980 4.402685
55.985 4.439042
55.990 4.537217
55.995 4.794818
56.000 5.083553
56.005 4.95844
56.010 5.196982
56.015 4.772289
56.020 4.782018
56.025 4.378697
56.030 3.964278
56.035 3.799535
56.040 3.929698
56.045 3.80871
56.050 3.72465
56.055 3.662114
56.060 3.921328
56.065 3.898326
56.070 3.99045
56.075 4.166875
56.080 4.042123
56.085 4.179966
56.090 4.163116
56.095 4.109193
56.100 4.294413
56.105 4.399039
56.110 4.349841
56.115 4.609029
56.120 4.658538
56.125 4.839723
56.130 5.006805
56.135 4.975031
56.140 4.906321
56.145 4.984155
56.150 4.689782
56.155 4.77638
56.160 4.534067
56.165 4.335574
56.170 4.174551
56.175 4.196153
56.180 4.107395
56.185 4.212609
56.190 4.259417
56.195 4.915783
56.200 5.376592
56.205 5.538677
56.210 5.444551
56.215 5.529335
56.220 5.688691
56.225 5.522669
56.230 4.829288
56.235 4.550809
56.240 4.655132
56.245 4.891061
56.250 4.82784
56.255 4.902657
56.260 4.988489
56.265 5.149592
56.270 5.287312
56.275 5.233874
56.280 4.98959
56.285 4.773606
56.290 4.840744
56.295 5.153545
56.300 5.25606
56.305 5.242014
56.310 5.261391
56.315 5.253462
56.320 4.938229
56.325 4.491478
56.330 4.172201
56.335 4.095937
56.340 4.17571
56.345 3.996334
56.350 4.213835
56.355 4.639781
56.360 4.62589
56.365 4.598107
56.370 4.542093
56.375 4.55167
56.380 4.521525
56.385 4.444616
56.390 4.303966
56.395 4.53337
56.400 4.706359
56.405 4.629221
56.410 4.451541
56.415 4.74185
56.420 4.709383
56.425 4.579158
56.430 4.422746
56.435 4.397799
56.440 4.418687
56.445 4.366647
56.450 4.448931
56.455 4.524908
56.460 4.730922
56.465 5.027709
56.470 5.099799
56.475 5.312049
56.480 5.75492
56.485 5.690769
56.490 5.634727
56.495 5.698151
56.500 5.564666
56.505 5.694443
56.510 5.540018
56.515 5.169079
56.520 5.219731
56.525 5.27872
56.530 5.149747
56.535 5.168191
56.540 5.425571
56.545 5.724666
56.550 5.796613
56.555 5.72274
56.560 5.713325
56.565 6.012865
56.570 5.779051
56.575 5.580731
56.580 5.343206
56.585 5.169533
56.590 4.93204
56.595 4.992987
56.600 4.707458
56.605 4.582655
56.610 4.756522
56.615 4.67949
56.620 4.583953
56.625 4.538453
56.630 4.116729
56.635 3.925416
56.640 3.973095
56.645 3.910289
56.650 4.063428
56.655 4.586688
56.660 5.206705
56.665 5.566117
56.670 5.980358
56.675 6.241971
56.680 5.975304
56.685 6.148314
56.690 5.957567
56.695 5.706139
56.700 5.643267
56.705 5.43699
56.710 5.424027
56.715 5.665779
56.720 5.772383
56.725 5.713916
56.730 5.473651
56.735 5.516108
56.740 5.404317
56.745 5.169153
56.750 4.967771
56.755 4.638319
56.760 4.668303
56.765 4.744697
56.770 4.566692
56.775 4.457705
56.780 4.5144
56.785 4.882588
56.790 5.091512
56.795 5.540321
56.800 5.360508
56.805 5.437893
56.810 5.500921
56.815 5.415867
56.820 5.168449
56.825 5.010957
56.830 4.541831
56.835 4.484082
56.840 4.192988
56.845 4.070168
56.850 4.023551
56.855 3.874431
56.860 3.893942
56.865 4.313189
56.870 4.800592
56.875 5.0791
56.880 5.103773
56.885 5.038218
56.890 4.868643
56.895 4.685909
56.900 4.585614
56.905 4.640107
56.910 4.50602
56.915 4.447613
56.920 4.496879
56.925 4.720471
56.930 4.83153
56.935 4.609847
56.940 4.520211
56.945 4.992916
56.950 5.312979
56.955 5.382946
56.960 5.629196
56.965 5.48528
56.970 5.025083
56.975 4.679702
56.980 4.457982
56.985 4.31408
56.990 4.350503
56.995 4.269728
57.000 4.320521
57.005 4.774956
57.010 4.960772
57.015 5.069259
57.020 5.250668
57.025 5.609309
57.030 5.542186
57.035 5.458013
57.040 5.306652
57.045 5.24978
57.050 5.308412
57.055 5.115912
57.060 4.660225
57.065 4.691846
57.070 4.864397
57.075 5.303692
57.080 5.389025
57.085 5.313254
57.090 5.124857
57.095 5.384439
57.100 5.611043
57.105 5.554843
57.110 5.270287
57.115 5.149629
57.120 5.126519
57.125 5.176927
57.130 5.039299
57.135 5.174807
57.140 5.390052
57.145 5.559111
57.150 5.681998
57.155 5.638133
57.160 5.819653
57.165 6.04898
57.170 5.996739
57.175 5.954736
57.180 5.891281
57.185 5.68884
57.190 6.17838
57.195 6.020053
57.200 5.969051
57.205 5.98441
57.210 5.818165
57.215 5.883443
57.220 6.108737
57.225 5.786882
57.230 5.796133
57.235 5.362088
57.240 4.948517
57.245 5.117892
57.250 4.876208
57.255 4.474122
57.260 4.121203
57.265 3.827775
57.270 4.202886
57.275 4.555999
57.280 4.609454
57.285 4.846481
57.290 5.071805
57.295 5.247359
57.300 5.231691
57.305 5.24705
57.310 5.014377
57.315 5.350111
57.320 5.555689
57.325 5.542381
57.330 5.70443
57.335 5.676778
57.340 5.447299
57.345 5.533651
57.350 5.024326
57.355 4.87709
57.360 4.992241
57.365 4.68381
57.370 4.779258
57.375 5.076479
57.380 5.129806
57.385 5.180733
57.390 5.121363
57.395 5.267898
57.400 5.74407
57.405 5.970273
57.410 6.000081
57.415 5.83762
57.420 5.704255
57.425 5.717966
57.430 5.576551
57.435 5.329043
57.440 5.24507
57.445 5.069297
57.450 5.021665
57.455 5.049541
57.460 4.914757
57.465 4.924157
57.470 4.991727
57.475 4.852345
57.480 4.736056
57.485 4.746899
57.490 4.824364
57.495 4.923369
57.500 5.124527
57.505 4.98326
57.510 5.270661
57.515 5.378577
57.520 5.464818
57.525 5.204116
57.530 4.990331
57.535 4.86175
57.540 4.932475
57.545 4.728991
57.550 4.51909
57.555 4.698126
57.560 5.082041
57.565 5.385758
57.570 5.340143
57.575 5.219924
57.580 5.558647
57.585 6.046671
57.590 6.31661
57.595 6.407795
57.600 6.6742
57.605 6.867594
57.610 6.604849
57.615 6.324322
57.620 6.206806
57.625 5.859002
57.630 5.623177
57.635 5.424011
57.640 5.228865
57.645 5.503847
57.650 5.582582
57.655 5.543607
57.660 5.328351
57.665 5.160602
57.670 5.015876
57.675 5.02988
57.680 4.723933
57.685 4.6069
57.690 4.576893
57.695 4.870488
57.700 4.847682
57.705 4.726124
57.710 4.865752
57.715 5.29608
57.720 5.643829
57.725 5.787078
57.730 5.70874
57.735 5.761192
57.740 5.916118
57.745 5.638295
57.750 5.378274
57.755 4.87425
57.760 4.625147
57.765 4.713645
57.770 4.486272
57.775 4.381907
57.780 4.636439
57.785 4.621082
57.790 4.859828
57.795 4.845796
57.800 4.847049
57.805 5.276836
57.810 5.328136
57.815 4.921978
57.820 4.727249
57.825 4.491055
57.830 4.878247
57.835 4.911395
57.840 4.636364
57.845 4.813682
57.850 5.213661
57.855 5.641053
57.860 5.852032
57.865 5.707068
57.870 5.651303
57.875 5.68403
57.880 5.565523
57.885 5.826432
57.890 5.760813
57.895 5.691981
57.900 5.901984
57.905 5.952082
57.910 5.809507
57.915 5.578413
57.920 5.135853
57.925 4.748311
57.930 4.870237
57.935 4.742692
57.940 5.135173
57.945 5.391414
57.950 5.540383
57.955 5.837602
57.960 6.163686
57.965 5.865236
57.970 5.399478
57.975 5.079753
57.980 4.908393
57.985 4.888433
57.990 4.766889
57.995 4.962601
58.000 5.237202
58.005 5.70883
58.010 6.022738
58.015 6.442995
58.020 6.475547
58.025 6.396082
58.030 6.320239
58.035 6.128387
58.040 5.292527
58.045 5.046869
58.050 4.974182
58.055 4.940627
58.060 4.649319
58.065 4.286051
58.070 4.499978
58.075 4.754359
58.080 4.85176
58.085 4.818952
58.090 5.109899
58.095 5.379562
58.100 5.464193
58.105 5.576089
58.110 5.844784
58.115 6.117785
58.120 6.03951
58.125 5.825924
58.130 5.849193
58.135 5.928642
58.140 5.563809
58.145 5.355565
58.150 5.211697
58.155 5.095694
58.160 5.116617
58.165 5.152527
58.170 5.172976
58.175 5.321949
58.180 5.123824
58.185 4.78309
58.190 5.083766
58.195 5.00402
58.200 4.837255
58.205 4.853204
58.210 4.829294
58.215 5.139531
58.220 5.296905
58.225 5.278869
58.230 5.396309
58.235 5.712815
58.240 5.731511
58.245 5.677047
58.250 5.3992
58.255 5.267291
58.260 4.983094
58.265 4.858003
58.270 4.687769
58.275 4.629456
58.280 4.728722
58.285 5.063849
58.290 4.869915
58.295 5.271471
58.300 5.31061
58.305 5.389802
58.310 5.217858
58.315 5.295279
58.320 5.383707
58.325 6.157251
58.330 6.232654
58.335 6.262483
58.340 6.602267
58.345 6.755206
58.350 6.643904
58.355 6.334356
58.360 5.630714
58.365 5.435271
58.370 5.167117
58.375 4.947501
58.380 5.103161
58.385 4.958568
58.390 5.054245
58.395 5.378961
58.400 5.490313
58.405 5.488687
58.410 5.502365
58.415 5.289267
58.420 5.833281
58.425 6.135256
58.430 6.029788
58.435 6.030513
58.440 6.033774
58.445 5.813006
58.450 5.996208
58.455 5.639419
58.460 5.370947
58.465 5.34537
58.470 5.386807
58.475 5.33704
58.480 5.523338
58.485 5.203176
58.490 4.815779
58.495 5.02355
58.500 4.985952
58.505 5.055884
58.510 5.277986
58.515 5.310914
58.520 5.729724
58.525 6.203654
58.530 6.060205
58.535 5.913282
58.540 5.630785
58.545 5.604963
58.550 5.45796
58.555 5.243191
58.560 4.658566
58.565 4.526708
58.570 4.718245
58.575 5.08532
58.580 4.838067
58.585 4.729197
58.590 4.670166
58.595 4.84298
58.600 5.163287
58.605 5.07617
58.610 4.948822
58.615 5.184232
58.620 5.419819
58.625 5.557058
58.630 5.770006
58.635 5.515282
58.640 5.788811
58.645 5.47784
58.650 5.362855
58.655 5.284887
58.660 5.387331
58.665 5.098155
58.670 5.169986
58.675 5.29879
58.680 5.723874
58.685 5.523689
58.690 5.60212
58.695 6.175165
58.700 6.27976
58.705 6.338209
58.710 6.098003
58.715 5.97265
58.720 6.193667
58.725 5.918639
58.730 5.669591
58.735 5.771955
58.740 5.683395
58.745 5.560764
58.750 5.367471
58.755 5.504823
58.760 5.617634
58.765 5.305692
58.770 5.25746
