!@!!GADDS PLOTSO FILE: Chi integration type
!@!!Title/SampleName: map-61
!@!!Comment: ?
!@!!User: Bruker Instrument Administrator
!@!!Site: University of Illinois Chicago
!@!!Frame: map-61_01_000.gfrm
!@!!Wavelengths    1.54184   1.54056   1.54439
!@!!Frame angles: 2Theta: 63.000 Omega: 50.000 Phi: 0.000 Chi: 90.000
!@!!Integration range: 2Theta: 53.000 to 73.000  Gamma: -105.000 to -75.000
!@!!Integration method: bin normalized
!@!N
!@!SS
!@!M
!@!L 0.0 0.0 0.0 0.0
!@!XDegrees
!@!YCounts
53.000 7.063981
53.005 6.713584
53.010 6.69457
53.015 6.484545
53.020 6.021642
53.025 5.811554
53.030 5.780535
53.035 5.730023
53.040 5.890456
53.045 6.170239
53.050 6.600363
53.055 6.933209
53.060 7.123939
53.065 7.052894
53.070 7.184617
53.075 7.212578
53.080 7.00421
53.085 7.037063
53.090 7.259171
53.095 7.328356
53.100 7.542491
53.105 7.406488
53.110 7.10815
53.115 6.836038
53.120 6.828895
53.125 6.998266
53.130 7.057674
53.135 7.292212
53.140 7.424943
53.145 7.638093
53.150 7.96117
53.155 8.492695
53.160 8.575617
53.165 8.666265
53.170 8.360891
53.175 8.491554
53.180 8.150797
53.185 7.52539
53.190 6.86523
53.195 6.593765
53.200 6.624717
53.205 6.883164
53.210 7.113455
53.215 7.077891
53.220 7.369165
53.225 7.650621
53.230 7.768422
53.235 7.30637
53.240 7.165692
53.245 7.102214
53.250 7.264618
53.255 7.247583
53.260 6.957797
53.265 6.942576
53.270 7.268978
53.275 7.290726
53.280 7.446929
53.285 7.812023
53.290 7.959528
53.295 8.121603
53.300 8.302988
53.305 8.298378
53.310 8.366441
53.315 8.384119
53.320 8.1534
53.325 7.570084
53.330 7.553631
53.335 7.426302
53.340 7.958896
53.345 8.191118
53.350 8.380775
53.355 8.258414
53.360 8.583277
53.365 8.241836
53.370 7.790203
53.375 7.388868
53.380 7.286386
53.385 7.221666
53.390 7.808042
53.395 8.093259
53.400 8.68854
53.405 8.882693
53.410 8.834648
53.415 8.640875
53.420 8.336021
53.425 7.853161
53.430 7.569934
53.435 7.053759
53.440 7.096647
53.445 7.453426
53.450 7.584876
53.455 7.780921
53.460 7.604903
53.465 7.472358
53.470 7.710024
53.475 7.418662
53.480 7.80877
53.485 7.776937
53.490 7.740256
53.495 7.935706
53.500 8.016557
53.505 8.165346
53.510 7.744325
53.515 7.234383
53.520 7.256582
53.525 7.354868
53.530 7.450728
53.535 7.289139
53.540 7.136067
53.545 6.995715
53.550 7.116582
53.555 7.134434
53.560 7.169765
53.565 7.772029
53.570 8.333838
53.575 8.74765
53.580 9.178352
53.585 9.152836
53.590 9.511099
53.595 9.352899
53.600 8.93336
53.605 8.961434
53.610 9.055513
53.615 8.805449
53.620 8.659008
53.625 8.439008
53.630 8.589584
53.635 8.677165
53.640 8.71342
53.645 8.889101
53.650 9.101033
53.655 9.257659
53.660 9.295447
53.665 9.50494
53.670 9.503784
53.675 9.303073
53.680 9.26424
53.685 9.493518
53.690 9.166632
53.695 8.859838
53.700 8.194314
53.705 7.810908
53.710 7.977661
53.715 7.823248
53.720 7.594982
53.725 8.321948
53.730 8.67529
53.735 9.666194
53.740 9.929831
53.745 9.658617
53.750 9.828838
53.755 9.701469
53.760 9.202218
53.765 8.45858
53.770 7.913958
53.775 7.178823
53.780 7.087256
53.785 6.955385
53.790 7.022258
53.795 7.797046
53.800 8.096872
53.805 8.565492
53.810 8.959271
53.815 9.061778
53.820 9.125968
53.825 9.167163
53.830 8.827305
53.835 8.580966
53.840 8.344357
53.845 8.32068
53.850 8.478919
53.855 8.547603
53.860 8.215799
53.865 8.361645
53.870 8.215443
53.875 8.244729
53.880 8.371985
53.885 8.251169
53.890 8.163568
53.895 8.57476
53.900 8.374241
53.905 8.658104
53.910 8.304429
53.915 8.030009
53.920 8.244405
53.925 8.155088
53.930 8.171115
53.935 8.541907
53.940 8.448386
53.945 9.009855
53.950 8.972526
53.955 8.797454
53.960 8.931053
53.965 8.850362
53.970 8.981437
53.975 8.812814
53.980 8.305614
53.985 8.316177
53.990 8.026156
53.995 7.524191
54.000 7.622377
54.005 7.27292
54.010 7.518747
54.015 7.480444
54.020 7.763331
54.025 7.973079
54.030 8.005252
54.035 7.946247
54.040 8.417437
54.045 8.545539
54.050 8.750278
54.055 8.725434
54.060 9.171869
54.065 9.273421
54.070 8.89379
54.075 8.138112
54.080 7.911463
54.085 7.686155
54.090 7.570602
54.095 7.293505
54.100 7.639726
54.105 8.209866
54.110 8.315315
54.115 8.502833
54.120 8.504837
54.125 8.36647
54.130 8.586092
54.135 8.668771
54.140 8.6201
54.145 8.927376
54.150 9.118179
54.155 9.177019
54.160 9.105868
54.165 9.214768
54.170 9.10287
54.175 9.193262
54.180 8.993795
54.185 8.841079
54.190 9.177037
54.195 9.322438
54.200 9.063063
54.205 8.921609
54.210 9.097612
54.215 8.970732
54.220 9.192986
54.225 9.210752
54.230 9.397298
54.235 9.244202
54.240 9.200961
54.245 9.050475
54.250 8.892011
54.255 8.507987
54.260 8.514205
54.265 8.568316
54.270 9.206516
54.275 9.691343
54.280 9.461261
54.285 9.893237
54.290 10.140945
54.295 10.115354
54.300 9.870846
54.305 9.722948
54.310 9.628581
54.315 9.714892
54.320 9.58739
54.325 9.416952
54.330 9.391273
54.335 9.322325
54.340 8.960333
54.345 8.950098
54.350 9.077641
54.355 9.420465
54.360 9.255688
54.365 9.004175
54.370 9.074234
54.375 8.710232
54.380 8.757131
54.385 8.626309
54.390 8.26281
54.395 8.369712
54.400 8.263443
54.405 8.219374
54.410 8.589456
54.415 8.392138
54.420 8.355788
54.425 8.332114
54.430 8.57404
54.435 8.659467
54.440 8.785012
54.445 8.811203
54.450 8.568666
54.455 8.395442
54.460 8.688991
54.465 8.281794
54.470 8.321926
54.475 8.173685
54.480 8.014301
54.485 7.965519
54.490 7.729928
54.495 7.419912
54.500 7.43428
54.505 7.226159
54.510 7.531318
54.515 8.090506
54.520 8.522732
54.525 9.203941
54.530 9.375459
54.535 9.424571
54.540 9.61081
54.545 9.162903
54.550 9.324543
54.555 9.446766
54.560 9.171368
54.565 9.500076
54.570 9.755733
54.575 9.544278
54.580 9.34467
54.585 8.826823
54.590 8.953856
54.595 8.721338
54.600 8.414173
54.605 8.644389
54.610 9.001485
54.615 9.179008
54.620 9.199368
54.625 9.074017
54.630 9.404606
54.635 9.776737
54.640 9.611895
54.645 9.462452
54.650 9.721137
54.655 9.960967
54.660 10.215167
54.665 10.228369
54.670 10.132224
54.675 9.454906
54.680 9.240815
54.685 8.917459
54.690 8.505748
54.695 8.384579
54.700 8.052839
54.705 8.09483
54.710 8.996518
54.715 9.428219
54.720 9.632586
54.725 9.669484
54.730 10.124703
54.735 10.17735
54.740 9.859333
54.745 10.164859
54.750 10.053276
54.755 9.896765
54.760 9.589046
54.765 9.196684
54.770 9.636003
54.775 9.789962
54.780 9.28644
54.785 9.263885
54.790 9.811891
54.795 10.107972
54.800 9.841569
54.805 9.678126
54.810 9.628701
54.815 9.841775
54.820 9.649071
54.825 9.690439
54.830 9.573833
54.835 9.73607
54.840 9.385666
54.845 9.449688
54.850 9.291214
54.855 9.327447
54.860 9.134074
54.865 9.053454
54.870 9.542355
54.875 10.165409
54.880 10.734694
54.885 10.557672
54.890 10.494231
54.895 10.953697
54.900 11.736384
54.905 11.857457
54.910 11.466091
54.915 11.091467
54.920 11.639262
54.925 11.646219
54.930 11.165949
54.935 10.138206
54.940 9.698624
54.945 10.054324
54.950 10.333724
54.955 10.230578
54.960 10.17144
54.965 10.079596
54.970 10.516164
54.975 10.545133
54.980 10.174699
54.985 10.168969
54.990 9.762004
54.995 9.980983
55.000 10.024032
55.005 10.291931
55.010 9.988726
55.015 9.425874
55.020 9.402762
55.025 9.771269
55.030 10.16257
55.035 10.178688
55.040 9.864114
55.045 10.348507
55.050 10.279176
55.055 10.501123
55.060 10.042925
55.065 9.366983
55.070 9.373843
55.075 9.488695
55.080 9.616661
55.085 9.909207
55.090 9.742422
55.095 10.253179
55.100 10.15692
55.105 10.084859
55.110 10.035406
55.115 10.471757
55.120 10.69734
55.125 10.182594
55.130 9.889915
55.135 10.23155
55.140 10.485461
55.145 10.454633
55.150 9.842862
55.155 9.655707
55.160 10.030282
55.165 10.11756
55.170 9.56918
55.175 9.146399
55.180 9.126003
55.185 9.579785
55.190 9.653719
55.195 9.37619
55.200 9.610176
55.205 10.151054
55.210 10.055546
55.215 9.9747
55.220 9.472973
55.225 9.649551
55.230 9.974506
55.235 9.762966
55.240 9.968027
55.245 9.902284
55.250 10.257969
55.255 10.13404
55.260 9.930715
55.265 9.825376
55.270 9.627076
55.275 9.735472
55.280 10.07344
55.285 9.675928
55.290 9.732181
55.295 9.437201
55.300 9.506245
55.305 9.573963
55.310 9.341734
55.315 9.224196
55.320 9.603198
55.325 9.48538
55.330 9.578111
55.335 9.945988
55.340 9.827787
55.345 9.372971
55.350 9.204172
55.355 8.895485
55.360 9.476375
55.365 9.58264
55.370 9.574358
55.375 9.923929
55.380 10.012908
55.385 10.084764
55.390 10.433164
55.395 10.281541
55.400 10.300482
55.405 9.803425
55.410 10.390522
55.415 10.849293
55.420 10.825991
55.425 10.442163
55.430 10.231496
55.435 10.161448
55.440 10.114892
55.445 9.62909
55.450 9.654941
55.455 9.939517
55.460 10.710596
55.465 11.056133
55.470 11.207661
55.475 11.127132
55.480 11.077003
55.485 10.901668
55.490 11.081055
55.495 10.34004
55.500 10.140784
55.505 10.151685
55.510 10.448768
55.515 10.539363
55.520 10.3682
55.525 10.638283
55.530 10.757098
55.535 10.588764
55.540 10.541759
55.545 10.383495
55.550 10.619805
55.555 10.452655
55.560 10.273522
55.565 10.230031
55.570 10.273643
55.575 10.369935
55.580 10.59761
55.585 10.499483
55.590 10.563349
55.595 10.514717
55.600 10.430851
55.605 10.234014
55.610 10.337444
55.615 10.29102
55.620 10.445275
55.625 10.446309
55.630 10.896624
55.635 11.296605
55.640 11.593796
55.645 11.301562
55.650 10.816436
55.655 10.482101
55.660 10.726853
55.665 10.818173
55.670 10.730268
55.675 10.833562
55.680 10.964969
55.685 11.101336
55.690 11.072557
55.695 10.386762
55.700 9.862535
55.705 9.831223
55.710 9.181707
55.715 9.098838
55.720 9.246373
55.725 9.585871
55.730 9.828285
55.735 9.802572
55.740 9.992843
55.745 10.729546
55.750 10.688009
55.755 10.638979
55.760 10.335093
55.765 10.071815
55.770 9.613073
55.775 8.956393
55.780 8.315298
55.785 8.072043
55.790 7.641834
55.795 8.105168
55.800 8.364518
55.805 8.991864
55.810 9.767188
55.815 10.457347
55.820 11.365785
55.825 11.57728
55.830 11.377855
55.835 12.127695
55.840 12.275754
55.845 12.003453
55.850 11.506925
55.855 11.33729
55.860 11.785443
55.865 11.859472
55.870 11.364644
55.875 11.668559
55.880 12.035945
55.885 12.420651
55.890 12.503138
55.895 12.150777
55.900 11.956427
55.905 11.853095
55.910 11.993685
55.915 11.552282
55.920 11.53289
55.925 11.227237
55.930 11.402083
55.935 11.66688
55.940 11.741251
55.945 11.553472
55.950 11.81868
55.955 12.071401
55.960 12.286383
55.965 11.948675
55.970 11.892449
55.975 11.644761
55.980 11.165212
55.985 10.802872
55.990 10.447804
55.995 10.869502
56.000 10.963928
56.005 11.082435
56.010 10.923304
56.015 11.076311
56.020 11.029642
56.025 11.143847
56.030 10.877979
56.035 10.983448
56.040 10.709404
56.045 10.681522
56.050 10.606248
56.055 10.529808
56.060 10.187398
56.065 10.125992
56.070 10.297998
56.075 10.684115
56.080 11.09734
56.085 11.134183
56.090 11.313478
56.095 11.375672
56.100 10.994724
56.105 10.924151
56.110 11.129704
56.115 11.483949
56.120 12.138883
56.125 12.570128
56.130 12.673208
56.135 12.68092
56.140 12.620263
56.145 12.568683
56.150 12.028467
56.155 11.58425
56.160 11.483101
56.165 11.79242
56.170 11.710378
56.175 11.280389
56.180 11.021845
56.185 11.36338
56.190 11.339132
56.195 10.790561
56.200 10.739308
56.205 10.743249
56.210 10.692907
56.215 10.395842
56.220 10.195884
56.225 10.745706
56.230 11.430665
56.235 11.518426
56.240 11.805403
56.245 11.869708
56.250 12.021905
56.255 11.933748
56.260 11.591129
56.265 11.033806
56.270 10.91383
56.275 11.142684
56.280 11.07402
56.285 11.049525
56.290 11.186936
56.295 10.819669
56.300 11.096191
56.305 11.189395
56.310 10.942719
56.315 10.884567
56.320 11.13054
56.325 11.556185
56.330 11.867892
56.335 11.998607
56.340 11.983519
56.345 12.492073
56.350 12.31305
56.355 11.644411
56.360 11.239655
56.365 11.281738
56.370 11.403236
56.375 11.659704
56.380 11.465715
56.385 11.696574
56.390 11.989238
56.395 12.026798
56.400 11.617035
56.405 11.105599
56.410 10.629301
56.415 10.870271
56.420 10.897025
56.425 11.198343
56.430 11.550175
56.435 11.973348
56.440 11.952872
56.445 12.102712
56.450 12.124736
56.455 12.660889
56.460 12.571408
56.465 12.237225
56.470 11.492999
56.475 11.380825
56.480 11.460369
56.485 11.3795
56.490 10.9385
56.495 10.587285
56.500 10.564325
56.505 11.195897
56.510 11.149052
56.515 11.566576
56.520 11.633266
56.525 11.847482
56.530 11.81223
56.535 11.637741
56.540 11.558981
56.545 12.227566
56.550 12.362238
56.555 12.370872
56.560 12.239384
56.565 12.360591
56.570 12.707307
56.575 12.347698
56.580 11.609783
56.585 10.902401
56.590 10.4224
56.595 10.542513
56.600 10.66296
56.605 10.704255
56.610 11.313985
56.615 11.218648
56.620 11.436121
56.625 11.770206
56.630 11.944586
56.635 11.871444
56.640 11.651265
56.645 11.584695
56.650 11.534462
56.655 11.608074
56.660 11.021126
56.665 10.668066
56.670 10.577343
56.675 10.868126
56.680 10.77321
56.685 11.057538
56.690 11.474852
56.695 12.082128
56.700 12.396399
56.705 12.588573
56.710 12.234075
56.715 12.45907
56.720 12.361266
56.725 12.118293
56.730 12.191991
56.735 12.407873
56.740 12.76264
56.745 12.98754
56.750 12.858255
56.755 12.913082
56.760 13.270287
56.765 12.816181
56.770 12.68767
56.775 12.397001
56.780 12.216543
56.785 12.1499
56.790 12.080242
56.795 11.896606
56.800 12.012308
56.805 12.036986
56.810 12.391829
56.815 12.492924
56.820 12.288021
56.825 12.027777
56.830 11.612332
56.835 11.246845
56.840 11.025258
56.845 11.185893
56.850 11.151573
56.855 11.387511
56.860 11.545498
56.865 11.987546
56.870 12.49316
56.875 12.490047
56.880 12.425029
56.885 12.254278
56.890 11.967822
56.895 12.042251
56.900 11.789785
56.905 11.585902
56.910 11.475017
56.915 12.125802
56.920 12.434682
56.925 12.496524
56.930 12.291071
56.935 12.237251
56.940 11.86296
56.945 11.690424
56.950 10.756228
56.955 10.686324
56.960 11.007938
56.965 11.443684
56.970 12.402951
56.975 13.069548
56.980 13.025047
56.985 13.338856
56.990 13.678611
56.995 13.276111
57.000 13.184892
57.005 12.793962
57.010 12.547194
57.015 12.663282
57.020 12.614029
57.025 12.370182
57.030 12.510981
57.035 12.386976
57.040 12.541002
57.045 11.971351
57.050 11.353643
57.055 11.185786
57.060 11.16203
57.065 10.790107
57.070 10.183212
57.075 10.133121
57.080 10.540017
57.085 11.021973
57.090 10.715602
57.095 10.712071
57.100 11.280501
57.105 11.169937
57.110 11.06044
57.115 11.57809
57.120 11.713522
57.125 12.21397
57.130 12.562948
57.135 12.764111
57.140 13.285166
57.145 12.996773
57.150 12.288421
57.155 12.409903
57.160 12.372071
57.165 11.821428
57.170 11.117445
57.175 11.151122
57.180 11.163673
57.185 11.56699
57.190 11.790064
57.195 11.722565
57.200 12.24852
57.205 12.368401
57.210 12.068947
57.215 12.268437
57.220 12.171988
57.225 11.678427
57.230 11.459603
57.235 11.235399
57.240 11.398525
57.245 11.564266
57.250 11.348186
57.255 10.840727
57.260 10.99795
57.265 11.096882
57.270 11.402173
57.275 11.898245
57.280 12.396646
57.285 13.180994
57.290 14.166039
57.295 14.578561
57.300 14.831166
57.305 14.296997
57.310 14.137348
57.315 13.98699
57.320 13.675758
57.325 13.170093
57.330 12.906642
57.335 13.091436
57.340 13.518937
57.345 13.437601
57.350 12.870299
57.355 12.735824
57.360 12.726182
57.365 12.828651
57.370 12.410238
57.375 12.405732
57.380 12.546103
57.385 12.659334
57.390 12.713928
57.395 12.363345
57.400 12.254086
57.405 12.507907
57.410 12.397711
57.415 12.401642
57.420 12.826784
57.425 12.546943
57.430 12.5897
57.435 12.587951
57.440 12.400365
57.445 12.435809
57.450 12.314941
57.455 12.431959
57.460 12.57688
57.465 12.530798
57.470 12.428971
57.475 12.241568
57.480 11.689517
57.485 11.199957
57.490 10.989827
57.495 11.293655
57.500 11.562123
57.505 11.591152
57.510 11.817003
57.515 12.278357
57.520 12.562729
57.525 12.157887
57.530 12.14404
57.535 12.087838
57.540 12.05781
57.545 12.536299
57.550 12.904692
57.555 13.480333
57.560 14.239152
57.565 14.120719
57.570 14.442854
57.575 14.422862
57.580 14.118865
57.585 14.413368
57.590 14.483779
57.595 14.498389
57.600 14.721471
57.605 14.387974
57.610 14.529504
57.615 14.452971
57.620 13.848608
57.625 13.100674
57.630 12.769569
57.635 12.715874
57.640 12.847006
57.645 12.716958
57.650 12.907742
57.655 13.368222
57.660 14.441179
57.665 14.422464
57.670 13.865999
57.675 13.560705
57.680 13.757871
57.685 13.563128
57.690 12.979071
57.695 12.300403
57.700 12.425472
57.705 12.655918
57.710 13.110852
57.715 12.929048
57.720 12.853661
57.725 12.832913
57.730 12.756788
57.735 12.586093
57.740 12.655702
57.745 12.538483
57.750 12.726774
57.755 13.073625
57.760 13.861671
57.765 14.30767
57.770 14.484859
57.775 14.696255
57.780 14.947225
57.785 14.812218
57.790 14.655319
57.795 14.087559
57.800 13.79706
57.805 13.940258
57.810 13.474554
57.815 13.005404
57.820 12.749483
57.825 12.769056
57.830 12.867869
57.835 12.695211
57.840 12.577952
57.845 12.541604
57.850 13.139853
57.855 13.446432
57.860 13.322098
57.865 13.296045
57.870 13.64736
57.875 13.751728
57.880 13.831684
57.885 13.602135
57.890 13.742646
57.895 13.811921
57.900 13.332396
57.905 13.32266
57.910 14.366405
57.915 14.20312
57.920 14.13305
57.925 13.834052
57.930 14.022858
57.935 14.554177
57.940 14.225144
57.945 13.762899
57.950 14.146791
57.955 14.045757
57.960 13.965492
57.965 14.039728
57.970 14.379025
57.975 14.551778
57.980 13.96692
57.985 13.971772
57.990 13.754958
57.995 13.430464
58.000 13.461926
58.005 13.767746
58.010 13.942101
58.015 13.621049
58.020 13.410206
58.025 13.841893
58.030 14.033271
58.035 13.883914
58.040 13.768935
58.045 14.134567
58.050 14.640623
58.055 15.101387
58.060 15.365518
58.065 15.33138
58.070 14.988808
58.075 14.610496
58.080 14.124535
58.085 13.400422
58.090 12.977875
58.095 12.94728
58.100 13.066259
58.105 13.163291
58.110 13.096385
58.115 13.788801
58.120 14.329046
58.125 14.214885
58.130 14.072085
58.135 13.824147
58.140 13.657066
58.145 13.297344
58.150 13.08789
58.155 13.355012
58.160 13.762286
58.165 13.618101
58.170 13.527433
58.175 13.705206
58.180 14.157466
58.185 14.095366
58.190 13.587687
58.195 12.70203
58.200 13.066215
58.205 13.357138
58.210 13.273856
58.215 13.346276
58.220 13.414701
58.225 13.764009
58.230 14.311072
58.235 14.282703
58.240 14.023396
58.245 13.623199
58.250 13.028175
58.255 13.188557
58.260 13.221231
58.265 13.33356
58.270 13.278201
58.275 13.299268
58.280 13.451646
58.285 13.525794
58.290 13.554623
58.295 13.391697
58.300 13.019125
58.305 12.924627
58.310 12.941196
58.315 13.132634
58.320 13.111966
58.325 13.320807
58.330 13.391024
58.335 13.926056
58.340 14.08626
58.345 14.379278
58.350 14.314592
58.355 14.688561
58.360 14.26239
58.365 14.202257
58.370 14.109048
58.375 14.355887
58.380 14.406399
58.385 14.514555
58.390 14.073442
58.395 14.636906
58.400 15.024693
58.405 14.86438
58.410 14.505505
58.415 14.257439
58.420 14.323264
58.425 14.296161
58.430 14.516619
58.435 14.154016
58.440 14.209138
58.445 14.360145
58.450 14.152514
58.455 14.532805
58.460 14.657058
58.465 13.984513
58.470 14.076313
58.475 14.00621
58.480 14.315762
58.485 14.785644
58.490 14.127669
58.495 13.821131
58.500 14.079792
58.505 14.068863
58.510 14.537263
58.515 14.924804
58.520 15.22433
58.525 15.461939
58.530 15.736168
58.535 15.805818
58.540 15.603446
58.545 15.274558
58.550 14.671714
58.555 14.333534
58.560 14.486526
