!@!!GADDS PLOTSO FILE: Chi integration type
!@!!Title/SampleName: map-152
!@!!Comment: ?
!@!!User: Bruker Instrument Administrator
!@!!Site: University of Illinois Chicago
!@!!Frame: map-152_01_000.gfrm
!@!!Wavelengths    1.54184   1.54056   1.54439
!@!!Frame angles: 2Theta: 63.000 Omega: 50.000 Phi: 0.000 Chi: 90.000
!@!!Integration range: 2Theta: 53.000 to 73.000  Gamma: -105.000 to -75.000
!@!!Integration method: bin normalized
!@!N
!@!SS
!@!M
!@!L 0.0 0.0 0.0 0.0
!@!XDegrees
!@!YCounts
53.000 7.444248
53.005 7.75019
53.010 7.994511
53.015 7.902087
53.020 8.256306
53.025 8.550452
53.030 8.82775
53.035 8.995035
53.040 8.599389
53.045 8.805723
53.050 8.626792
53.055 8.959729
53.060 8.906197
53.065 8.436759
53.070 8.265809
53.075 8.434544
53.080 8.643631
53.085 8.503272
53.090 8.410559
53.095 8.528323
53.100 8.618301
53.105 8.740994
53.110 8.559711
53.115 8.811817
53.120 8.610951
53.125 8.470951
53.130 8.389009
53.135 8.245565
53.140 8.334089
53.145 7.820206
53.150 7.464796
53.155 7.695797
53.160 8.180051
53.165 8.624925
53.170 9.275928
53.175 9.273145
53.180 10.036871
53.185 10.66438
53.190 10.510196
53.195 10.171921
53.200 9.961875
53.205 9.555449
53.210 9.524128
53.215 9.255116
53.220 8.751277
53.225 8.859321
53.230 8.931956
53.235 8.649658
53.240 8.397639
53.245 8.484432
53.250 8.560279
53.255 8.807693
53.260 8.682605
53.265 8.370046
53.270 8.441497
53.275 8.119632
53.280 7.878929
53.285 7.467735
53.290 7.422172
53.295 7.664778
53.300 7.849493
53.305 8.06813
53.310 7.99931
53.315 7.920202
53.320 8.505298
53.325 8.34343
53.330 8.363866
53.335 8.388229
53.340 8.543577
53.345 8.833439
53.350 8.768067
53.355 8.555944
53.360 8.416016
53.365 8.454894
53.370 8.41224
53.375 8.596478
53.380 8.774088
53.385 8.887349
53.390 9.118843
53.395 8.888696
53.400 8.773448
53.405 8.536277
53.410 8.426796
53.415 8.350047
53.420 8.326055
53.425 8.579412
53.430 8.733782
53.435 8.621109
53.440 8.46646
53.445 8.362886
53.450 8.334772
53.455 8.516152
53.460 8.38044
53.465 8.633681
53.470 9.339231
53.475 10.005312
53.480 10.36688
53.485 10.28608
53.490 10.113622
53.495 9.957541
53.500 9.515522
53.505 9.069102
53.510 8.683905
53.515 8.611538
53.520 8.423131
53.525 8.520985
53.530 8.726485
53.535 8.66563
53.540 8.23566
53.545 8.128248
53.550 8.075495
53.555 8.266286
53.560 8.388289
53.565 8.352506
53.570 8.466576
53.575 9.072392
53.580 8.878182
53.585 8.86902
53.590 8.970541
53.595 9.036187
53.600 9.652456
53.605 9.697231
53.610 9.513987
53.615 10.277091
53.620 10.48617
53.625 9.996946
53.630 9.668805
53.635 9.757153
53.640 10.284471
53.645 10.097743
53.650 9.537831
53.655 9.476744
53.660 9.664616
53.665 9.24192
53.670 8.303286
53.675 8.025733
53.680 8.395528
53.685 8.299975
53.690 8.40046
53.695 8.654264
53.700 9.098214
53.705 9.397609
53.710 9.350519
53.715 9.549835
53.720 9.887199
53.725 9.980375
53.730 9.974445
53.735 9.957493
53.740 10.151413
53.745 9.81216
53.750 9.636522
53.755 9.612472
53.760 9.596828
53.765 9.347189
53.770 9.394548
53.775 9.548781
53.780 10.107727
53.785 9.884099
53.790 9.603805
53.795 9.318696
53.800 9.206635
53.805 9.254165
53.810 8.820263
53.815 8.583669
53.820 8.7929
53.825 8.69133
53.830 9.160284
53.835 9.810034
53.840 9.833343
53.845 9.7595
53.850 9.925956
53.855 9.639229
53.860 9.897518
53.865 9.512372
53.870 9.405576
53.875 9.586912
53.880 9.454222
53.885 9.243765
53.890 9.420053
53.895 9.237806
53.900 9.471577
53.905 9.386698
53.910 9.209636
53.915 9.141313
53.920 9.038926
53.925 8.899182
53.930 8.900635
53.935 8.670901
53.940 8.938107
53.945 8.947728
53.950 9.031292
53.955 9.477356
53.960 9.565935
53.965 9.766292
53.970 9.347764
53.975 9.435217
53.980 9.921622
53.985 10.155478
53.990 9.732601
53.995 9.211153
54.000 9.049843
54.005 8.952452
54.010 8.435187
54.015 8.373324
54.020 8.360783
54.025 8.83069
54.030 9.534099
54.035 9.537577
54.040 9.748144
54.045 9.352728
54.050 9.248712
54.055 9.401353
54.060 8.988584
54.065 8.532759
54.070 8.869898
54.075 8.94006
54.080 9.277241
54.085 9.287112
54.090 9.489912
54.095 10.301332
54.100 10.053629
54.105 9.934902
54.110 9.87578
54.115 9.604087
54.120 9.521194
54.125 8.772529
54.130 8.101353
54.135 8.087974
54.140 7.941515
54.145 8.138751
54.150 8.364669
54.155 8.507257
54.160 8.864835
54.165 9.200782
54.170 9.058611
54.175 9.021903
54.180 9.032308
54.185 8.736563
54.190 8.889612
54.195 8.946613
54.200 8.70203
54.205 9.379158
54.210 9.762365
54.215 9.577196
54.220 9.791024
54.225 9.685908
54.230 10.169782
54.235 10.363424
54.240 9.801113
54.245 9.247583
54.250 9.134074
54.255 9.240706
54.260 9.021648
54.265 8.650712
54.270 8.482527
54.275 8.810737
54.280 9.476186
54.285 9.389962
54.290 9.088465
54.295 8.862859
54.300 9.071631
54.305 9.41034
54.310 9.377219
54.315 8.928555
54.320 8.702869
54.325 8.707711
54.330 8.754447
54.335 8.78034
54.340 8.649953
54.345 8.591279
54.350 8.516618
54.355 9.099482
54.360 9.147687
54.365 9.161599
54.370 8.892649
54.375 8.816867
54.380 8.915749
54.385 9.189446
54.390 9.126261
54.395 9.642017
54.400 10.13896
54.405 10.521845
54.410 10.667168
54.415 10.430946
54.420 10.282641
54.425 10.103879
54.430 9.647804
54.435 9.019766
54.440 9.051429
54.445 8.945134
54.450 9.103337
54.455 8.741165
54.460 8.206417
54.465 7.804614
54.470 8.009506
54.475 7.702892
54.480 7.79048
54.485 8.180514
54.490 8.431507
54.495 9.001009
54.500 9.609056
54.505 9.298962
54.510 9.10036
54.515 9.089606
54.520 8.525415
54.525 8.476743
54.530 7.81777
54.535 7.464365
54.540 7.699199
54.545 8.146238
54.550 8.814143
54.555 9.252019
54.560 9.594646
54.565 9.930704
54.570 9.939664
54.575 10.063067
54.580 9.735518
54.585 9.579045
54.590 9.548708
54.595 9.701906
54.600 9.858541
54.605 9.819942
54.610 10.003941
54.615 10.002891
54.620 10.208042
54.625 10.081809
54.630 10.205312
54.635 10.587406
54.640 10.631084
54.645 10.295813
54.650 10.220308
54.655 9.776166
54.660 9.819854
54.665 9.875079
54.670 9.322553
54.675 9.475254
54.680 9.395941
54.685 9.55725
54.690 9.831805
54.695 9.79313
54.700 9.621352
54.705 9.905047
54.710 9.145223
54.715 8.97158
54.720 8.691441
54.725 8.658981
54.730 8.533597
54.735 8.75479
54.740 8.824963
54.745 9.51687
54.750 9.785677
54.755 10.636621
54.760 10.940432
54.765 11.105496
54.770 10.827494
54.775 10.910856
54.780 10.82802
54.785 10.371263
54.790 9.646075
54.795 9.479997
54.800 9.85265
54.805 10.37749
54.810 10.497817
54.815 10.708822
54.820 10.584163
54.825 10.482621
54.830 10.163717
54.835 9.387729
54.840 9.042114
54.845 9.376511
54.850 9.824962
54.855 10.130322
54.860 10.492723
54.865 10.681324
54.870 10.825214
54.875 10.66665
54.880 10.551396
54.885 10.427774
54.890 10.416632
54.895 10.273629
54.900 10.456572
54.905 10.717882
54.910 10.598298
54.915 9.955149
54.920 9.415496
54.925 9.102687
54.930 9.05684
54.935 9.007444
54.940 8.609346
54.945 8.630506
54.950 8.871505
54.955 9.27436
54.960 9.324277
54.965 9.002598
54.970 8.715928
54.975 9.048315
54.980 9.295578
54.985 9.416886
54.990 9.272568
54.995 9.47661
55.000 9.338867
55.005 9.30591
55.010 9.112151
55.015 8.720139
55.020 8.607226
55.025 8.398521
55.030 8.605989
55.035 8.708838
55.040 8.778604
55.045 8.796191
55.050 9.01331
55.055 8.89574
55.060 8.977508
55.065 9.028008
55.070 9.4317
55.075 9.420272
55.080 9.119658
55.085 9.012604
55.090 9.274714
55.095 9.127159
55.100 8.995915
55.105 8.52741
55.110 8.982488
55.115 8.950772
55.120 9.227032
55.125 9.574471
55.130 9.941631
55.135 10.051839
55.140 10.187474
55.145 9.544438
55.150 9.801941
55.155 9.332471
55.160 9.281966
55.165 9.093481
55.170 8.744005
55.175 9.300281
55.180 9.579195
55.185 9.470849
55.190 9.778094
55.195 9.612922
55.200 9.862631
55.205 9.911211
55.210 9.671092
55.215 9.585033
55.220 9.654518
55.225 9.148512
55.230 9.029305
55.235 9.335428
55.240 9.555066
55.245 9.921036
55.250 9.842323
55.255 10.138415
55.260 10.435136
55.265 10.530526
55.270 10.630579
55.275 10.414089
55.280 10.26011
55.285 10.255871
55.290 9.830006
55.295 9.322555
55.300 9.144711
55.305 8.841715
55.310 9.004322
55.315 9.016535
55.320 9.148195
55.325 9.510606
55.330 9.638722
55.335 9.323591
55.340 9.04183
55.345 8.857231
55.350 9.04614
55.355 8.947803
55.360 9.252301
55.365 9.522164
55.370 9.751613
55.375 9.762518
55.380 9.647403
55.385 9.411501
55.390 9.510767
55.395 9.109839
55.400 8.98407
55.405 8.936859
55.410 8.928089
55.415 8.886141
55.420 9.119365
55.425 8.601571
55.430 8.526214
55.435 8.533367
55.440 8.318554
55.445 8.068418
55.450 8.204513
55.455 8.059302
55.460 7.930972
55.465 7.7537
55.470 7.418266
55.475 7.920937
55.480 8.318542
55.485 8.307717
55.490 8.654999
55.495 9.119209
55.500 9.285411
55.505 9.509566
55.510 9.091972
55.515 9.302846
55.520 8.99034
55.525 9.138756
55.530 9.236422
55.535 9.4289
55.540 9.720479
55.545 9.518097
55.550 9.383347
55.555 9.685081
55.560 9.415872
55.565 9.430936
55.570 9.621166
55.575 9.569569
55.580 10.316396
55.585 10.38764
55.590 10.334052
55.595 10.642965
55.600 10.782401
55.605 10.426588
55.610 10.498682
55.615 10.111323
55.620 9.673101
55.625 9.34059
55.630 9.176964
55.635 8.935829
55.640 8.622726
55.645 8.427235
55.650 8.358612
55.655 8.545304
55.660 8.554307
55.665 8.129826
55.670 7.819321
55.675 8.006751
55.680 7.752711
55.685 7.91457
55.690 8.188408
55.695 8.512877
55.700 8.521304
55.705 8.510477
55.710 8.235493
55.715 8.384949
55.720 8.394797
55.725 8.081473
55.730 8.11203
55.735 8.387515
55.740 8.518251
55.745 8.908278
55.750 9.210056
55.755 9.345555
55.760 9.384638
55.765 9.196173
55.770 9.045037
55.775 9.046959
55.780 8.824475
55.785 8.361462
55.790 8.479467
55.795 8.654019
55.800 8.366129
55.805 8.283321
55.810 8.574834
55.815 9.03852
55.820 9.448409
55.825 9.243572
55.830 9.345749
55.835 10.091942
55.840 10.789211
55.845 10.488985
55.850 10.163537
55.855 10.005042
55.860 10.123791
55.865 10.203561
55.870 9.50219
55.875 9.207947
55.880 9.550187
55.885 9.978968
55.890 10.141811
55.895 10.219169
55.900 9.980844
55.905 10.144978
55.910 10.113735
55.915 9.773226
55.920 9.438555
55.925 9.147242
55.930 8.937364
55.935 9.179033
55.940 9.129635
55.945 9.043457
55.950 9.371977
55.955 9.421033
55.960 9.582115
55.965 9.655447
55.970 9.338702
55.975 9.265333
55.980 9.110403
55.985 8.839799
55.990 8.549463
55.995 8.363712
56.000 8.684057
56.005 9.476942
56.010 9.963754
56.015 10.204968
56.020 10.304559
56.025 10.68752
56.030 10.822546
56.035 10.937959
56.040 10.47783
56.045 10.256172
56.050 9.877689
56.055 10.143914
56.060 10.198235
56.065 10.190291
56.070 10.204366
56.075 10.413721
56.080 10.449574
56.085 10.431171
56.090 10.198773
56.095 10.101694
56.100 9.635206
56.105 9.209813
56.110 8.709576
56.115 8.951806
56.120 8.975561
56.125 8.34881
56.130 8.163823
56.135 8.413145
56.140 8.646952
56.145 8.917666
56.150 8.87376
56.155 9.070127
56.160 10.324392
56.165 10.319206
56.170 10.01576
56.175 9.985394
56.180 10.413651
56.185 10.603516
56.190 10.162419
56.195 9.413828
56.200 9.40451
56.205 9.423008
56.210 9.075658
56.215 8.429693
56.220 8.335108
56.225 8.456722
56.230 8.934304
56.235 9.302794
56.240 9.567761
56.245 9.883015
56.250 10.120712
56.255 10.084881
56.260 9.941559
56.265 10.258622
56.270 9.822315
56.275 9.990473
56.280 9.58822
56.285 9.353383
56.290 9.127559
56.295 9.231749
56.300 9.114157
56.305 9.400026
56.310 9.3083
56.315 9.801284
56.320 10.354579
56.325 10.818323
56.330 10.922278
56.335 10.649459
56.340 10.727689
56.345 10.727096
56.350 11.14645
56.355 10.815968
56.360 10.95894
56.365 10.567891
56.370 10.65653
56.375 10.720975
56.380 10.681857
56.385 10.808735
56.390 10.911648
56.395 10.847212
56.400 10.999521
56.405 10.642426
56.410 10.429337
56.415 9.935396
56.420 9.284492
56.425 9.495706
56.430 9.461251
56.435 9.642799
56.440 9.713445
56.445 9.993741
56.450 10.245751
56.455 10.424773
56.460 10.536532
56.465 10.568303
56.470 10.516528
56.475 10.357721
56.480 10.576088
56.485 10.85621
56.490 10.877164
56.495 10.47924
56.500 10.08019
56.505 10.171307
56.510 10.377928
56.515 10.188345
56.520 10.08107
56.525 10.738869
56.530 10.507469
56.535 10.972267
56.540 11.084812
56.545 10.771097
56.550 10.484364
56.555 10.525094
56.560 9.889328
56.565 10.457645
56.570 10.270769
56.575 10.45415
56.580 10.864792
56.585 11.449237
56.590 11.432512
56.595 11.507453
56.600 11.383713
56.605 11.470957
56.610 11.56918
56.615 11.396632
56.620 10.861849
56.625 9.907376
56.630 9.985263
56.635 9.947632
56.640 10.09611
56.645 9.937259
56.650 10.097949
56.655 10.190819
56.660 10.40693
56.665 10.342397
56.670 9.875735
56.675 9.142174
56.680 9.346294
56.685 9.681652
56.690 10.028609
56.695 10.423251
56.700 10.257798
56.705 10.782239
56.710 11.672737
56.715 11.519902
56.720 11.303004
56.725 11.178988
56.730 11.205606
56.735 11.657939
56.740 11.254987
56.745 10.336048
56.750 10.321347
56.755 10.011589
56.760 9.969332
56.765 9.946863
56.770 9.745754
56.775 10.046807
56.780 10.189118
56.785 9.926806
56.790 10.213957
56.795 10.195818
56.800 9.694346
56.805 9.281277
56.810 8.83778
56.815 9.214373
56.820 9.424404
56.825 9.146031
56.830 9.300876
56.835 9.475048
56.840 9.984602
56.845 10.048551
56.850 9.8187
56.855 10.159873
56.860 10.634808
56.865 10.944418
56.870 11.016316
56.875 10.700703
56.880 10.75306
56.885 10.604466
56.890 9.773447
56.895 9.429067
56.900 9.018286
56.905 9.092103
56.910 9.252395
56.915 9.285501
56.920 9.220639
56.925 9.696635
56.930 9.84466
56.935 9.690556
56.940 9.769496
56.945 9.546552
56.950 9.869514
56.955 10.529542
56.960 10.467752
56.965 10.057273
56.970 10.185876
56.975 10.628358
56.980 10.791349
56.985 10.396128
56.990 9.995449
56.995 9.762775
57.000 10.062057
57.005 9.792379
57.010 9.225926
57.015 9.421792
57.020 9.460823
57.025 9.690068
57.030 9.933434
57.035 9.915874
57.040 10.122419
57.045 10.144034
57.050 10.213012
57.055 9.92785
57.060 9.619773
57.065 9.50812
57.070 9.23761
57.075 9.059738
57.080 9.037462
57.085 8.759024
57.090 8.569453
57.095 8.798714
57.100 8.906629
57.105 9.498122
57.110 9.666116
57.115 9.142307
57.120 9.111872
57.125 9.012088
57.130 9.05196
57.135 8.856728
57.140 8.561814
57.145 8.255476
57.150 8.872437
57.155 8.923918
57.160 9.043437
57.165 9.283676
57.170 9.509453
57.175 9.669462
57.180 9.834346
57.185 9.539412
57.190 9.685982
57.195 9.856957
57.200 9.705679
57.205 9.593094
57.210 9.422221
57.215 9.22652
57.220 9.474521
57.225 9.601751
57.230 9.250039
57.235 9.073786
57.240 9.04189
57.245 9.450432
57.250 9.604352
57.255 9.370054
57.260 9.273952
57.265 9.430575
57.270 9.452743
57.275 9.199834
57.280 9.074888
57.285 9.270565
57.290 9.067941
57.295 8.987488
57.300 8.945815
57.305 9.26741
57.310 9.609776
57.315 9.691989
57.320 9.492632
57.325 10.021963
57.330 10.284189
57.335 10.435554
57.340 10.361068
57.345 9.988884
57.350 9.435337
57.355 9.488408
57.360 9.274224
57.365 9.311529
57.370 9.144295
57.375 8.716873
57.380 8.864506
57.385 9.557409
57.390 9.654284
57.395 9.479483
57.400 9.200998
57.405 9.562008
57.410 10.475477
57.415 10.685932
57.420 10.395578
57.425 10.172957
57.430 10.437869
57.435 11.009369
57.440 10.859831
57.445 10.317678
57.450 9.999007
57.455 10.359732
57.460 10.470592
57.465 10.274158
57.470 9.577048
57.475 9.197906
57.480 9.137848
57.485 9.512421
57.490 9.496448
57.495 9.510405
57.500 9.58262
57.505 9.471204
57.510 9.184574
57.515 9.019816
57.520 8.662391
57.525 8.382138
57.530 8.147714
57.535 8.414303
57.540 8.777154
57.545 9.055134
57.550 9.1691
57.555 8.871876
57.560 8.830583
57.565 9.081773
57.570 8.751621
57.575 9.030687
57.580 9.170163
57.585 9.325119
57.590 9.37039
57.595 9.384699
57.600 9.116378
57.605 9.339735
57.610 9.227086
57.615 9.392051
57.620 9.471786
57.625 9.768262
57.630 10.020452
57.635 10.01519
57.640 9.935265
57.645 9.527229
57.650 9.249173
57.655 9.066854
57.660 8.953254
57.665 8.942931
57.670 9.067463
57.675 9.017728
57.680 9.30534
57.685 9.475689
57.690 9.399746
57.695 9.445373
57.700 9.185267
57.705 9.032796
57.710 8.849729
57.715 8.600489
57.720 8.48694
57.725 8.858973
57.730 8.848046
57.735 8.957011
57.740 9.312037
57.745 9.42729
57.750 9.62023
57.755 9.900382
57.760 9.492641
57.765 9.737362
57.770 9.778689
57.775 9.525648
57.780 9.616802
57.785 9.498978
57.790 9.48582
57.795 9.772813
57.800 9.393357
57.805 9.375887
57.810 9.525681
57.815 10.107978
57.820 9.963311
57.825 9.964231
57.830 9.786361
57.835 10.057627
57.840 10.108946
57.845 9.935968
57.850 9.564353
57.855 9.926491
57.860 9.913652
57.865 9.917118
57.870 10.262472
57.875 10.40953
57.880 10.288293
57.885 10.342023
57.890 10.599405
57.895 10.947567
57.900 11.016401
57.905 10.667293
57.910 10.45001
57.915 10.720184
57.920 10.419211
57.925 9.766646
57.930 9.595389
57.935 9.345906
57.940 8.911733
57.945 8.783036
57.950 8.882507
57.955 9.243421
57.960 9.480681
57.965 9.784973
57.970 10.256241
57.975 10.897647
57.980 11.367027
57.985 11.151906
57.990 10.662612
57.995 10.328735
58.000 9.890445
58.005 9.369065
58.010 9.045557
58.015 8.59634
58.020 8.801075
58.025 9.379712
58.030 9.686937
58.035 10.077795
58.040 10.454713
58.045 10.570019
58.050 10.597683
58.055 10.628826
58.060 10.266424
58.065 10.083748
58.070 10.221271
58.075 10.240984
58.080 10.305
58.085 10.419218
58.090 10.169471
58.095 9.991506
58.100 9.764672
58.105 9.635507
58.110 9.471333
58.115 9.400311
58.120 9.153814
58.125 9.583545
58.130 9.652729
58.135 9.533984
58.140 9.482127
58.145 9.49267
58.150 9.598324
58.155 9.596596
58.160 9.601563
58.165 10.30361
58.170 10.622485
58.175 10.709649
58.180 10.641025
58.185 10.650117
58.190 10.868512
58.195 10.558234
58.200 10.008892
58.205 9.823778
58.210 9.905035
58.215 9.860121
58.220 9.566511
58.225 9.448413
58.230 9.64371
58.235 9.84742
58.240 9.789728
58.245 9.792367
58.250 10.22443
58.255 10.878919
58.260 10.956842
58.265 11.008241
58.270 11.274111
58.275 11.445675
58.280 11.27825
58.285 11.094677
58.290 10.603577
58.295 10.443583
58.300 10.13673
58.305 9.982733
58.310 10.088582
58.315 9.852694
58.320 9.749751
58.325 10.071918
58.330 10.188313
58.335 10.01707
58.340 10.047847
58.345 9.994164
58.350 10.473698
58.355 10.717949
58.360 10.663594
58.365 10.779932
58.370 11.012102
58.375 10.770318
58.380 10.844451
58.385 10.733283
58.390 10.558194
58.395 10.518811
58.400 10.245566
58.405 9.96568
58.410 9.859612
58.415 9.804636
58.420 9.522756
58.425 9.399008
58.430 9.522179
58.435 9.933616
58.440 10.280209
58.445 10.312491
58.450 10.249237
58.455 10.697685
58.460 10.705984
58.465 10.996305
58.470 11.456779
58.475 11.311131
58.480 11.727553
58.485 11.543379
58.490 11.459237
58.495 11.699157
58.500 11.673519
58.505 11.351902
58.510 11.53383
58.515 11.551324
58.520 12.094136
58.525 12.403899
58.530 12.475314
58.535 12.544692
58.540 12.629115
58.545 13.025376
58.550 12.786042
58.555 12.235271
58.560 11.968468
58.565 11.8515
58.570 11.386469
58.575 11.148812
58.580 10.791044
58.585 10.929421
58.590 11.256495
58.595 11.284254
58.600 11.387066
58.605 12.07218
58.610 11.740017
58.615 11.470051
58.620 11.253589
58.625 11.093959
58.630 10.844119
58.635 10.610955
58.640 10.378608
58.645 10.524739
58.650 11.055483
58.655 11.228964
58.660 11.322401
58.665 11.296304
