!@!!GADDS PLOTSO FILE: Chi integration type
!@!!Title/SampleName: map-15b
!@!!Comment: ?
!@!!User: Bruker Instrument Administrator
!@!!Site: University of Illinois Chicago
!@!!Frame: map-15b_01_000.gfrm
!@!!Wavelengths    1.54184   1.54056   1.54439
!@!!Frame angles: 2Theta: 63.000 Omega: 50.000 Phi: 0.000 Chi: 90.000
!@!!Integration range: 2Theta: 53.000 to 73.000  Gamma: -105.000 to -75.000
!@!!Integration method: bin normalized
!@!N
!@!SS
!@!M
!@!L 0.0 0.0 0.0 0.0
!@!XDegrees
!@!YCounts
53.000 7.327377
53.005 7.425889
53.010 7.343273
53.015 7.100252
53.020 6.868062
53.025 7.287223
53.030 7.8993
53.035 7.835779
53.040 7.767601
53.045 7.534706
53.050 7.519138
53.055 7.424671
53.060 7.392451
53.065 7.240281
53.070 7.604236
53.075 7.654128
53.080 7.931649
53.085 7.986186
53.090 7.983933
53.095 7.742225
53.100 7.482058
53.105 7.297699
53.110 7.435506
53.115 7.335675
53.120 7.261875
53.125 7.248033
53.130 7.106363
53.135 6.786347
53.140 6.909848
53.145 7.007294
53.150 7.540494
53.155 8.015086
53.160 8.267962
53.165 8.209846
53.170 8.40109
53.175 8.129036
53.180 7.678566
53.185 7.646349
53.190 7.827752
53.195 7.773913
53.200 8.051521
53.205 8.031658
53.210 8.226174
53.215 8.284675
53.220 8.22291
53.225 7.814616
53.230 7.633024
53.235 7.483058
53.240 7.251207
53.245 7.14839
53.250 7.92089
53.255 7.839985
53.260 8.150649
53.265 8.276493
53.270 8.626584
53.275 8.751462
53.280 8.899792
53.285 8.980242
53.290 8.861005
53.295 8.611193
53.300 8.393511
53.305 8.297209
53.310 8.290198
53.315 7.959089
53.320 7.206841
53.325 7.15996
53.330 7.457059
53.335 7.736386
53.340 7.697336
53.345 7.7299
53.350 8.003317
53.355 8.153435
53.360 8.109668
53.365 8.134606
53.370 7.837519
53.375 7.632018
53.380 7.720759
53.385 7.699626
53.390 7.864769
53.395 7.610442
53.400 7.62323
53.405 7.846442
53.410 8.262287
53.415 8.001093
53.420 7.729869
53.425 7.899505
53.430 7.918396
53.435 7.561606
53.440 7.736478
53.445 7.527977
53.450 7.530001
53.455 7.613307
53.460 7.621643
53.465 7.908385
53.470 7.856217
53.475 7.6886
53.480 7.996922
53.485 8.22376
53.490 8.004227
53.495 8.049795
53.500 8.005664
53.505 8.581752
53.510 8.362727
53.515 7.948502
53.520 7.805915
53.525 7.428279
53.530 7.382844
53.535 7.304399
53.540 6.811692
53.545 6.898246
53.550 6.865508
53.555 6.662362
53.560 6.725838
53.565 6.985709
53.570 7.043445
53.575 7.104429
53.580 7.174488
53.585 7.223595
53.590 7.968552
53.595 8.448465
53.600 7.801898
53.605 7.863618
53.610 7.792243
53.615 7.844612
53.620 7.447156
53.625 7.086841
53.630 6.796364
53.635 6.898582
53.640 7.176509
53.645 7.309154
53.650 7.688805
53.655 7.82483
53.660 7.661612
53.665 8.313554
53.670 8.418616
53.675 8.284947
53.680 8.261304
53.685 8.263406
53.690 8.531124
53.695 8.742555
53.700 8.286794
53.705 8.101703
53.710 7.938263
53.715 8.027371
53.720 8.263355
53.725 8.310923
53.730 8.185447
53.735 8.547494
53.740 8.768898
53.745 9.179737
53.750 8.971643
53.755 8.745652
53.760 8.597837
53.765 9.241985
53.770 9.186327
53.775 9.23863
53.780 9.29275
53.785 9.341539
53.790 9.54144
53.795 9.552375
53.800 8.885842
53.805 9.232021
53.810 8.829502
53.815 8.700075
53.820 8.51427
53.825 8.120393
53.830 8.129063
53.835 8.045198
53.840 7.64079
53.845 7.320783
53.850 7.215844
53.855 7.15941
53.860 6.933976
53.865 6.864942
53.870 7.207186
53.875 7.522375
53.880 8.050398
53.885 8.193843
53.890 8.384128
53.895 8.561283
53.900 8.643608
53.905 8.630468
53.910 8.248423
53.915 8.150244
53.920 7.69138
53.925 7.945134
53.930 8.061149
53.935 8.069484
53.940 7.83372
53.945 8.19275
53.950 8.439609
53.955 8.562161
53.960 8.718898
53.965 9.01947
53.970 9.480647
53.975 9.741104
53.980 9.417695
53.985 9.228869
53.990 9.310123
53.995 8.66777
54.000 8.188637
54.005 8.023811
54.010 8.139194
54.015 7.925992
54.020 7.596697
54.025 7.544521
54.030 7.74834
54.035 7.386428
54.040 6.920519
54.045 7.071897
54.050 8.008947
54.055 8.510826
54.060 8.248849
54.065 8.518655
54.070 8.603141
54.075 8.426874
54.080 8.286828
54.085 7.942739
54.090 8.418928
54.095 8.815555
54.100 8.584557
54.105 8.953588
54.110 9.629208
54.115 9.502652
54.120 9.355452
54.125 8.832752
54.130 8.304666
54.135 8.446973
54.140 8.470554
54.145 8.020173
54.150 7.549758
54.155 7.531815
54.160 7.423468
54.165 7.729748
54.170 7.52107
54.175 7.024126
54.180 7.411647
54.185 7.2918
54.190 7.399275
54.195 7.553987
54.200 7.880781
54.205 8.188506
54.210 8.0202
54.215 8.054203
54.220 8.436849
54.225 8.465583
54.230 8.598925
54.235 8.878853
54.240 8.916499
54.245 8.868979
54.250 8.836833
54.255 9.026566
54.260 9.302333
54.265 9.147669
54.270 8.717001
54.275 8.711679
54.280 9.081809
54.285 9.233725
54.290 9.338515
54.295 9.078729
54.300 8.859594
54.305 9.066891
54.310 9.286633
54.315 8.82797
54.320 8.389843
54.325 8.002522
54.330 8.006584
54.335 8.434289
54.340 8.426925
54.345 8.580091
54.350 8.834085
54.355 8.784831
54.360 8.772818
54.365 8.662022
54.370 7.970936
54.375 7.521843
54.380 6.995684
54.385 6.967785
54.390 7.084073
54.395 7.298889
54.400 6.914441
54.405 7.050831
54.410 7.390273
54.415 7.556625
54.420 7.296823
54.425 7.37223
54.430 7.397606
54.435 7.829071
54.440 7.966794
54.445 8.020585
54.450 8.533733
54.455 8.834164
54.460 8.587502
54.465 8.583346
54.470 8.610795
54.475 8.746883
54.480 8.596061
54.485 8.21448
54.490 8.417068
54.495 8.882174
54.500 8.849669
54.505 8.799628
54.510 8.678196
54.515 9.194491
54.520 8.96568
54.525 8.510639
54.530 8.18869
54.535 8.426376
54.540 8.370356
54.545 7.910266
54.550 7.945566
54.555 7.941612
54.560 7.913572
54.565 8.091538
54.570 7.720585
54.575 8.007155
54.580 8.133521
54.585 8.131459
54.590 8.530127
54.595 9.112232
54.600 9.284489
54.605 9.535391
54.610 9.344533
54.615 9.31622
54.620 9.141387
54.625 9.11536
54.630 8.271862
54.635 7.729719
54.640 7.365671
54.645 7.236994
54.650 7.31034
54.655 6.997832
54.660 7.057772
54.665 7.751554
54.670 8.142592
54.675 8.888562
54.680 8.823491
54.685 8.407771
54.690 8.266201
54.695 7.671485
54.700 7.533083
54.705 7.535333
54.710 7.183681
54.715 7.734722
54.720 8.129557
54.725 8.835448
54.730 8.939957
54.735 8.644135
54.740 8.336816
54.745 8.197351
54.750 7.669448
54.755 7.089416
54.760 7.174984
54.765 7.204678
54.770 7.334655
54.775 7.285454
54.780 7.340953
54.785 7.596747
54.790 7.542689
54.795 7.35236
54.800 7.534451
54.805 7.953547
54.810 8.496442
54.815 9.065698
54.820 9.647709
54.825 10.209278
54.830 10.400057
54.835 10.843019
54.840 10.617895
54.845 10.449658
54.850 9.888445
54.855 9.373695
54.860 9.009805
54.865 8.669663
54.870 8.20449
54.875 8.464117
54.880 8.642701
54.885 8.667481
54.890 8.93233
54.895 8.970445
54.900 8.97719
54.905 8.897508
54.910 9.156296
54.915 9.532109
54.920 9.543853
54.925 9.676946
54.930 9.345378
54.935 9.177339
54.940 9.212877
54.945 8.982527
54.950 9.264054
54.955 9.66311
54.960 9.740619
54.965 9.917521
54.970 10.194863
54.975 10.377901
54.980 10.229754
54.985 9.981995
54.990 9.714808
54.995 9.515468
55.000 9.790092
55.005 9.537959
55.010 9.4058
55.015 9.102519
55.020 8.718515
55.025 8.727201
55.030 8.781971
55.035 8.671217
55.040 8.533454
55.045 8.025069
55.050 7.73527
55.055 7.92458
55.060 7.758538
55.065 7.699686
55.070 7.429761
55.075 7.638392
55.080 7.965065
55.085 7.92141
55.090 8.16829
55.095 8.509175
55.100 8.665793
55.105 9.108869
55.110 9.182325
55.115 9.447771
55.120 10.03036
55.125 9.752395
55.130 9.551069
55.135 9.287334
55.140 9.256783
55.145 9.167971
55.150 8.817421
55.155 8.171317
55.160 8.113882
55.165 8.487512
55.170 8.544034
55.175 8.491481
55.180 8.173738
55.185 8.183859
55.190 8.087874
55.195 8.010776
55.200 7.784125
55.205 7.839348
55.210 7.795089
55.215 8.140879
55.220 8.140033
55.225 8.609092
55.230 8.672467
55.235 8.506392
55.240 8.423249
55.245 8.637318
55.250 8.708859
55.255 8.588764
55.260 8.125061
55.265 8.427946
55.270 8.742421
55.275 8.709115
55.280 8.701469
55.285 9.177602
55.290 9.458284
55.295 9.211931
55.300 8.605371
55.305 8.277608
55.310 8.45475
55.315 8.483127
55.320 8.13211
55.325 8.55724
55.330 9.371291
55.335 9.558707
55.340 9.968094
55.345 9.721053
55.350 9.417606
55.355 9.618065
55.360 9.809118
55.365 9.503825
55.370 9.40536
55.375 9.279457
55.380 9.34143
55.385 9.157536
55.390 8.341147
55.395 8.252009
55.400 8.385291
55.405 8.727161
55.410 9.118798
55.415 8.993488
55.420 9.378857
55.425 9.876754
55.430 9.460355
55.435 9.075331
55.440 8.725069
55.445 8.098205
55.450 7.787896
55.455 7.634124
55.460 7.323351
55.465 7.97074
55.470 8.451505
55.475 8.42403
55.480 8.782227
55.485 8.791845
55.490 8.719606
55.495 8.299149
55.500 8.408013
55.505 8.399535
55.510 8.31506
55.515 8.151018
55.520 8.05145
55.525 8.826548
55.530 9.186054
55.535 8.840275
55.540 8.429471
55.545 8.705283
55.550 9.258661
55.555 9.543975
55.560 8.920643
55.565 9.058043
55.570 8.964569
55.575 9.183035
55.580 9.071125
55.585 8.924911
55.590 8.983891
55.595 8.979098
55.600 8.594814
55.605 8.710964
55.610 8.892461
55.615 8.503182
55.620 8.263762
55.625 7.977512
55.630 7.572566
55.635 7.836789
55.640 7.709995
55.645 7.377682
55.650 7.627362
55.655 7.461219
55.660 7.530666
55.665 7.719338
55.670 7.637001
55.675 7.516228
55.680 8.046468
55.685 8.025859
55.690 8.118455
55.695 7.990531
55.700 7.668328
55.705 7.399195
55.710 7.499793
55.715 7.426935
55.720 7.614034
55.725 7.94015
55.730 8.137624
55.735 8.244567
55.740 8.586033
55.745 8.337581
55.750 8.055133
55.755 8.041871
55.760 7.851948
55.765 7.56313
55.770 7.796854
55.775 7.765414
55.780 7.701077
55.785 8.008473
55.790 8.201865
55.795 8.527072
55.800 9.032372
55.805 9.02242
55.810 9.314101
55.815 9.774563
55.820 9.504146
55.825 9.337084
55.830 8.998466
55.835 8.73958
55.840 8.72512
55.845 8.752425
55.850 8.481471
55.855 8.35176
55.860 8.203335
55.865 7.948195
55.870 7.926908
55.875 7.942745
55.880 8.004914
55.885 8.102651
55.890 8.47732
55.895 8.778701
55.900 9.121012
55.905 8.959997
55.910 8.802773
55.915 8.937928
55.920 8.718249
55.925 8.395252
55.930 8.277883
55.935 8.186102
55.940 8.099555
55.945 8.202694
55.950 7.86051
55.955 7.750365
55.960 7.615572
55.965 7.684408
55.970 7.85956
55.975 7.695365
55.980 7.629803
55.985 7.913778
55.990 7.884617
55.995 8.132619
56.000 8.050756
56.005 7.755984
56.010 7.728094
56.015 7.503583
56.020 7.775743
56.025 8.189612
56.030 7.959922
56.035 7.995099
56.040 8.437156
56.045 9.00091
56.050 9.286849
56.055 9.171651
56.060 8.687595
56.065 9.047606
56.070 8.692835
56.075 8.361824
56.080 8.317103
56.085 7.964609
56.090 7.804834
56.095 7.775205
56.100 7.557785
56.105 7.874134
56.110 7.836263
56.115 7.481966
56.120 7.261713
56.125 7.437904
56.130 7.647267
56.135 7.863559
56.140 7.98952
56.145 8.26327
56.150 8.446595
56.155 9.172746
56.160 9.023748
56.165 8.994294
56.170 8.833065
56.175 8.553493
56.180 7.932549
56.185 7.740651
56.190 7.429648
56.195 7.465824
56.200 7.392927
56.205 7.349313
56.210 7.696482
56.215 8.322463
56.220 8.850893
56.225 9.24912
56.230 9.091951
56.235 9.073084
56.240 9.230844
56.245 9.358668
56.250 9.310396
56.255 8.688836
56.260 8.587
56.265 8.640875
56.270 8.664911
56.275 8.42041
56.280 8.374349
56.285 8.246512
56.290 8.322516
56.295 8.126894
56.300 8.479199
56.305 8.890567
56.310 9.16176
56.315 9.2008
56.320 9.800012
56.325 10.076212
56.330 10.26101
56.335 10.097527
56.340 10.065223
56.345 10.028007
56.350 9.560135
56.355 8.870257
56.360 8.855154
56.365 8.806516
56.370 8.947778
56.375 8.783584
56.380 8.883254
56.385 9.157895
56.390 8.897047
56.395 8.502464
56.400 8.807808
56.405 8.563529
56.410 8.601737
56.415 8.425211
56.420 8.646772
56.425 9.357243
56.430 9.540177
56.435 9.34019
56.440 9.395884
56.445 9.506389
56.450 9.72285
56.455 9.383232
56.460 9.114504
56.465 9.163769
56.470 8.696985
56.475 8.615257
56.480 8.71974
56.485 9.12789
56.490 9.855433
56.495 9.976997
56.500 9.738935
56.505 10.356757
56.510 10.472975
56.515 10.096981
56.520 9.591097
56.525 9.283767
56.530 9.790131
56.535 10.379103
56.540 10.105522
56.545 10.237592
56.550 10.543923
56.555 11.000072
56.560 10.929198
56.565 10.757951
56.570 11.051266
56.575 11.053864
56.580 10.964942
56.585 10.684003
56.590 10.681709
56.595 10.360358
56.600 10.186066
56.605 9.70876
56.610 9.772508
56.615 10.072844
56.620 10.168045
56.625 9.66613
56.630 9.383293
56.635 8.97245
56.640 8.734025
56.645 8.836557
56.650 8.478843
56.655 8.270161
56.660 8.778706
56.665 8.935402
56.670 8.886562
56.675 8.794121
56.680 8.708433
56.685 8.935797
56.690 9.120272
56.695 9.422432
56.700 9.582495
56.705 9.99142
56.710 10.104203
56.715 10.014892
56.720 9.858099
56.725 9.82534
56.730 9.215188
56.735 9.05916
56.740 9.207939
56.745 9.530144
56.750 9.836688
56.755 9.962171
56.760 9.697072
56.765 9.627326
56.770 9.729994
56.775 9.500334
56.780 9.380786
56.785 9.178723
56.790 9.005776
56.795 9.214685
56.800 9.437469
56.805 9.709682
56.810 9.837266
56.815 9.627281
56.820 9.547578
56.825 9.681608
56.830 9.745132
56.835 9.493292
56.840 9.086675
56.845 8.80075
56.850 8.345813
56.855 8.343104
56.860 8.363302
56.865 8.328455
56.870 8.506319
56.875 8.209783
56.880 8.179147
56.885 8.611172
56.890 8.304606
56.895 8.328115
56.900 8.166998
56.905 8.184216
56.910 8.979702
56.915 9.35229
56.920 9.46551
56.925 9.759364
56.930 9.656868
56.935 9.894405
56.940 9.4729
56.945 8.69911
56.950 8.453374
56.955 8.223459
56.960 8.014447
56.965 7.939022
56.970 7.867729
56.975 8.120284
56.980 8.486397
56.985 8.156156
56.990 8.088389
56.995 8.085379
57.000 8.008747
57.005 8.465295
57.010 8.211188
57.015 8.385531
57.020 8.869713
57.025 9.282406
57.030 9.297447
57.035 9.256136
57.040 8.953377
57.045 9.392164
57.050 9.49792
57.055 9.496828
57.060 9.271758
57.065 9.608844
57.070 9.910984
57.075 9.921489
57.080 9.741907
57.085 9.175934
57.090 8.775117
57.095 8.607397
57.100 8.460706
57.105 8.49442
57.110 8.82928
57.115 8.987257
57.120 9.095949
57.125 9.435777
57.130 9.656843
57.135 9.619626
57.140 9.186763
57.145 8.444958
57.150 8.534907
57.155 8.66116
57.160 8.554845
57.165 8.467028
57.170 8.551759
57.175 9.161317
57.180 9.35252
57.185 9.253734
57.190 9.216601
57.195 9.182764
57.200 8.919269
57.205 8.941391
57.210 9.065136
57.215 9.735193
57.220 9.585173
57.225 9.534004
57.230 9.4463
57.235 9.328068
57.240 8.911272
57.245 8.384746
57.250 7.767462
57.255 7.906753
57.260 8.199038
57.265 8.061417
57.270 8.157175
57.275 8.30998
57.280 8.256694
57.285 8.435223
57.290 8.311301
57.295 8.299174
57.300 8.674857
57.305 8.917292
57.310 8.829453
57.315 8.97298
57.320 9.426177
57.325 9.552279
57.330 9.730031
57.335 9.627994
57.340 9.595719
57.345 9.502279
57.350 9.067739
57.355 8.854022
57.360 8.392399
57.365 7.977905
57.370 7.986611
57.375 7.561027
57.380 7.623395
57.385 7.667621
57.390 7.690619
57.395 7.894795
57.400 8.244938
57.405 8.23424
57.410 8.360532
57.415 8.514174
57.420 8.469279
57.425 8.34166
57.430 8.589126
57.435 8.345736
57.440 8.624188
57.445 8.817215
57.450 8.625969
57.455 8.587652
57.460 8.266172
57.465 7.976706
57.470 8.108284
57.475 8.146787
57.480 7.998886
57.485 8.119526
57.490 8.299842
57.495 8.779105
57.500 9.239639
57.505 8.99998
57.510 8.891228
57.515 9.093051
57.520 9.105434
57.525 9.757031
57.530 9.401951
57.535 9.102827
57.540 8.98646
57.545 8.937933
57.550 9.082237
57.555 9.277624
57.560 8.658598
57.565 8.724624
57.570 9.106183
57.575 8.734798
57.580 8.564678
57.585 8.411736
57.590 8.520176
57.595 8.660306
57.600 8.551239
57.605 8.211313
57.610 8.577654
57.615 8.705108
57.620 8.793303
57.625 8.887465
57.630 9.109587
57.635 9.188167
57.640 9.170308
57.645 9.223072
57.650 8.915807
57.655 8.82277
57.660 8.258182
57.665 8.398636
57.670 8.20426
57.675 8.800018
57.680 9.200299
57.685 9.355893
57.690 9.80093
57.695 10.152702
57.700 10.09003
57.705 10.116158
57.710 9.952734
57.715 9.868944
57.720 9.957299
57.725 9.642169
57.730 9.867195
57.735 9.513015
57.740 9.497579
57.745 9.193731
57.750 8.993118
57.755 8.872313
57.760 8.75605
57.765 8.664649
57.770 8.833675
57.775 8.765376
57.780 8.741627
57.785 8.827261
57.790 8.787367
57.795 8.311664
57.800 8.007926
57.805 7.996855
57.810 8.343019
57.815 8.771906
57.820 8.633413
57.825 8.637187
57.830 8.799465
57.835 8.904722
57.840 8.835665
57.845 8.768112
57.850 8.444665
57.855 8.485163
57.860 8.929996
57.865 9.325078
57.870 9.292058
57.875 9.414104
57.880 9.121015
57.885 8.872869
57.890 8.656177
57.895 8.154333
57.900 7.754068
57.905 7.930694
57.910 8.000589
57.915 8.492869
57.920 8.976157
57.925 9.235384
57.930 9.486064
57.935 10.148228
57.940 10.263786
57.945 10.017365
57.950 9.400667
57.955 9.361824
57.960 9.644471
57.965 8.93653
57.970 8.34558
57.975 8.261118
57.980 8.594026
57.985 8.744141
57.990 8.223204
57.995 8.052958
58.000 8.201581
58.005 8.388553
58.010 8.572466
58.015 8.647271
58.020 8.942435
58.025 9.316386
58.030 9.249018
58.035 9.646
58.040 9.977966
58.045 9.633999
58.050 9.485915
58.055 9.431741
58.060 9.414598
58.065 9.368618
58.070 8.958456
58.075 8.061187
58.080 7.877006
58.085 7.443962
58.090 7.171276
58.095 6.770115
58.100 6.850823
58.105 7.10369
58.110 7.752909
58.115 7.960207
58.120 7.945884
58.125 7.957145
58.130 8.534451
58.135 8.797684
58.140 9.006798
58.145 9.315774
58.150 9.868905
58.155 10.266621
58.160 10.060281
58.165 9.876258
58.170 9.635418
58.175 9.334023
58.180 8.64425
58.185 7.937285
58.190 7.844996
58.195 8.302482
58.200 8.258074
58.205 8.307617
58.210 8.359259
58.215 8.550497
58.220 9.140098
58.225 9.158604
58.230 8.582743
58.235 8.440698
58.240 8.156597
58.245 7.789037
58.250 7.645496
58.255 7.700465
58.260 8.112038
58.265 8.363603
58.270 8.181235
58.275 8.193509
58.280 8.475101
58.285 8.433087
58.290 8.156556
58.295 7.843202
58.300 8.292103
58.305 9.171106
58.310 9.451436
58.315 9.4444
58.320 9.181127
58.325 9.10788
58.330 9.238782
58.335 9.347096
58.340 8.763732
58.345 8.601808
58.350 8.761636
58.355 8.537468
58.360 8.456482
58.365 8.543279
58.370 8.314912
58.375 8.487951
58.380 8.290809
58.385 8.692993
58.390 9.435545
58.395 9.590394
58.400 9.602155
58.405 9.612328
58.410 9.614334
58.415 9.548334
58.420 8.736295
58.425 8.118152
58.430 7.939874
58.435 8.096612
58.440 8.439129
58.445 8.541611
58.450 8.928432
58.455 9.943732
58.460 10.503659
58.465 10.288292
58.470 9.860863
58.475 9.748505
58.480 9.803104
58.485 9.579787
58.490 9.197
58.495 9.447564
58.500 9.49769
58.505 9.508413
58.510 9.426524
58.515 9.627167
58.520 10.014719
58.525 10.501003
58.530 10.17348
58.535 10.462789
58.540 10.514867
58.545 10.695665
58.550 10.385705
58.555 10.170874
58.560 9.84075
58.565 9.852267
58.570 9.978964
58.575 9.873619
58.580 9.640236
58.585 9.625667
58.590 9.456261
58.595 9.398108
58.600 9.227466
58.605 9.25194
58.610 9.300604
58.615 9.485471
58.620 9.757944
58.625 10.024959
58.630 10.465891
58.635 10.39251
58.640 9.998052
58.645 10.087709
58.650 9.819732
58.655 9.366059
58.660 9.062719
58.665 8.674608
58.670 8.790062
58.675 8.919737
58.680 9.016639
58.685 9.119231
58.690 9.296959
58.695 9.984488
58.700 10.071254
58.705 9.98123
58.710 10.159093
58.715 9.962747
58.720 10.31465
58.725 10.277592
58.730 9.645072
58.735 9.560813
58.740 9.481084
58.745 9.333723
