!@!!GADDS PLOTSO FILE: Chi integration type
!@!!Title/SampleName: map-a4
!@!!Comment: ?
!@!!User: Bruker Instrument Administrator
!@!!Site: University of Illinois Chicago
!@!!Frame: map-a4_01_000.gfrm
!@!!Wavelengths    1.54184   1.54056   1.54439
!@!!Frame angles: 2Theta: 63.000 Omega: 50.000 Phi: 0.000 Chi: 90.000
!@!!Integration range: 2Theta: 53.000 to 73.000  Gamma: -105.000 to -75.000
!@!!Integration method: bin normalized
!@!N
!@!SS
!@!M
!@!L 0.0 0.0 0.0 0.0
!@!XDegrees
!@!YCounts
53.000 7.634486
53.005 7.722497
53.010 7.902034
53.015 8.451338
53.020 8.484888
53.025 8.494222
53.030 8.087697
53.035 7.773185
53.040 7.839828
53.045 7.919367
53.050 7.89771
53.055 8.407916
53.060 8.351146
53.065 8.256257
53.070 8.246971
53.075 7.89529
53.080 7.827887
53.085 7.621811
53.090 7.589397
53.095 8.131934
53.100 8.580291
53.105 8.766967
53.110 8.850487
53.115 8.791485
53.120 9.219223
53.125 8.733363
53.130 8.350882
53.135 8.109794
53.140 8.358582
53.145 8.3922
53.150 8.357154
53.155 8.086083
53.160 8.030972
53.165 8.377006
53.170 8.076826
53.175 7.845958
53.180 7.965802
53.185 7.731555
53.190 7.813249
53.195 7.889221
53.200 8.148874
53.205 8.469728
53.210 8.459852
53.215 8.337663
53.220 8.484347
53.225 8.902029
53.230 8.759424
53.235 8.367933
53.240 8.442861
53.245 8.596761
53.250 8.854575
53.255 8.796208
53.260 8.742135
53.265 8.597732
53.270 8.643124
53.275 8.525864
53.280 8.043028
53.285 7.957103
53.290 7.606439
53.295 7.416949
53.300 7.607804
53.305 7.347872
53.310 6.959264
53.315 6.821867
53.320 6.841884
53.325 7.339382
53.330 7.284476
53.335 7.124805
53.340 7.485081
53.345 7.554247
53.350 8.037073
53.355 7.998447
53.360 7.766846
53.365 8.307716
53.370 8.938998
53.375 9.393617
53.380 9.738498
53.385 9.473347
53.390 9.236349
53.395 9.35476
53.400 9.078575
53.405 8.854874
53.410 8.784652
53.415 8.798357
53.420 8.818558
53.425 8.708277
53.430 8.468884
53.435 8.834647
53.440 8.58384
53.445 8.592213
53.450 8.366394
53.455 8.129687
53.460 8.281126
53.465 8.249461
53.470 7.938242
53.475 8.367996
53.480 8.208974
53.485 8.488119
53.490 8.698805
53.495 8.46444
53.500 8.279939
53.505 7.986092
53.510 7.820806
53.515 7.807911
53.520 7.850431
53.525 8.021976
53.530 8.433011
53.535 8.625903
53.540 8.841736
53.545 8.685081
53.550 8.767286
53.555 8.530838
53.560 8.598692
53.565 8.436261
53.570 8.414592
53.575 8.302924
53.580 8.584322
53.585 8.630293
53.590 8.546861
53.595 8.246485
53.600 8.311776
53.605 8.685326
53.610 8.771985
53.615 8.442829
53.620 8.48736
53.625 8.217545
53.630 8.3377
53.635 8.255529
53.640 8.305939
53.645 8.722944
53.650 8.773565
53.655 8.749875
53.660 9.584148
53.665 9.675453
53.670 9.450556
53.675 8.722284
53.680 8.599006
53.685 8.902048
53.690 8.792581
53.695 8.490015
53.700 8.203756
53.705 8.328484
53.710 8.343486
53.715 8.370638
53.720 8.348282
53.725 8.619828
53.730 8.529205
53.735 8.632111
53.740 8.832949
53.745 8.941516
53.750 8.895683
53.755 8.957489
53.760 8.827869
53.765 8.988093
53.770 8.909557
53.775 9.024964
53.780 8.952133
53.785 8.979606
53.790 9.064506
53.795 8.90704
53.800 9.118316
53.805 9.280726
53.810 8.818571
53.815 8.448938
53.820 8.323332
53.825 8.260709
53.830 8.197412
53.835 8.304588
53.840 8.296656
53.845 8.665217
53.850 9.19644
53.855 9.326341
53.860 9.439007
53.865 9.865423
53.870 10.024315
53.875 10.15815
53.880 10.061665
53.885 9.613799
53.890 9.414435
53.895 9.544614
53.900 8.612562
53.905 8.195333
53.910 7.998224
53.915 8.217594
53.920 8.373938
53.925 8.519336
53.930 8.644865
53.935 8.892993
53.940 9.036707
53.945 9.078923
53.950 9.039728
53.955 9.155354
53.960 9.06092
53.965 9.14611
53.970 9.245031
53.975 9.505196
53.980 9.226315
53.985 9.014716
53.990 8.698596
53.995 8.767653
54.000 8.856664
54.005 8.651975
54.010 8.650621
54.015 9.157432
54.020 9.79108
54.025 9.715629
54.030 9.35197
54.035 9.164796
54.040 9.114347
54.045 8.83956
54.050 8.864461
54.055 8.429042
54.060 8.754068
54.065 8.960525
54.070 9.204039
54.075 9.515694
54.080 9.373734
54.085 9.024596
54.090 8.966778
54.095 8.595819
54.100 8.58814
54.105 8.156091
54.110 8.0151
54.115 7.96948
54.120 7.844998
54.125 8.091198
54.130 8.24262
54.135 8.363062
54.140 8.59218
54.145 8.948959
54.150 9.024505
54.155 9.512516
54.160 9.564822
54.165 9.183467
54.170 9.281838
54.175 9.319671
54.180 9.333011
54.185 9.653456
54.190 9.378405
54.195 9.266404
54.200 9.64136
54.205 9.74568
54.210 9.73292
54.215 9.473666
54.220 9.129375
54.225 8.992137
54.230 9.07739
54.235 9.348168
54.240 9.008575
54.245 8.738621
54.250 8.472682
54.255 8.793452
54.260 8.716119
54.265 8.266761
54.270 8.433184
54.275 8.729985
54.280 9.285324
54.285 9.67807
54.290 9.745316
54.295 9.737164
54.300 10.083886
54.305 9.684435
54.310 9.433025
54.315 9.361905
54.320 9.17385
54.325 9.257468
54.330 9.477146
54.335 9.367223
54.340 8.746626
54.345 8.857821
54.350 8.678741
54.355 9.02966
54.360 8.951969
54.365 8.852189
54.370 9.360278
54.375 9.805068
54.380 9.513138
54.385 9.645524
54.390 9.30473
54.395 9.641628
54.400 10.029413
54.405 9.792244
54.410 10.00437
54.415 10.370361
54.420 10.641879
54.425 10.723726
54.430 10.599295
54.435 10.516209
54.440 10.669372
54.445 10.678604
54.450 10.536409
54.455 10.418447
54.460 10.27632
54.465 10.043605
54.470 9.755963
54.475 9.336882
54.480 9.163062
54.485 8.821158
54.490 8.829241
54.495 8.724073
54.500 8.466556
54.505 8.57808
54.510 8.910192
54.515 9.228909
54.520 9.558049
54.525 9.626537
54.530 10.000567
54.535 10.091924
54.540 9.674432
54.545 9.224855
54.550 8.726866
54.555 8.586828
54.560 8.474625
54.565 8.374208
54.570 8.232459
54.575 8.805118
54.580 8.973269
54.585 9.525685
54.590 9.879912
54.595 9.658192
54.600 9.749689
54.605 9.752065
54.610 9.59459
54.615 9.695333
54.620 9.098048
54.625 8.979577
54.630 9.333838
54.635 9.536278
54.640 10.327275
54.645 10.026371
54.650 9.874882
54.655 9.973942
54.660 9.410717
54.665 9.224888
54.670 9.217715
54.675 9.164981
54.680 9.318155
54.685 9.364979
54.690 9.705904
54.695 10.000602
54.700 10.043799
54.705 9.893006
54.710 9.571346
54.715 10.039179
54.720 10.09607
54.725 10.167361
54.730 10.205088
54.735 10.004097
54.740 9.867004
54.745 9.623437
54.750 9.134386
54.755 8.93115
54.760 8.906963
54.765 8.932772
54.770 9.257814
54.775 9.656067
54.780 9.986101
54.785 10.066691
54.790 10.088485
54.795 9.96351
54.800 9.567214
54.805 9.244367
54.810 8.926549
54.815 9.152418
54.820 9.142093
54.825 9.167389
54.830 9.261179
54.835 9.590247
54.840 10.141559
54.845 10.302457
54.850 9.925244
54.855 9.527686
54.860 9.266932
54.865 9.236176
54.870 9.005214
54.875 8.297923
54.880 8.464318
54.885 8.761688
54.890 9.292907
54.895 9.642461
54.900 9.75151
54.905 9.741675
54.910 10.113008
54.915 10.086037
54.920 9.739797
54.925 9.510556
54.930 9.338218
54.935 9.138941
54.940 9.185614
54.945 8.941489
54.950 8.944728
54.955 9.290544
54.960 9.748304
54.965 10.065861
54.970 10.257368
54.975 10.173644
54.980 10.154171
54.985 10.152897
54.990 10.050957
54.995 9.513012
55.000 9.404441
55.005 9.332045
55.010 9.676754
55.015 9.705173
55.020 9.579636
55.025 10.19196
55.030 10.747519
55.035 10.744088
55.040 10.661041
55.045 10.342951
55.050 10.160541
55.055 9.808117
55.060 9.023254
55.065 8.508653
55.070 8.386283
55.075 8.348126
55.080 8.496196
55.085 8.621903
55.090 8.518485
55.095 8.349971
55.100 8.105189
55.105 8.330237
55.110 8.770945
55.115 8.992065
55.120 9.482462
55.125 9.57303
55.130 10.260775
55.135 10.957863
55.140 10.900193
55.145 10.723624
55.150 10.817236
55.155 10.759611
55.160 11.302083
55.165 11.001017
55.170 10.749778
55.175 10.929688
55.180 10.392507
55.185 10.029828
55.190 10.144188
55.195 10.086196
55.200 10.662687
55.205 10.486112
55.210 10.538979
55.215 11.221622
55.220 11.17806
55.225 10.931186
55.230 10.313246
55.235 9.749812
55.240 9.736267
55.245 9.646492
55.250 9.542726
55.255 9.947625
55.260 10.403272
55.265 10.648646
55.270 11.005111
55.275 10.764131
55.280 10.394373
55.285 9.823256
55.290 9.256766
55.295 9.089764
55.300 8.503586
55.305 8.423178
55.310 8.732595
55.315 8.976321
55.320 9.265019
55.325 9.619695
55.330 9.855366
55.335 10.420421
55.340 10.391531
55.345 10.023042
55.350 10.048681
55.355 10.424446
55.360 10.668322
55.365 10.738254
55.370 10.47646
55.375 10.523115
55.380 11.327919
55.385 11.379657
55.390 11.041665
55.395 10.953649
55.400 10.773926
55.405 10.696713
55.410 10.355014
55.415 9.950414
55.420 10.060193
55.425 10.235317
55.430 10.130801
55.435 10.005827
55.440 10.426323
55.445 10.910558
55.450 11.216357
55.455 11.253824
55.460 11.600826
55.465 11.877216
55.470 11.875525
55.475 11.622108
55.480 10.832826
55.485 10.058518
55.490 9.551148
55.495 9.109234
55.500 9.487545
55.505 9.903216
55.510 10.051814
55.515 10.603659
55.520 11.126978
55.525 11.172832
55.530 10.834516
55.535 10.793759
55.540 10.827765
55.545 10.576631
55.550 10.565626
55.555 10.673405
55.560 10.619107
55.565 10.525127
55.570 9.999166
55.575 9.936213
55.580 10.014134
55.585 9.725477
55.590 9.438077
55.595 9.711005
55.600 10.090789
55.605 10.211411
55.610 10.915771
55.615 10.819069
55.620 10.944836
55.625 11.392843
55.630 11.413302
55.635 11.336912
55.640 11.465602
55.645 11.233285
55.650 11.494953
55.655 11.705543
55.660 11.394516
55.665 11.171879
55.670 11.026812
55.675 10.777623
55.680 10.713523
55.685 10.653603
55.690 10.551524
55.695 10.347521
55.700 10.433133
55.705 9.99023
55.710 10.045621
55.715 10.085191
55.720 10.399731
55.725 10.613577
55.730 10.839828
55.735 10.877107
55.740 11.042115
55.745 10.948857
55.750 10.956086
55.755 10.600616
55.760 10.511457
55.765 10.827815
55.770 11.175256
55.775 11.294709
55.780 11.091562
55.785 10.825462
55.790 10.648421
55.795 10.827023
55.800 10.728198
55.805 10.416239
55.810 10.262541
55.815 10.824122
55.820 11.44968
55.825 12.078946
55.830 12.127956
55.835 12.316163
55.840 12.610221
55.845 12.534847
55.850 12.307736
55.855 12.056642
55.860 11.483488
55.865 11.341321
55.870 11.37041
55.875 11.476338
55.880 11.626224
55.885 11.49567
55.890 11.409243
55.895 11.482403
55.900 11.133929
55.905 10.645332
55.910 10.501662
55.915 10.612972
55.920 10.282227
55.925 10.219292
55.930 10.462333
55.935 10.804336
55.940 11.40128
55.945 11.536622
55.950 11.643405
55.955 11.984986
55.960 11.913774
55.965 11.806913
55.970 11.710325
55.975 11.182822
55.980 11.941799
55.985 12.040411
55.990 11.753966
55.995 11.624264
56.000 11.517321
56.005 11.49495
56.010 11.621232
56.015 10.997815
56.020 10.693092
56.025 10.567748
56.030 10.567094
56.035 10.349323
56.040 9.916445
56.045 10.029085
56.050 9.996049
56.055 10.431447
56.060 10.99121
56.065 11.201074
56.070 11.468998
56.075 11.997576
56.080 12.166664
56.085 12.362284
56.090 11.87685
56.095 11.894295
56.100 11.793182
56.105 11.442754
56.110 10.924314
56.115 10.240226
56.120 10.058786
56.125 9.784978
56.130 9.751688
56.135 9.835081
56.140 10.139372
56.145 10.429203
56.150 10.765615
56.155 11.003667
56.160 11.465029
56.165 11.344771
56.170 11.924188
56.175 12.305938
56.180 12.214853
56.185 12.233638
56.190 12.132388
56.195 12.104504
56.200 12.030139
56.205 11.804065
56.210 12.175101
56.215 12.75384
56.220 12.695515
56.225 12.673629
56.230 12.744444
56.235 12.865591
56.240 12.615676
56.245 11.756097
56.250 11.562231
56.255 11.460735
56.260 11.542665
56.265 11.342546
56.270 11.06468
56.275 10.68907
56.280 11.057903
56.285 11.4274
56.290 11.635601
56.295 11.775565
56.300 11.72609
56.305 12.135722
56.310 12.29134
56.315 12.052434
56.320 11.208661
56.325 11.142891
56.330 11.032259
56.335 11.408474
56.340 11.733085
56.345 11.650115
56.350 11.482644
56.355 11.94965
56.360 11.833124
56.365 11.684183
56.370 10.963448
56.375 10.855359
56.380 11.551641
56.385 11.559838
56.390 11.194499
56.395 11.339005
56.400 11.486278
56.405 11.614685
56.410 11.412605
56.415 11.073233
56.420 11.335061
56.425 11.714961
56.430 11.659618
56.435 11.733545
56.440 11.862404
56.445 12.179325
56.450 12.106853
56.455 11.847657
56.460 11.467678
56.465 11.388764
56.470 11.224196
56.475 11.121686
56.480 10.857643
56.485 10.972772
56.490 11.88374
56.495 12.244103
56.500 12.199081
56.505 12.55439
56.510 12.464625
56.515 12.166621
56.520 12.101481
56.525 12.13234
56.530 12.516521
56.535 12.576877
56.540 12.294212
56.545 12.341318
56.550 12.556835
56.555 13.141407
56.560 12.346519
56.565 12.122602
56.570 12.021371
56.575 11.908156
56.580 12.165902
56.585 12.107432
56.590 11.29791
56.595 11.407948
56.600 11.089145
56.605 11.046337
56.610 11.009241
56.615 10.882174
56.620 10.585306
56.625 11.144431
56.630 11.216313
56.635 11.593661
56.640 11.701283
56.645 11.907311
56.650 11.594951
56.655 11.485593
56.660 10.865644
56.665 10.888283
56.670 10.645523
56.675 10.606817
56.680 10.531743
56.685 10.729211
56.690 11.12768
56.695 11.529968
56.700 11.48334
56.705 11.370909
56.710 11.559643
56.715 11.33014
56.720 11.463896
56.725 10.927936
56.730 10.325889
56.735 10.381169
56.740 10.656551
56.745 10.943144
56.750 11.830187
56.755 11.946852
56.760 12.275249
56.765 12.639314
56.770 12.799755
56.775 12.895126
56.780 13.042303
56.785 13.235596
56.790 13.614708
56.795 14.165405
56.800 14.336605
56.805 14.592469
56.810 14.145262
56.815 13.820456
56.820 13.196786
56.825 12.860126
56.830 12.870289
56.835 12.513871
56.840 12.275659
56.845 12.637038
56.850 12.264343
56.855 12.086891
56.860 11.857928
56.865 11.432279
56.870 12.142437
56.875 12.57509
56.880 12.371456
56.885 12.485773
56.890 12.253689
56.895 12.103615
56.900 12.111948
56.905 11.638542
56.910 10.948281
56.915 10.96311
56.920 11.084598
56.925 11.784786
56.930 12.165682
56.935 12.180947
56.940 11.983706
56.945 12.295991
56.950 12.418798
56.955 12.522627
56.960 11.984463
56.965 11.628026
56.970 11.583865
56.975 12.103229
56.980 12.276937
56.985 12.318222
56.990 12.345456
56.995 12.499542
57.000 12.649121
57.005 13.017852
57.010 13.171783
57.015 13.602275
57.020 14.01749
57.025 14.314606
57.030 14.150452
57.035 13.774584
57.040 13.605365
57.045 13.480237
57.050 13.030405
57.055 12.488402
57.060 11.914719
57.065 11.81813
57.070 12.095008
57.075 12.030414
57.080 11.690241
57.085 11.418505
57.090 11.585621
57.095 11.734181
57.100 12.057881
57.105 11.842282
57.110 11.615046
57.115 11.417016
57.120 11.43183
57.125 11.295598
57.130 11.892121
57.135 11.842229
57.140 11.844324
57.145 11.791829
57.150 12.337481
57.155 12.214127
57.160 12.307308
57.165 12.074356
57.170 12.088136
57.175 12.352977
57.180 12.2199
57.185 11.91315
57.190 12.06251
57.195 12.03374
57.200 12.832066
57.205 13.407472
57.210 13.777052
57.215 14.060085
57.220 14.283691
57.225 14.106002
57.230 13.798007
57.235 13.199055
57.240 12.955924
57.245 12.552707
57.250 12.51523
57.255 12.828772
57.260 13.609563
57.265 13.662075
57.270 13.082796
57.275 12.634259
57.280 12.497398
57.285 12.470305
57.290 12.163813
57.295 11.831061
57.300 12.339576
57.305 13.253243
57.310 13.6445
57.315 13.606997
57.320 13.373905
57.325 13.792407
57.330 13.836207
57.335 13.534111
57.340 13.232217
57.345 13.516223
57.350 13.616907
57.355 13.689233
57.360 13.528033
57.365 13.701674
57.370 13.947732
57.375 14.277365
57.380 14.029803
57.385 14.465091
57.390 14.63436
57.395 13.965463
57.400 13.695281
57.405 12.940786
57.410 12.764967
57.415 12.820879
57.420 13.029111
57.425 12.982422
57.430 13.30158
57.435 13.399862
57.440 14.013547
57.445 13.911282
57.450 14.339034
57.455 14.206192
57.460 14.605145
57.465 14.708978
57.470 14.860385
57.475 14.572227
57.480 14.41393
57.485 13.818441
57.490 13.595604
57.495 13.24684
57.500 13.799554
57.505 13.795889
57.510 13.947631
57.515 13.804648
57.520 13.97611
57.525 14.028804
57.530 13.814105
57.535 13.160316
57.540 12.526839
57.545 12.496755
57.550 13.045974
57.555 12.787253
57.560 13.102293
57.565 13.600515
57.570 13.867982
57.575 14.373436
57.580 14.131279
57.585 13.786261
57.590 13.924787
57.595 13.505906
57.600 13.48992
57.605 13.364722
57.610 13.35572
57.615 13.356579
57.620 13.174498
57.625 13.236962
57.630 13.240891
57.635 13.008673
57.640 13.101172
57.645 13.046391
57.650 12.908356
57.655 13.006335
57.660 12.643687
57.665 12.225957
57.670 11.904296
57.675 11.949811
57.680 12.437334
57.685 12.586302
57.690 12.760938
57.695 13.271129
57.700 13.575655
57.705 13.921677
57.710 13.559833
57.715 13.446315
57.720 13.554624
57.725 13.089172
57.730 12.833949
57.735 12.865828
57.740 12.875848
57.745 13.297765
57.750 13.059669
57.755 13.180341
57.760 14.308105
57.765 14.618642
57.770 14.273647
57.775 13.934684
57.780 13.904356
57.785 14.331395
57.790 13.912085
57.795 12.898977
57.800 12.663404
57.805 12.966657
57.810 13.258531
57.815 12.895567
57.820 12.655204
57.825 12.780203
57.830 13.257312
57.835 13.79089
57.840 14.239416
57.845 14.695069
57.850 14.775575
57.855 14.717257
57.860 14.73793
57.865 14.739656
57.870 14.432833
57.875 13.947356
57.880 13.059852
57.885 12.908518
57.890 13.190334
57.895 13.284964
57.900 12.853138
57.905 12.668612
57.910 12.616083
57.915 13.213082
57.920 13.674303
57.925 13.949298
57.930 14.033002
57.935 14.452773
57.940 14.992753
57.945 15.177161
57.950 15.152341
57.955 14.597518
57.960 13.733656
57.965 13.594055
57.970 13.023301
57.975 12.228278
57.980 12.368875
57.985 12.538505
57.990 13.013875
57.995 13.779952
58.000 13.687954
58.005 14.017176
58.010 14.817678
58.015 14.893693
58.020 14.436376
58.025 14.04926
58.030 14.073124
58.035 14.101247
58.040 14.265971
58.045 13.715708
58.050 13.303807
58.055 13.665412
58.060 14.269226
58.065 14.507755
58.070 15.086362
58.075 15.315345
58.080 15.590381
58.085 15.992523
58.090 15.906007
58.095 15.261162
58.100 14.804032
58.105 14.848297
58.110 14.67565
58.115 14.397932
58.120 14.129942
58.125 14.04173
58.130 14.148427
58.135 13.950296
58.140 13.412248
58.145 13.180738
58.150 13.415562
58.155 13.179596
58.160 13.05731
58.165 12.929277
58.170 12.777061
58.175 12.835183
58.180 12.656194
58.185 12.672508
58.190 12.753186
58.195 12.71123
58.200 13.184901
58.205 13.268799
58.210 13.516395
58.215 13.803455
58.220 13.536965
58.225 13.622589
58.230 13.827537
58.235 13.556034
58.240 13.976084
58.245 13.980896
58.250 13.820663
58.255 13.678422
58.260 13.638556
58.265 13.278305
58.270 13.687586
58.275 13.717611
58.280 13.543757
58.285 13.66116
58.290 13.495816
58.295 13.419086
58.300 13.388596
58.305 12.732522
58.310 12.472645
58.315 12.653724
58.320 12.802649
58.325 13.185782
58.330 12.987005
58.335 13.472657
58.340 13.655824
58.345 13.801089
58.350 13.936949
58.355 13.886502
58.360 13.890529
58.365 14.128334
58.370 14.034441
58.375 14.26287
58.380 14.341918
58.385 13.897885
58.390 13.673458
58.395 13.29516
58.400 13.583287
58.405 13.52596
58.410 13.507936
58.415 13.437248
58.420 13.699422
58.425 14.279966
58.430 14.660321
58.435 14.011443
58.440 13.962303
58.445 13.695318
58.450 14.03028
58.455 14.234182
58.460 14.575424
58.465 15.201604
58.470 15.810102
58.475 15.760974
58.480 15.991917
58.485 15.887176
58.490 15.854791
58.495 15.499914
58.500 15.71258
58.505 15.624172
58.510 15.229524
58.515 14.814692
58.520 14.433496
58.525 14.473799
58.530 14.508758
58.535 13.764082
58.540 13.908891
58.545 14.457694
58.550 14.522676
