!@!!GADDS PLOTSO FILE: Chi integration type
!@!!Title/SampleName: map-5d
!@!!Comment: ?
!@!!User: Bruker Instrument Administrator
!@!!Site: University of Illinois Chicago
!@!!Frame: map-5d_01_000.gfrm
!@!!Wavelengths    1.54184   1.54056   1.54439
!@!!Frame angles: 2Theta: 63.000 Omega: 50.000 Phi: 0.000 Chi: 90.000
!@!!Integration range: 2Theta: 53.000 to 73.000  Gamma: -105.000 to -75.000
!@!!Integration method: bin normalized
!@!N
!@!SS
!@!M
!@!L 0.0 0.0 0.0 0.0
!@!XDegrees
!@!YCounts
53.000 8.666619
53.005 8.452594
53.010 8.398121
53.015 8.275113
53.020 8.69613
53.025 9.063086
53.030 9.040838
53.035 9.085979
53.040 9.063301
53.045 9.473245
53.050 9.487819
53.055 8.885571
53.060 8.557
53.065 8.836625
53.070 8.618168
53.075 8.68433
53.080 8.779222
53.085 9.02112
53.090 9.234357
53.095 9.306164
53.100 9.072471
53.105 9.177956
53.110 9.11978
53.115 8.925797
53.120 8.504226
53.125 8.226701
53.130 8.224486
53.135 8.282742
53.140 8.559843
53.145 8.662359
53.150 9.08269
53.155 9.735997
53.160 9.674941
53.165 9.325734
53.170 9.078053
53.175 8.779463
53.180 8.778657
53.185 9.03269
53.190 8.84897
53.195 9.074775
53.200 9.602408
53.205 9.807467
53.210 9.815659
53.215 9.44909
53.220 9.396955
53.225 9.47464
53.230 9.267316
53.235 9.111233
53.240 8.958944
53.245 9.27549
53.250 9.441613
53.255 9.411475
53.260 9.475647
53.265 10.076707
53.270 10.084093
53.275 9.987219
53.280 9.796591
53.285 9.443405
53.290 9.360093
53.295 9.304593
53.300 9.211749
53.305 9.054546
53.310 9.156247
53.315 9.200434
53.320 9.098089
53.325 9.173441
53.330 8.636662
53.335 8.493721
53.340 8.449314
53.345 8.250099
53.350 8.512725
53.355 8.457074
53.360 7.981305
53.365 8.465491
53.370 8.841245
53.375 8.892589
53.380 9.166486
53.385 8.995621
53.390 9.597177
53.395 10.001615
53.400 9.282566
53.405 8.713359
53.410 8.501791
53.415 8.078779
53.420 7.783575
53.425 7.475168
53.430 7.988282
53.435 8.568805
53.440 9.100463
53.445 9.493692
53.450 9.752594
53.455 10.021924
53.460 9.923587
53.465 9.978909
53.470 9.876482
53.475 9.847149
53.480 9.786438
53.485 9.869182
53.490 9.473914
53.495 9.242122
53.500 9.143843
53.505 9.249615
53.510 8.930943
53.515 8.459103
53.520 9.059694
53.525 9.107024
53.530 9.160499
53.535 9.588327
53.540 10.232581
53.545 10.614787
53.550 11.031154
53.555 10.825124
53.560 11.356081
53.565 11.162523
53.570 10.436338
53.575 10.200443
53.580 10.536551
53.585 10.100474
53.590 9.735691
53.595 9.66521
53.600 9.74369
53.605 10.03345
53.610 10.045935
53.615 9.615065
53.620 9.808928
53.625 10.153475
53.630 9.983364
53.635 10.292118
53.640 10.684647
53.645 10.912618
53.650 11.613818
53.655 11.78349
53.660 11.637348
53.665 11.094628
53.670 10.5619
53.675 10.00696
53.680 9.680231
53.685 9.631366
53.690 9.433632
53.695 9.604409
53.700 10.244469
53.705 10.391259
53.710 10.509362
53.715 10.349925
53.720 10.22174
53.725 10.091728
53.730 10.41862
53.735 9.857915
53.740 9.713444
53.745 9.915742
53.750 10.128745
53.755 9.83707
53.760 9.843973
53.765 9.593277
53.770 9.664909
53.775 9.348835
53.780 8.965447
53.785 8.62149
53.790 8.784057
53.795 8.901521
53.800 9.154681
53.805 9.366021
53.810 9.842789
53.815 10.03371
53.820 10.257701
53.825 10.259651
53.830 10.165615
53.835 9.815282
53.840 9.494709
53.845 9.205188
53.850 9.212246
53.855 9.270154
53.860 9.191304
53.865 9.105172
53.870 9.250784
53.875 9.538177
53.880 9.917941
53.885 10.147141
53.890 10.369587
53.895 10.548961
53.900 11.034155
53.905 11.846029
53.910 11.742192
53.915 10.918059
53.920 10.745845
53.925 11.060698
53.930 11.022365
53.935 10.45802
53.940 9.703634
53.945 10.017605
53.950 10.333644
53.955 9.833689
53.960 9.75339
53.965 10.025229
53.970 10.202003
53.975 10.144942
53.980 10.119467
53.985 10.390173
53.990 10.523866
53.995 10.385175
54.000 10.441634
54.005 10.864895
54.010 11.016842
54.015 10.846464
54.020 10.97674
54.025 10.844259
54.030 11.350565
54.035 11.523552
54.040 11.560556
54.045 11.920931
54.050 11.87921
54.055 11.83342
54.060 11.784826
54.065 11.339761
54.070 11.110446
54.075 10.704525
54.080 10.643713
54.085 11.052812
54.090 10.964789
54.095 10.93912
54.100 11.493644
54.105 11.430682
54.110 11.622453
54.115 11.296865
54.120 10.859495
54.125 10.878853
54.130 10.566827
54.135 10.316187
54.140 10.173292
54.145 9.54059
54.150 9.522283
54.155 9.568377
54.160 9.70424
54.165 9.55567
54.170 9.598
54.175 10.458839
54.180 10.875488
54.185 10.830332
54.190 10.82509
54.195 10.917419
54.200 11.489023
54.205 11.141325
54.210 10.907269
54.215 10.955669
54.220 10.802415
54.225 10.729847
54.230 10.235302
54.235 10.245883
54.240 10.087974
54.245 9.678733
54.250 9.539225
54.255 9.906829
54.260 10.290846
54.265 10.411242
54.270 10.536436
54.275 10.78519
54.280 11.41034
54.285 11.625631
54.290 11.241901
54.295 11.27287
54.300 11.225051
54.305 10.770698
54.310 10.367428
54.315 9.932224
54.320 10.27304
54.325 10.687863
54.330 10.301438
54.335 10.262679
54.340 10.80502
54.345 11.552732
54.350 11.516227
54.355 11.296382
54.360 11.300094
54.365 11.463177
54.370 11.996099
54.375 11.954991
54.380 11.885401
54.385 11.822524
54.390 11.788636
54.395 11.959671
54.400 11.646358
54.405 10.914942
54.410 10.458342
54.415 10.322187
54.420 10.20683
54.425 9.761055
54.430 9.757666
54.435 9.738857
54.440 9.68642
54.445 9.986521
54.450 9.669552
54.455 9.830584
54.460 9.631124
54.465 9.62079
54.470 9.798206
54.475 9.942187
54.480 10.158331
54.485 10.236073
54.490 10.153369
54.495 10.543895
54.500 10.902382
54.505 11.056752
54.510 10.853022
54.515 10.984186
54.520 11.576045
54.525 11.908413
54.530 11.852495
54.535 11.591078
54.540 11.734589
54.545 11.609793
54.550 10.712295
54.555 10.260686
54.560 10.394438
54.565 10.623584
54.570 10.597171
54.575 10.41284
54.580 10.71039
54.585 11.238969
54.590 11.258454
54.595 10.910757
54.600 10.771482
54.605 10.75176
54.610 10.614209
54.615 10.601105
54.620 10.746518
54.625 10.19418
54.630 9.821934
54.635 10.03794
54.640 10.296098
54.645 10.417921
54.650 10.153143
54.655 10.126389
54.660 10.98903
54.665 11.203247
54.670 11.361019
54.675 10.847354
54.680 10.531946
54.685 10.905454
54.690 11.095884
54.695 10.979132
54.700 10.682651
54.705 10.704164
54.710 10.910054
54.715 11.561757
54.720 11.545961
54.725 11.202776
54.730 11.378728
54.735 11.760326
54.740 11.750342
54.745 11.590672
54.750 10.841709
54.755 10.584669
54.760 10.722488
54.765 10.654984
54.770 10.839868
54.775 10.980326
54.780 11.62561
54.785 11.885078
54.790 12.236319
54.795 12.473104
54.800 12.385895
54.805 11.868196
54.810 11.784397
54.815 12.024459
54.820 12.286444
54.825 12.429758
54.830 12.770214
54.835 12.914155
54.840 12.889346
54.845 12.254315
54.850 11.827488
54.855 11.4177
54.860 10.837016
54.865 10.794444
54.870 10.417696
54.875 10.546188
54.880 11.153657
54.885 11.159622
54.890 11.716348
54.895 11.737206
54.900 11.010565
54.905 11.011411
54.910 11.028658
54.915 10.927716
54.920 11.029113
54.925 10.716324
54.930 10.580523
54.935 10.880809
54.940 11.066313
54.945 10.839714
54.950 11.069781
54.955 11.099077
54.960 11.104753
54.965 11.09234
54.970 10.78903
54.975 10.377898
54.980 10.488973
54.985 10.221056
54.990 10.314492
54.995 10.438107
55.000 10.698457
55.005 11.557382
55.010 12.034698
55.015 12.063472
55.020 12.421861
55.025 12.612124
55.030 12.76756
55.035 12.88864
55.040 12.353866
55.045 12.461481
55.050 12.741681
55.055 12.26746
55.060 12.295667
55.065 12.126453
55.070 12.102884
55.075 12.738936
55.080 12.515706
55.085 12.541651
55.090 12.51949
55.095 12.300523
55.100 11.837914
55.105 11.940974
55.110 11.831573
55.115 12.172043
55.120 12.349653
55.125 11.935865
55.130 11.975767
55.135 12.384279
55.140 12.140856
55.145 11.832736
55.150 11.787813
55.155 11.771787
55.160 12.179604
55.165 12.21225
55.170 11.841482
55.175 12.322179
55.180 11.946668
55.185 11.571071
55.190 11.111174
55.195 10.816781
55.200 11.127262
55.205 10.719508
55.210 10.559869
55.215 11.389618
55.220 11.575493
55.225 11.989391
55.230 12.16447
55.235 11.928234
55.240 11.89845
55.245 11.705029
55.250 11.139802
55.255 11.10094
55.260 10.953941
55.265 11.221053
55.270 11.603177
55.275 11.699224
55.280 11.530052
55.285 11.699914
55.290 12.086554
55.295 11.825815
55.300 11.72348
55.305 11.636149
55.310 11.803701
55.315 11.878718
55.320 11.478284
55.325 10.996478
55.330 11.146954
55.335 11.574198
55.340 11.815091
55.345 11.731546
55.350 11.659712
55.355 11.563272
55.360 11.545717
55.365 11.245004
55.370 10.810047
55.375 10.667765
55.380 10.666399
55.385 10.731919
55.390 10.961196
55.395 10.899453
55.400 10.624267
55.405 10.331407
55.410 10.940993
55.415 11.18942
55.420 11.070745
55.425 11.352088
55.430 11.415797
55.435 12.047435
55.440 12.34656
55.445 11.686625
55.450 11.620415
55.455 12.225298
55.460 12.373219
55.465 12.127778
55.470 11.738268
55.475 11.582102
55.480 11.809895
55.485 11.450279
55.490 10.884539
55.495 10.411055
55.500 10.915519
55.505 11.3539
55.510 11.453917
55.515 11.541339
55.520 11.923026
55.525 12.303088
55.530 12.297597
55.535 12.588018
55.540 12.235075
55.545 12.093271
55.550 11.935428
55.555 11.420375
55.560 11.366371
55.565 11.607811
55.570 11.023984
55.575 11.28537
55.580 11.275485
55.585 11.637658
55.590 11.948967
55.595 12.055611
55.600 11.897142
55.605 11.635467
55.610 11.433944
55.615 11.269933
55.620 10.929668
55.625 10.657243
55.630 10.433722
55.635 10.466236
55.640 10.648231
55.645 10.647436
55.650 11.347565
55.655 11.574148
55.660 11.608289
55.665 11.934756
55.670 11.728578
55.675 11.440019
55.680 11.503849
55.685 11.810409
55.690 12.392297
55.695 12.659595
55.700 12.247088
55.705 12.582474
55.710 12.849656
55.715 12.567312
55.720 11.400789
55.725 10.871427
55.730 11.104918
55.735 11.403926
55.740 11.460589
55.745 11.493423
55.750 12.068636
55.755 12.716043
55.760 12.660439
55.765 12.237209
55.770 11.582269
55.775 11.494438
55.780 11.527886
55.785 11.242772
55.790 11.254533
55.795 11.999187
55.800 12.499972
55.805 13.177009
55.810 13.113693
55.815 12.796685
55.820 12.529264
55.825 12.184782
55.830 11.819309
55.835 11.59137
55.840 11.593322
55.845 11.634968
55.850 11.911014
55.855 11.940746
55.860 11.98731
55.865 12.124416
55.870 11.743998
55.875 11.344577
55.880 11.189597
55.885 11.066489
55.890 11.263848
55.895 11.42108
55.900 11.617043
55.905 11.868609
55.910 12.205346
55.915 12.349006
55.920 12.574324
55.925 12.86231
55.930 12.520987
55.935 12.251096
55.940 12.095269
55.945 12.249671
55.950 12.264356
55.955 11.967425
55.960 11.817267
55.965 12.44952
55.970 12.660227
55.975 12.595717
55.980 12.178788
55.985 12.426809
55.990 12.78385
55.995 12.810992
56.000 12.201797
56.005 12.399796
56.010 12.808175
56.015 13.011488
56.020 12.738451
56.025 12.316581
56.030 11.723695
56.035 11.524021
56.040 11.034966
56.045 11.099077
56.050 11.166458
56.055 11.11653
56.060 11.401963
56.065 11.847589
56.070 11.970662
56.075 12.370027
56.080 12.040013
56.085 11.765879
56.090 11.558715
56.095 11.214462
56.100 11.680365
56.105 11.930448
56.110 11.842956
56.115 12.1492
56.120 12.116296
56.125 12.128497
56.130 11.869191
56.135 11.506272
56.140 11.269324
56.145 11.448174
56.150 11.639502
56.155 12.021728
56.160 12.121539
56.165 12.196414
56.170 12.211712
56.175 12.015329
56.180 12.046214
56.185 11.58656
56.190 11.730001
56.195 12.217888
56.200 12.000417
56.205 11.961108
56.210 12.314628
56.215 12.438241
56.220 12.978116
56.225 13.018883
56.230 13.152714
56.235 13.614904
56.240 13.970373
56.245 13.876739
56.250 13.692121
56.255 12.956965
56.260 12.519393
56.265 12.619736
56.270 12.687549
56.275 12.934636
56.280 12.780062
56.285 12.612946
56.290 13.250154
56.295 13.354691
56.300 13.078403
56.305 13.104147
56.310 13.167683
56.315 13.363439
56.320 13.82071
56.325 13.703156
56.330 13.65545
56.335 13.909655
56.340 13.72773
56.345 13.407091
56.350 13.510753
56.355 13.099418
56.360 13.133053
56.365 13.115097
56.370 13.441373
56.375 13.994328
56.380 13.93541
56.385 13.592567
56.390 13.842975
56.395 13.986158
56.400 13.745124
56.405 13.489186
56.410 12.816944
56.415 12.850285
56.420 13.27757
56.425 13.074078
56.430 12.855229
56.435 13.097988
56.440 12.74332
56.445 12.949977
56.450 13.284042
56.455 13.92194
56.460 14.394489
56.465 14.708481
56.470 14.638032
56.475 14.673935
56.480 14.309687
56.485 13.736169
56.490 13.357809
56.495 13.032364
56.500 13.157477
56.505 13.294707
56.510 13.240006
56.515 13.610869
56.520 13.394788
56.525 13.25961
56.530 13.394289
56.535 13.136889
56.540 13.284945
56.545 13.267888
56.550 13.098706
56.555 13.475914
56.560 13.546451
56.565 13.213952
56.570 13.029901
56.575 12.637292
56.580 12.762963
56.585 12.886168
56.590 12.270237
56.595 11.862464
56.600 11.749606
56.605 11.755278
56.610 11.899278
56.615 11.868265
56.620 11.970536
56.625 12.55715
56.630 12.898066
56.635 12.939155
56.640 12.923217
56.645 12.859668
56.650 12.51827
56.655 12.684107
56.660 12.480466
56.665 12.219948
56.670 12.23282
56.675 12.69661
56.680 12.762899
56.685 12.480096
56.690 12.331897
56.695 12.226933
56.700 12.250323
56.705 12.641401
56.710 12.371407
56.715 12.546934
56.720 12.978353
56.725 12.986339
56.730 13.523501
56.735 13.675096
56.740 13.943032
56.745 14.120687
56.750 14.075951
56.755 14.267321
56.760 13.794175
56.765 13.59853
56.770 13.786103
56.775 13.465425
56.780 13.581388
56.785 13.906387
56.790 14.039554
56.795 13.908861
56.800 14.117266
56.805 14.484144
56.810 14.415965
56.815 14.346827
56.820 13.920651
56.825 13.551615
56.830 13.442329
56.835 13.295795
56.840 12.789476
56.845 12.687789
56.850 12.526423
56.855 12.859243
56.860 13.09587
56.865 13.924427
56.870 14.029712
56.875 14.277998
56.880 14.253902
56.885 14.166868
56.890 13.970857
56.895 14.241228
56.900 14.020168
56.905 13.793327
56.910 13.766182
56.915 13.885951
56.920 13.689501
56.925 12.990131
56.930 12.776577
56.935 12.318794
56.940 12.362042
56.945 12.658875
56.950 13.013775
56.955 13.544094
56.960 13.987657
56.965 13.897637
56.970 13.925312
56.975 14.163556
56.980 13.82159
56.985 13.772967
56.990 13.416063
56.995 13.070189
57.000 12.974181
57.005 13.218386
57.010 12.946051
57.015 12.901549
57.020 12.867267
57.025 12.655809
57.030 12.6913
57.035 12.373345
57.040 12.286579
57.045 11.935478
57.050 11.904663
57.055 12.07742
57.060 12.107847
57.065 12.245497
57.070 12.453327
57.075 12.499585
57.080 13.040144
57.085 12.887918
57.090 13.296779
57.095 13.919183
57.100 14.151969
57.105 14.027413
57.110 13.975856
57.115 13.513509
57.120 13.708684
57.125 13.565727
57.130 14.19235
57.135 14.399273
57.140 14.455715
57.145 13.973832
57.150 13.390844
57.155 12.955782
57.160 12.750558
57.165 11.69843
57.170 10.901799
57.175 10.969153
57.180 11.640169
57.185 12.455211
57.190 12.637992
57.195 12.448536
57.200 12.985122
57.205 13.876876
57.210 14.289097
57.215 14.408231
57.220 14.53384
57.225 14.277696
57.230 14.319563
57.235 14.027549
57.240 14.06044
57.245 14.215046
57.250 13.852649
57.255 13.538954
57.260 13.501833
57.265 13.739297
57.270 13.723919
57.275 13.102848
57.280 13.13912
57.285 13.08068
57.290 13.473798
57.295 13.711287
57.300 13.594097
57.305 13.910316
57.310 13.842625
57.315 13.54835
57.320 13.875734
57.325 14.042087
57.330 14.212546
57.335 14.481977
57.340 14.35204
57.345 14.58407
57.350 14.827355
57.355 14.512115
57.360 13.75875
57.365 13.546066
57.370 13.557839
57.375 13.641303
57.380 13.483638
57.385 13.300989
57.390 13.928822
57.395 14.335506
57.400 14.388172
57.405 14.539895
57.410 14.987218
57.415 15.024663
57.420 14.734091
57.425 14.271604
57.430 13.915092
57.435 13.807614
57.440 13.633357
57.445 13.249823
57.450 12.811923
57.455 12.60216
57.460 12.901625
57.465 12.943324
57.470 13.196303
57.475 12.879144
57.480 12.942208
57.485 13.645719
57.490 13.915822
57.495 14.053676
57.500 14.180825
57.505 13.814019
57.510 14.111002
57.515 14.450051
57.520 14.602554
57.525 14.984931
57.530 14.994271
57.535 15.137831
57.540 15.326664
57.545 15.024977
57.550 14.799883
57.555 14.693521
57.560 14.047191
57.565 13.781309
57.570 14.140299
57.575 14.044108
57.580 14.101147
57.585 14.035473
57.590 14.059148
57.595 14.287737
57.600 14.005608
57.605 13.352898
57.610 13.709093
57.615 13.863928
57.620 13.994443
57.625 13.927966
57.630 14.182812
57.635 14.234806
57.640 14.444462
57.645 14.360723
57.650 14.392407
57.655 14.552842
57.660 14.386278
57.665 14.45611
57.670 14.693371
57.675 14.507375
57.680 14.033317
57.685 13.690536
57.690 13.436626
57.695 13.315729
57.700 12.601695
57.705 12.319003
57.710 12.695844
57.715 13.568273
57.720 14.094749
57.725 14.071285
57.730 14.564488
57.735 14.929751
57.740 15.152519
57.745 14.767243
57.750 14.268508
57.755 14.246417
57.760 14.254209
57.765 14.136447
57.770 14.341419
57.775 14.467904
57.780 14.85793
57.785 14.714436
57.790 14.378306
57.795 14.623794
57.800 14.911222
57.805 14.517338
57.810 14.123425
57.815 14.335864
57.820 14.594512
57.825 14.62024
57.830 14.334365
57.835 13.96201
57.840 14.369316
57.845 14.631115
57.850 14.604507
57.855 15.039269
57.860 15.193564
57.865 15.187569
57.870 15.164205
57.875 14.225721
57.880 13.574864
57.885 13.30902
57.890 12.712413
57.895 12.303457
57.900 12.140886
57.905 13.116004
57.910 14.003933
57.915 14.231585
57.920 14.265981
57.925 15.12124
57.930 15.761916
57.935 15.930167
57.940 15.37172
57.945 15.434893
57.950 15.877051
57.955 15.931973
57.960 15.267835
57.965 15.053336
57.970 14.969428
57.975 14.981555
57.980 14.906811
57.985 14.427576
57.990 14.10275
57.995 14.403833
58.000 14.476092
58.005 14.476163
58.010 14.12891
58.015 14.109799
58.020 14.172962
58.025 14.543938
58.030 14.354012
58.035 14.362249
58.040 14.719886
58.045 14.755336
58.050 14.799745
58.055 15.008493
58.060 14.536596
58.065 14.32947
58.070 14.327369
58.075 14.342777
58.080 14.761059
58.085 14.866308
58.090 14.565678
58.095 14.594004
58.100 14.646827
58.105 14.665942
58.110 14.326655
58.115 13.728317
58.120 13.907676
58.125 14.271214
58.130 14.513894
58.135 14.979117
58.140 15.446189
58.145 15.74032
58.150 16.115282
58.155 16.470791
58.160 16.338408
58.165 16.170612
58.170 15.903927
58.175 15.459847
58.180 15.798564
58.185 16.0758
58.190 15.608518
58.195 15.593871
58.200 15.61102
58.205 15.979225
58.210 16.364655
58.215 16.277699
58.220 15.883192
58.225 15.536937
58.230 15.289751
58.235 15.205115
58.240 15.230034
58.245 15.041814
58.250 15.043152
58.255 15.273751
58.260 15.290835
58.265 15.448623
58.270 15.207666
58.275 14.884748
58.280 14.774096
58.285 14.683151
58.290 14.735351
58.295 14.987798
58.300 15.551609
58.305 15.990318
58.310 15.40142
58.315 14.724692
58.320 14.413669
58.325 14.270861
58.330 13.825502
58.335 13.637082
58.340 14.057239
58.345 14.478168
58.350 14.940199
58.355 14.964952
58.360 15.208016
58.365 15.549738
58.370 15.211747
58.375 14.868034
58.380 14.974134
58.385 15.405367
58.390 15.790186
58.395 15.758045
58.400 16.176155
58.405 16.699099
58.410 16.794346
58.415 16.587177
58.420 16.238951
58.425 16.070229
58.430 16.09808
58.435 15.272321
58.440 14.72435
58.445 14.274586
58.450 14.541829
58.455 14.709872
58.460 14.7336
58.465 14.64876
58.470 14.88897
58.475 14.888268
58.480 15.370207
58.485 15.111447
58.490 14.704406
