!@!!GADDS PLOTSO FILE: Chi integration type
!@!!Title/SampleName: map-7d
!@!!Comment: ?
!@!!User: Bruker Instrument Administrator
!@!!Site: University of Illinois Chicago
!@!!Frame: map-7d_01_000.gfrm
!@!!Wavelengths    1.54184   1.54056   1.54439
!@!!Frame angles: 2Theta: 63.000 Omega: 50.000 Phi: 0.000 Chi: 90.000
!@!!Integration range: 2Theta: 53.000 to 73.000  Gamma: -105.000 to -75.000
!@!!Integration method: bin normalized
!@!N
!@!SS
!@!M
!@!L 0.0 0.0 0.0 0.0
!@!XDegrees
!@!YCounts
53.000 5.640163
53.005 5.406415
53.010 5.604537
53.015 5.722436
53.020 5.547382
53.025 5.583405
53.030 5.603465
53.035 6.267045
53.040 6.541145
53.045 6.59757
53.050 6.748479
53.055 6.745311
53.060 6.977474
53.065 7.18444
53.070 7.052375
53.075 7.074838
53.080 7.25042
53.085 7.966476
53.090 8.443536
53.095 8.655276
53.100 8.570539
53.105 8.797078
53.110 9.055399
53.115 9.039721
53.120 8.730933
53.125 8.054548
53.130 7.117797
53.135 6.743824
53.140 6.46601
53.145 5.845446
53.150 5.000692
53.155 4.961957
53.160 5.811989
53.165 6.639916
53.170 6.950441
53.175 7.16186
53.180 7.596648
53.185 7.842216
53.190 7.657444
53.195 7.219311
53.200 7.205942
53.205 6.958375
53.210 6.772939
53.215 6.796142
53.220 6.870569
53.225 6.722516
53.230 6.565957
53.235 6.434344
53.240 6.524948
53.245 6.552124
53.250 6.18333
53.255 6.546338
53.260 6.954439
53.265 6.94138
53.270 7.071714
53.275 7.253514
53.280 7.296802
53.285 7.218293
53.290 6.757746
53.295 6.614411
53.300 6.492386
53.305 6.262815
53.310 6.119221
53.315 6.131962
53.320 6.482278
53.325 6.807786
53.330 6.637331
53.335 6.797082
53.340 6.80668
53.345 6.610463
53.350 6.717034
53.355 6.676622
53.360 6.803477
53.365 7.146168
53.370 7.555199
53.375 8.086428
53.380 8.33757
53.385 8.177778
53.390 7.864577
53.395 7.564116
53.400 7.595725
53.405 7.585936
53.410 7.119499
53.415 6.987953
53.420 7.031302
53.425 7.241462
53.430 7.314687
53.435 7.160479
53.440 6.951677
53.445 7.275158
53.450 7.632929
53.455 8.131245
53.460 8.631208
53.465 9.066556
53.470 9.129255
53.475 9.202073
53.480 9.236184
53.485 9.1851
53.490 8.720595
53.495 8.124646
53.500 7.635819
53.505 7.300447
53.510 7.627695
53.515 7.551687
53.520 7.108882
53.525 7.315287
53.530 7.57848
53.535 8.011791
53.540 7.889822
53.545 7.735476
53.550 7.96901
53.555 7.894891
53.560 7.635282
53.565 7.319934
53.570 7.133514
53.575 7.295556
53.580 7.251067
53.585 7.112406
53.590 7.071142
53.595 6.927957
53.600 7.063666
53.605 7.502719
53.610 7.535473
53.615 7.482686
53.620 7.574175
53.625 8.083539
53.630 8.561206
53.635 8.761675
53.640 8.176238
53.645 8.097284
53.650 8.143588
53.655 7.91039
53.660 7.304184
53.665 7.055539
53.670 6.540594
53.675 6.40379
53.680 6.499035
53.685 6.879461
53.690 7.582164
53.695 7.606407
53.700 7.561307
53.705 7.919626
53.710 8.185052
53.715 8.125714
53.720 7.948753
53.725 8.08363
53.730 8.366323
53.735 8.327037
53.740 8.198808
53.745 8.396864
53.750 8.464525
53.755 8.037009
53.760 7.615398
53.765 8.170167
53.770 8.42456
53.775 8.506682
53.780 8.544693
53.785 8.889884
53.790 9.191053
53.795 9.051216
53.800 8.844524
53.805 9.388774
53.810 9.410298
53.815 9.227806
53.820 9.128059
53.825 9.208636
53.830 9.404595
53.835 9.009445
53.840 8.498104
53.845 8.341258
53.850 8.086568
53.855 7.832087
53.860 7.891687
53.865 7.862203
53.870 7.901904
53.875 7.748751
53.880 7.567462
53.885 7.860813
53.890 7.932464
53.895 7.931838
53.900 7.527407
53.905 7.796105
53.910 7.843786
53.915 7.863157
53.920 7.845165
53.925 7.540079
53.930 7.431816
53.935 7.459445
53.940 7.199624
53.945 7.659461
53.950 7.537034
53.955 7.223115
53.960 7.5068
53.965 7.717093
53.970 7.888985
53.975 7.93507
53.980 7.847304
53.985 8.069714
53.990 8.326448
53.995 8.512303
54.000 8.2692
54.005 8.41737
54.010 8.320534
54.015 8.294215
54.020 8.124398
54.025 8.098843
54.030 8.168057
54.035 8.266424
54.040 7.763567
54.045 7.506807
54.050 7.700028
54.055 8.007997
54.060 7.967965
54.065 7.991928
54.070 8.013441
54.075 8.322688
54.080 8.669806
54.085 8.659427
54.090 8.685332
54.095 9.113447
54.100 9.080241
54.105 9.304523
54.110 9.359603
54.115 9.306248
54.120 8.962836
54.125 8.660268
54.130 7.981257
54.135 8.144232
54.140 8.265983
54.145 7.938582
54.150 8.13496
54.155 8.210649
54.160 8.076973
54.165 8.383658
54.170 7.980821
54.175 7.785056
54.180 7.998234
54.185 7.880693
54.190 7.748481
54.195 7.968853
54.200 7.960712
54.205 8.096205
54.210 7.872517
54.215 7.71458
54.220 7.660338
54.225 8.145784
54.230 8.511208
54.235 8.731001
54.240 8.887288
54.245 9.557796
54.250 9.666112
54.255 9.382384
54.260 9.305099
54.265 9.05172
54.270 9.284689
54.275 9.777445
54.280 9.650028
54.285 9.719182
54.290 9.946692
54.295 9.524675
54.300 8.965415
54.305 8.328358
54.310 8.132312
54.315 8.336985
54.320 8.528023
54.325 8.724596
54.330 9.376294
54.335 9.688751
54.340 9.759211
54.345 9.325784
54.350 9.371305
54.355 9.371812
54.360 9.203178
54.365 8.966971
54.370 9.142033
54.375 9.299328
54.380 8.747408
54.385 8.147983
54.390 8.33905
54.395 8.595192
54.400 9.04754
54.405 9.020385
54.410 8.885209
54.415 9.269361
54.420 9.168388
54.425 9.164393
54.430 8.955328
54.435 8.696297
54.440 9.02015
54.445 9.362577
54.450 9.890785
54.455 10.109564
54.460 9.89543
54.465 9.438652
54.470 8.908313
54.475 8.381311
54.480 8.162691
54.485 7.567435
54.490 7.255794
54.495 7.127874
54.500 7.19877
54.505 7.230803
54.510 7.961257
54.515 7.880235
54.520 8.171554
54.525 8.232804
54.530 8.117508
54.535 8.016229
54.540 8.000172
54.545 7.756292
54.550 7.745659
54.555 7.969358
54.560 8.306899
54.565 8.576452
54.570 8.768484
54.575 8.472797
54.580 8.771508
54.585 9.498329
54.590 9.454766
54.595 9.273293
54.600 8.973249
54.605 9.335962
54.610 9.351699
54.615 9.15104
54.620 8.338867
54.625 8.458423
54.630 8.86978
54.635 9.393148
54.640 9.010637
54.645 8.705216
54.650 8.360639
54.655 8.57261
54.660 8.394357
54.665 8.148016
54.670 8.031109
54.675 7.731489
54.680 7.696055
54.685 7.829115
54.690 7.729239
54.695 7.540701
54.700 7.683569
54.705 8.162848
54.710 9.004676
54.715 9.537207
54.720 9.481502
54.725 9.563049
54.730 9.852197
54.735 9.443454
54.740 8.950665
54.745 8.694448
54.750 8.568224
54.755 8.865993
54.760 8.997831
54.765 8.769408
54.770 8.895145
54.775 8.828141
54.780 8.971285
54.785 9.387936
54.790 9.352031
54.795 9.270277
54.800 9.256319
54.805 9.469134
54.810 9.759829
54.815 9.721394
54.820 9.486264
54.825 9.54886
54.830 9.474524
54.835 9.56685
54.840 9.343118
54.845 9.235798
54.850 9.146026
54.855 9.293392
54.860 9.682827
54.865 10.166535
54.870 10.206023
54.875 10.173461
54.880 10.333813
54.885 10.230844
54.890 9.796453
54.895 9.319525
54.900 8.931475
54.905 9.195992
54.910 9.203815
54.915 8.797764
54.920 8.696745
54.925 8.833656
54.930 9.039444
54.935 9.177753
54.940 9.437078
54.945 9.827873
54.950 10.288951
54.955 10.327813
54.960 10.18515
54.965 9.995239
54.970 9.859771
54.975 9.654274
54.980 9.784485
54.985 9.569971
54.990 9.762587
54.995 9.836862
55.000 10.252584
55.005 10.342334
55.010 10.131165
55.015 10.060219
55.020 10.306327
55.025 10.220959
55.030 10.120652
55.035 9.940989
55.040 9.440447
55.045 9.307969
55.050 9.407023
55.055 9.261582
55.060 9.488541
55.065 9.496427
55.070 9.685809
55.075 10.173289
55.080 10.188912
55.085 9.715967
55.090 9.259211
55.095 9.161071
55.100 9.066316
55.105 9.137888
55.110 8.974032
55.115 9.137968
55.120 9.119897
55.125 9.065554
55.130 8.870207
55.135 8.887024
55.140 8.946102
55.145 8.958371
55.150 8.940421
55.155 9.755838
55.160 10.473434
55.165 10.685298
55.170 10.264689
55.175 9.925687
55.180 9.606546
55.185 9.632093
55.190 9.34408
55.195 9.055558
55.200 9.124914
55.205 9.524461
55.210 9.311505
55.215 9.85113
55.220 9.957659
55.225 9.821037
55.230 10.118103
55.235 10.499697
55.240 10.734319
55.245 10.919768
55.250 10.482425
55.255 10.438281
55.260 10.307306
55.265 9.844418
55.270 9.146681
55.275 8.947803
55.280 8.992257
55.285 8.855148
55.290 8.78491
55.295 8.885764
55.300 9.072687
55.305 8.914509
55.310 9.19527
55.315 9.176873
55.320 9.656047
55.325 9.683712
55.330 9.304493
55.335 9.021125
55.340 9.033929
55.345 8.515972
55.350 8.150255
55.355 8.030777
55.360 8.414727
55.365 8.749059
55.370 9.051786
55.375 9.327689
55.380 9.752654
55.385 9.771856
55.390 9.445101
55.395 9.404603
55.400 9.074457
55.405 9.551157
55.410 9.35432
55.415 9.340906
55.420 9.405825
55.425 9.153441
55.430 9.159066
55.435 9.377917
55.440 9.278645
55.445 9.813341
55.450 10.186867
55.455 10.132423
55.460 10.346231
55.465 10.729544
55.470 10.731764
55.475 10.941168
55.480 10.816123
55.485 10.564317
55.490 10.80215
55.495 10.842515
55.500 10.140472
55.505 9.89605
55.510 9.868687
55.515 9.753056
55.520 10.104397
55.525 10.303216
55.530 10.084949
55.535 10.294012
55.540 10.245901
55.545 10.337764
55.550 10.332259
55.555 10.215391
55.560 9.849887
55.565 10.145219
55.570 10.607565
55.575 10.578251
55.580 10.16475
55.585 10.405513
55.590 10.675242
55.595 10.848869
55.600 10.875783
55.605 10.561745
55.610 10.555195
55.615 10.649508
55.620 10.000168
55.625 9.762428
55.630 9.49249
55.635 9.270918
55.640 9.667683
55.645 9.653522
55.650 9.812307
55.655 10.060212
55.660 9.659814
55.665 9.732436
55.670 9.302895
55.675 9.313848
55.680 9.756169
55.685 9.716288
55.690 9.604457
55.695 9.580947
55.700 9.826346
55.705 10.059218
55.710 9.603264
55.715 9.081461
55.720 8.919588
55.725 9.195768
55.730 9.717369
55.735 10.185218
55.740 10.391505
55.745 11.27931
55.750 11.720387
55.755 12.102627
55.760 11.854567
55.765 11.450521
55.770 10.868447
55.775 10.548092
55.780 9.788214
55.785 9.562969
55.790 9.383233
55.795 9.282399
55.800 9.147802
55.805 9.317444
55.810 9.840433
55.815 10.350596
55.820 10.842954
55.825 11.036423
55.830 11.049991
55.835 11.925002
55.840 12.140323
55.845 11.625279
55.850 11.162457
55.855 10.983067
55.860 10.932235
55.865 11.024019
55.870 10.118405
55.875 10.006233
55.880 10.368546
55.885 10.376859
55.890 10.751841
55.895 11.335596
55.900 11.19521
55.905 11.439973
55.910 11.582358
55.915 11.683874
55.920 11.742404
55.925 11.658851
55.930 11.432045
55.935 12.156217
55.940 12.541249
55.945 12.629153
55.950 12.231752
55.955 12.221239
55.960 11.826475
55.965 11.595558
55.970 11.079552
55.975 10.522392
55.980 10.261851
55.985 10.511233
55.990 10.025219
55.995 9.74953
56.000 9.572667
56.005 9.81517
56.010 10.154963
56.015 10.162757
56.020 10.021482
56.025 10.442821
56.030 11.086547
56.035 11.441141
56.040 11.258932
56.045 11.127717
56.050 11.158068
56.055 11.259691
56.060 10.762505
56.065 10.41012
56.070 10.05065
56.075 10.015534
56.080 9.917647
56.085 10.10855
56.090 10.316376
56.095 11.258542
56.100 11.567174
56.105 11.440001
56.110 11.10193
56.115 11.110863
56.120 11.106483
56.125 10.798814
56.130 10.085147
56.135 9.851914
56.140 10.025169
56.145 10.203336
56.150 10.537601
56.155 10.59155
56.160 10.709251
56.165 10.756535
56.170 11.106362
56.175 11.139223
56.180 11.127283
56.185 10.542217
56.190 10.611146
56.195 10.383026
56.200 10.15946
56.205 9.587557
56.210 9.570846
56.215 10.197185
56.220 10.475429
56.225 10.235741
56.230 10.911647
56.235 11.03269
56.240 11.596307
56.245 11.578367
56.250 11.694789
56.255 11.722297
56.260 11.755596
56.265 11.598757
56.270 11.496592
56.275 11.10701
56.280 10.839323
56.285 10.514392
56.290 10.646418
56.295 10.631715
56.300 10.372195
56.305 10.856199
56.310 10.976174
56.315 10.408866
56.320 10.171436
56.325 9.682167
56.330 9.979738
56.335 10.09301
56.340 9.745327
56.345 10.021546
56.350 10.567144
56.355 10.853828
56.360 11.403085
56.365 11.429087
56.370 11.584723
56.375 11.874697
56.380 12.170988
56.385 12.396828
56.390 11.967045
56.395 11.367703
56.400 10.811376
56.405 10.578469
56.410 10.38464
56.415 10.297224
56.420 10.250527
56.425 10.558159
56.430 11.082973
56.435 11.215237
56.440 11.391938
56.445 11.084496
56.450 10.677341
56.455 11.083476
56.460 10.917731
56.465 10.827332
56.470 10.874487
56.475 11.154214
56.480 11.247971
56.485 11.052723
56.490 11.039646
56.495 10.688807
56.500 10.461368
56.505 10.595192
56.510 10.371872
56.515 10.493455
56.520 11.019877
56.525 10.906765
56.530 11.505473
56.535 11.472814
56.540 11.208057
56.545 11.599232
56.550 11.657189
56.555 11.529036
56.560 11.320851
56.565 10.966042
56.570 11.105282
56.575 11.286863
56.580 11.027079
56.585 10.915606
56.590 10.662706
56.595 11.042322
56.600 11.269517
56.605 10.93714
56.610 10.633474
56.615 10.901288
56.620 11.134492
56.625 11.779366
56.630 11.603261
56.635 11.663384
56.640 11.85381
56.645 11.62323
56.650 11.564477
56.655 11.478611
56.660 10.837985
56.665 10.725354
56.670 10.711515
56.675 10.673558
56.680 10.66608
56.685 10.476393
56.690 10.344769
56.695 10.419135
56.700 10.188507
56.705 10.235803
56.710 10.845326
56.715 11.253118
56.720 11.904578
56.725 12.462808
56.730 12.462035
56.735 13.187573
56.740 13.179944
56.745 12.723348
56.750 12.507173
56.755 12.006896
56.760 11.941703
56.765 11.840649
56.770 11.480328
56.775 11.746577
56.780 12.10061
56.785 12.047403
56.790 12.13735
56.795 12.03395
56.800 12.214762
56.805 12.196484
56.810 11.829166
56.815 12.102262
56.820 11.908316
56.825 11.770056
56.830 12.13229
56.835 12.090195
56.840 12.136604
56.845 12.069084
56.850 12.22733
56.855 12.264527
56.860 12.02897
56.865 11.37984
56.870 11.567337
56.875 11.723388
56.880 11.376065
56.885 11.053734
56.890 11.550006
56.895 11.757386
56.900 11.993168
56.905 12.082734
56.910 12.366216
56.915 12.765862
56.920 12.635221
56.925 12.724216
56.930 12.916603
56.935 12.698545
56.940 12.320391
56.945 12.171906
56.950 11.813967
56.955 11.870559
56.960 11.663959
56.965 11.686665
56.970 12.324656
56.975 12.413161
56.980 12.197608
56.985 12.287529
56.990 12.053792
56.995 12.045024
57.000 12.072333
57.005 11.915619
57.010 11.83228
57.015 12.284621
57.020 12.292459
57.025 12.33544
57.030 12.399149
57.035 12.474318
57.040 12.461691
57.045 13.089697
57.050 12.831568
57.055 12.597828
57.060 12.315195
57.065 12.334328
57.070 12.160265
57.075 12.143221
57.080 11.999879
57.085 12.291629
57.090 12.380322
57.095 11.913242
57.100 11.553805
57.105 11.470411
57.110 11.240786
57.115 10.681006
57.120 10.672058
57.125 11.1301
57.130 11.810366
57.135 11.796178
57.140 11.999061
57.145 11.854894
57.150 12.034627
57.155 12.773705
57.160 12.505224
57.165 13.002754
57.170 13.473023
57.175 13.534897
57.180 13.710362
57.185 13.292081
57.190 12.883592
57.195 13.057071
57.200 12.421873
57.205 12.018977
57.210 12.105228
57.215 11.843995
57.220 11.764167
57.225 11.529251
57.230 11.399115
57.235 11.416954
57.240 11.741064
57.245 11.654729
57.250 11.781289
57.255 11.985608
57.260 11.990865
57.265 11.654735
57.270 11.354842
57.275 11.568784
57.280 12.00598
57.285 11.955001
57.290 11.938087
57.295 12.175364
57.300 12.726649
57.305 12.80509
57.310 12.472197
57.315 12.627793
57.320 12.870747
57.325 12.77501
57.330 12.400845
57.335 12.35469
57.340 12.375546
57.345 11.746173
57.350 11.637987
57.355 11.450686
57.360 11.376732
57.365 11.846385
57.370 11.732791
57.375 12.021088
57.380 12.491703
57.385 12.084249
57.390 11.761907
57.395 11.610864
57.400 11.429475
57.405 11.352726
57.410 11.262261
57.415 11.3217
57.420 11.691462
57.425 12.445193
57.430 12.409336
57.435 12.289106
57.440 12.774824
57.445 13.018667
57.450 12.876719
57.455 12.597134
57.460 12.333693
57.465 12.774961
57.470 12.870776
57.475 12.637745
57.480 12.922216
57.485 13.402775
57.490 14.034961
57.495 14.578576
57.500 14.309422
57.505 13.981718
57.510 13.511131
57.515 13.055983
57.520 12.857313
57.525 12.5309
57.530 11.967547
57.535 11.902029
57.540 11.853103
57.545 11.997988
57.550 11.666272
57.555 11.623024
57.560 11.683642
57.565 11.448604
57.570 11.681385
57.575 12.047044
57.580 11.798474
57.585 11.585754
57.590 11.656664
57.595 12.591323
57.600 13.391667
57.605 13.111363
57.610 12.837661
57.615 13.007605
57.620 13.43047
57.625 13.14275
57.630 12.505682
57.635 12.285558
57.640 12.418898
57.645 13.077107
57.650 13.480709
57.655 13.35002
57.660 13.056228
57.665 12.829102
57.670 12.517036
57.675 12.707443
57.680 12.472411
57.685 12.173769
57.690 12.612424
57.695 12.768719
57.700 13.10383
57.705 13.719323
57.710 13.693095
57.715 13.345778
57.720 13.693407
57.725 13.191883
57.730 13.657102
57.735 13.707057
57.740 13.599689
57.745 13.585231
57.750 13.495971
57.755 13.366123
57.760 13.461524
57.765 13.181732
57.770 13.167802
57.775 13.336901
57.780 13.463182
57.785 13.638097
57.790 13.731723
57.795 13.750854
57.800 13.895928
57.805 13.786777
57.810 13.358796
57.815 13.827971
57.820 14.059641
57.825 13.719825
57.830 13.640277
57.835 13.200484
57.840 12.929438
57.845 13.052968
57.850 12.84838
57.855 12.914952
57.860 13.182695
57.865 12.963605
57.870 13.025384
57.875 13.044549
57.880 13.194895
57.885 13.208733
57.890 13.441174
57.895 13.497725
57.900 13.396511
57.905 13.872386
57.910 14.296819
57.915 14.020376
57.920 13.791206
57.925 13.50621
57.930 13.297175
57.935 13.726357
57.940 13.187269
57.945 13.025375
57.950 13.133057
57.955 13.243783
57.960 13.070814
57.965 13.173478
57.970 13.910904
57.975 14.244345
57.980 14.458315
57.985 14.54884
57.990 14.576837
57.995 14.120061
58.000 14.046908
58.005 13.686271
58.010 13.59128
58.015 13.146982
58.020 12.743257
58.025 13.103036
58.030 13.858324
58.035 13.561856
58.040 13.888991
58.045 13.605606
58.050 13.626558
58.055 14.142617
58.060 13.81437
58.065 14.140724
58.070 14.236415
58.075 13.928515
58.080 14.279592
58.085 14.438089
58.090 14.182949
58.095 13.823932
58.100 13.572061
58.105 14.463482
58.110 14.244203
58.115 14.60754
58.120 14.59144
58.125 14.510897
58.130 14.730345
58.135 14.839742
58.140 14.409704
58.145 14.534717
58.150 13.613395
58.155 13.520168
58.160 13.635358
58.165 14.026213
58.170 13.936712
58.175 13.621614
58.180 13.693824
58.185 13.659691
58.190 13.670312
58.195 13.297631
58.200 13.264867
58.205 13.16692
58.210 13.102731
58.215 12.828706
58.220 13.604878
58.225 14.058228
58.230 13.960773
58.235 13.342715
58.240 13.094171
58.245 13.002842
58.250 12.732497
58.255 12.190504
58.260 11.791224
58.265 11.681569
58.270 12.042036
58.275 12.190144
58.280 12.339924
58.285 12.872184
58.290 13.056414
58.295 12.927932
58.300 13.039128
58.305 13.012071
58.310 13.091833
58.315 13.054181
58.320 12.429706
58.325 12.208169
58.330 12.725204
58.335 12.860022
58.340 12.866648
58.345 12.667229
58.350 12.40795
58.355 12.677656
58.360 13.097862
58.365 13.228111
58.370 13.185802
58.375 13.246816
58.380 13.240903
58.385 14.26577
58.390 14.407069
58.395 14.300563
58.400 14.455778
58.405 14.918672
58.410 14.310957
58.415 13.780738
58.420 13.173687
58.425 12.882334
58.430 12.99755
58.435 12.492311
58.440 11.713481
58.445 11.938511
58.450 12.30019
58.455 12.771319
58.460 12.847832
58.465 12.432706
58.470 12.246423
58.475 12.636532
58.480 12.897483
58.485 12.750458
58.490 12.24898
58.495 12.283365
58.500 12.393525
58.505 12.844485
58.510 13.366823
58.515 13.37825
58.520 13.597099
58.525 13.782867
58.530 13.992998
58.535 14.050824
58.540 14.123625
58.545 14.077088
58.550 14.390415
58.555 14.430614
58.560 14.325256
58.565 14.407558
58.570 14.184344
58.575 13.966692
