!@!!GADDS PLOTSO FILE: Chi integration type
!@!!Title/SampleName: map-8c
!@!!Comment: ?
!@!!User: Bruker Instrument Administrator
!@!!Site: University of Illinois Chicago
!@!!Frame: map-8c_01_000.gfrm
!@!!Wavelengths    1.54184   1.54056   1.54439
!@!!Frame angles: 2Theta: 63.000 Omega: 50.000 Phi: 0.000 Chi: 90.000
!@!!Integration range: 2Theta: 53.000 to 73.000  Gamma: -105.000 to -75.000
!@!!Integration method: bin normalized
!@!N
!@!SS
!@!M
!@!L 0.0 0.0 0.0 0.0
!@!XDegrees
!@!YCounts
53.000 7.015625
53.005 7.135274
53.010 7.15604
53.015 7.34195
53.020 7.590328
53.025 8.184447
53.030 8.633652
53.035 8.932276
53.040 8.970098
53.045 8.937705
53.050 8.667248
53.055 8.041135
53.060 8.126642
53.065 8.15982
53.070 8.292944
53.075 8.077009
53.080 7.98159
53.085 8.468164
53.090 9.002252
53.095 8.686846
53.100 8.810143
53.105 8.940479
53.110 9.20516
53.115 9.265121
53.120 8.884138
53.125 8.566957
53.130 8.549049
53.135 8.10173
53.140 8.019877
53.145 7.883338
53.150 7.782283
53.155 7.917153
53.160 8.192334
53.165 7.994685
53.170 7.743372
53.175 7.536181
53.180 7.816722
53.185 7.937411
53.190 8.264212
53.195 8.320714
53.200 8.2648
53.205 8.454034
53.210 8.647696
53.215 8.463255
53.220 8.327289
53.225 7.913778
53.230 7.946746
53.235 7.782031
53.240 7.40294
53.245 7.102807
53.250 6.988213
53.255 7.232664
53.260 7.009019
53.265 7.555049
53.270 7.835119
53.275 8.033219
53.280 8.414935
53.285 8.610217
53.290 8.495376
53.295 8.60815
53.300 8.33459
53.305 8.315698
53.310 8.225983
53.315 8.148712
53.320 8.417003
53.325 8.485506
53.330 8.07806
53.335 8.10027
53.340 8.364285
53.345 8.760767
53.350 8.691879
53.355 8.137068
53.360 8.49587
53.365 9.022254
53.370 8.860631
53.375 8.664013
53.380 8.551634
53.385 8.9646
53.390 9.265958
53.395 9.463428
53.400 9.429006
53.405 9.865963
53.410 9.585445
53.415 9.193477
53.420 8.841938
53.425 8.495135
53.430 8.487303
53.435 8.45029
53.440 8.489277
53.445 8.531635
53.450 8.804137
53.455 8.687722
53.460 8.576857
53.465 8.011939
53.470 7.895928
53.475 7.592922
53.480 7.47455
53.485 7.3876
53.490 7.948926
53.495 7.949964
53.500 8.219977
53.505 8.636456
53.510 8.696934
53.515 8.9842
53.520 8.99863
53.525 8.205015
53.530 8.190689
53.535 8.054192
53.540 7.892128
53.545 8.358044
53.550 8.529812
53.555 8.696208
53.560 9.188314
53.565 9.463372
53.570 9.328041
53.575 9.156606
53.580 8.913872
53.585 9.108939
53.590 9.24001
53.595 9.002685
53.600 8.839385
53.605 8.783144
53.610 8.751089
53.615 8.535298
53.620 8.434847
53.625 8.641694
53.630 9.187019
53.635 9.449343
53.640 9.648656
53.645 9.878743
53.650 9.76943
53.655 9.70527
53.660 9.285285
53.665 8.933513
53.670 9.159156
53.675 9.001032
53.680 9.073673
53.685 9.242766
53.690 9.081898
53.695 9.162045
53.700 9.388824
53.705 9.623009
53.710 10.205401
53.715 10.038342
53.720 10.170199
53.725 10.079145
53.730 9.900695
53.735 9.623801
53.740 9.431159
53.745 9.012937
53.750 9.071886
53.755 9.360521
53.760 9.702785
53.765 9.614614
53.770 9.263075
53.775 8.861933
53.780 9.25789
53.785 9.201403
53.790 8.876262
53.795 8.697169
53.800 8.877151
53.805 9.346357
53.810 9.325602
53.815 9.033764
53.820 8.785145
53.825 8.579636
53.830 8.421508
53.835 8.002603
53.840 7.907753
53.845 8.105998
53.850 8.403297
53.855 8.505809
53.860 9.137993
53.865 9.766397
53.870 10.037332
53.875 9.788212
53.880 9.166644
53.885 9.146416
53.890 9.050491
53.895 8.762083
53.900 8.19023
53.905 8.124879
53.910 8.629275
53.915 8.748531
53.920 8.484284
53.925 8.798561
53.930 9.300497
53.935 9.551639
53.940 9.789073
53.945 9.856258
53.950 10.207866
53.955 10.520792
53.960 9.743449
53.965 9.498865
53.970 9.257318
53.975 9.000051
53.980 9.045344
53.985 8.921161
53.990 9.229187
53.995 9.312278
54.000 8.991433
54.005 9.030889
54.010 9.098324
54.015 9.051714
54.020 8.746989
54.025 8.514165
54.030 9.064508
54.035 9.209057
54.040 9.257874
54.045 9.20962
54.050 8.929997
54.055 8.738901
54.060 8.434454
54.065 8.474871
54.070 8.628678
54.075 8.461608
54.080 8.416065
54.085 8.400405
54.090 8.731813
54.095 8.877121
54.100 8.85971
54.105 9.175467
54.110 9.453303
54.115 9.881888
54.120 10.158251
54.125 9.938685
54.130 9.951653
54.135 9.786332
54.140 9.394508
54.145 9.403436
54.150 9.278687
54.155 9.252949
54.160 9.527505
54.165 9.451951
54.170 9.011433
54.175 8.916547
54.180 8.606173
54.185 8.328781
54.190 8.294446
54.195 8.289696
54.200 8.439327
54.205 9.244332
54.210 9.479651
54.215 9.705901
54.220 10.094797
54.225 10.548661
54.230 10.894978
54.235 11.227045
54.240 10.823681
54.245 10.570851
54.250 10.41415
54.255 10.739017
54.260 10.440915
54.265 10.08403
54.270 9.928464
54.275 10.282063
54.280 10.552642
54.285 10.571181
54.290 10.646445
54.295 10.602458
54.300 10.371904
54.305 10.287652
54.310 10.062877
54.315 10.433076
54.320 9.855515
54.325 9.240743
54.330 9.186667
54.335 9.642108
54.340 9.584304
54.345 9.662271
54.350 9.888539
54.355 10.105008
54.360 10.431296
54.365 10.583905
54.370 10.476475
54.375 10.906064
54.380 10.950882
54.385 10.605714
54.390 10.816955
54.395 10.435958
54.400 9.975179
54.405 9.488789
54.410 8.837913
54.415 8.903518
54.420 8.599132
54.425 8.344486
54.430 8.551763
54.435 8.522149
54.440 8.58003
54.445 8.521219
54.450 8.619391
54.455 9.28211
54.460 9.699387
54.465 9.648525
54.470 10.273807
54.475 10.300696
54.480 10.189943
54.485 9.615406
54.490 9.19679
54.495 8.893136
54.500 8.942503
54.505 8.745232
54.510 8.622983
54.515 8.860471
54.520 8.850402
54.525 8.725034
54.530 8.629737
54.535 8.57443
54.540 8.197738
54.545 7.949876
54.550 7.910641
54.555 8.468338
54.560 8.475986
54.565 8.234883
54.570 8.140151
54.575 8.772777
54.580 9.186954
54.585 9.571096
54.590 9.289445
54.595 9.144734
54.600 9.840775
54.605 9.790874
54.610 9.976969
54.615 9.915381
54.620 9.18006
54.625 9.163206
54.630 9.263599
54.635 9.164247
54.640 9.688239
54.645 9.271929
54.650 9.260504
54.655 9.804516
54.660 10.119706
54.665 10.044156
54.670 9.367568
54.675 8.985065
54.680 9.496799
54.685 9.531632
54.690 9.329841
54.695 9.084738
54.700 8.870562
54.705 9.042286
54.710 8.921233
54.715 8.549019
54.720 8.569572
54.725 8.429158
54.730 8.687151
54.735 8.909336
54.740 9.055882
54.745 8.867243
54.750 9.185227
54.755 9.53265
54.760 9.636272
54.765 9.917246
54.770 10.108548
54.775 9.961918
54.780 9.793738
54.785 9.210468
54.790 9.086052
54.795 8.951736
54.800 8.587581
54.805 8.300176
54.810 8.728544
54.815 9.798963
54.820 10.310404
54.825 10.298833
54.830 10.553148
54.835 10.699644
54.840 11.032471
54.845 10.772821
54.850 10.017928
54.855 9.723521
54.860 9.855651
54.865 10.156566
54.870 10.07096
54.875 9.791911
54.880 9.996398
54.885 9.874544
54.890 9.832006
54.895 9.820706
54.900 9.4754
54.905 9.422927
54.910 9.310369
54.915 9.250531
54.920 9.606873
54.925 9.316863
54.930 9.095806
54.935 9.465824
54.940 9.612582
54.945 9.818414
54.950 9.691174
54.955 9.846687
54.960 10.089486
54.965 9.929618
54.970 9.846414
54.975 9.774441
54.980 9.972129
54.985 10.598683
54.990 10.671282
54.995 10.664248
55.000 10.893002
55.005 10.891724
55.010 11.454364
55.015 11.084279
55.020 10.863645
55.025 10.576365
55.030 10.457786
55.035 10.458288
55.040 10.223733
55.045 9.905936
55.050 9.876397
55.055 9.728166
55.060 9.735511
55.065 9.893488
55.070 9.737219
55.075 9.936825
55.080 10.170653
55.085 10.444183
55.090 10.819643
55.095 10.882165
55.100 11.083726
55.105 11.66205
55.110 11.625139
55.115 11.640243
55.120 11.456979
55.125 11.316072
55.130 11.206363
55.135 10.966099
55.140 10.77454
55.145 10.541873
55.150 10.368114
55.155 10.218801
55.160 10.12211
55.165 10.160979
55.170 9.770148
55.175 10.011274
55.180 10.128395
55.185 10.517531
55.190 11.13998
55.195 11.273873
55.200 11.159928
55.205 11.126913
55.210 11.169246
55.215 11.240596
55.220 11.021265
55.225 10.823168
55.230 11.328972
55.235 11.598315
55.240 11.810779
55.245 11.614326
55.250 11.759396
55.255 11.032791
55.260 10.993012
55.265 10.771825
55.270 10.322239
55.275 9.808176
55.280 9.80674
55.285 9.890029
55.290 10.156043
55.295 10.104842
55.300 9.947795
55.305 10.153418
55.310 10.403625
55.315 10.879864
55.320 11.318837
55.325 11.987941
55.330 11.949493
55.335 12.113304
55.340 12.011803
55.345 11.856071
55.350 11.364792
55.355 10.873442
55.360 10.626143
55.365 10.789091
55.370 10.547181
55.375 10.686121
55.380 10.79799
55.385 10.913275
55.390 10.779204
55.395 10.91565
55.400 11.151516
55.405 11.208049
55.410 11.011801
55.415 10.669507
55.420 10.284148
55.425 9.951882
55.430 9.848603
55.435 9.786774
55.440 10.117581
55.445 10.458322
55.450 10.739497
55.455 11.503156
55.460 12.176001
55.465 11.903244
55.470 12.230394
55.475 12.427981
55.480 12.229327
55.485 11.662708
55.490 10.88132
55.495 10.597486
55.500 10.335145
55.505 9.640989
55.510 9.704799
55.515 9.810349
55.520 10.111144
55.525 10.042555
55.530 10.011406
55.535 10.296029
55.540 10.659418
55.545 10.60312
55.550 10.650582
55.555 10.694808
55.560 10.769331
55.565 10.782397
55.570 10.735706
55.575 11.062307
55.580 11.697046
55.585 12.054332
55.590 12.140075
55.595 12.233118
55.600 12.747481
55.605 12.460944
55.610 11.961884
55.615 11.057563
55.620 11.099348
55.625 11.181799
55.630 11.352882
55.635 10.911708
55.640 11.140631
55.645 11.027416
55.650 10.990603
55.655 10.704577
55.660 10.492374
55.665 9.682639
55.670 9.884986
55.675 9.813593
55.680 9.712605
55.685 9.626923
55.690 9.556026
55.695 9.90824
55.700 10.725882
55.705 10.868325
55.710 10.553326
55.715 10.642613
55.720 10.900446
55.725 10.908176
55.730 10.584961
55.735 9.723204
55.740 9.602542
55.745 9.642538
55.750 9.822562
55.755 9.766938
55.760 9.896762
55.765 9.968359
55.770 10.257571
55.775 10.753571
55.780 11.026411
55.785 10.90196
55.790 10.607464
55.795 10.351703
55.800 10.837309
55.805 10.771339
55.810 10.5425
55.815 10.952518
55.820 11.441925
55.825 11.736571
55.830 11.598763
55.835 11.528167
55.840 11.680876
55.845 11.561938
55.850 11.109697
55.855 11.023166
55.860 11.333364
55.865 11.62503
55.870 11.288181
55.875 11.420501
55.880 11.259493
55.885 11.298497
55.890 11.005604
55.895 10.683163
55.900 10.485027
55.905 10.20974
55.910 10.217562
55.915 10.545334
55.920 11.030585
55.925 11.460485
55.930 11.513526
55.935 11.599967
55.940 12.00938
55.945 12.162186
55.950 12.303978
55.955 12.536035
55.960 12.886982
55.965 13.022283
55.970 13.076179
55.975 12.665559
55.980 12.510391
55.985 11.939255
55.990 11.233342
55.995 11.092205
56.000 11.444838
56.005 11.656887
56.010 12.169761
56.015 12.50625
56.020 12.086196
56.025 12.171672
56.030 11.90382
56.035 11.336829
56.040 11.501724
56.045 11.093663
56.050 10.921512
56.055 11.260525
56.060 11.074741
56.065 11.53281
56.070 11.352355
56.075 11.309464
56.080 11.908056
56.085 12.245561
56.090 12.899398
56.095 13.166737
56.100 13.138642
56.105 13.436091
56.110 13.558755
56.115 13.299316
56.120 13.319077
56.125 13.125944
56.130 12.463005
56.135 12.248473
56.140 12.517005
56.145 11.473194
56.150 10.964378
56.155 10.480782
56.160 10.396572
56.165 10.653825
56.170 10.969329
56.175 10.79376
56.180 11.230779
56.185 10.969316
56.190 11.098344
56.195 11.152085
56.200 11.298602
56.205 10.922915
56.210 10.997626
56.215 11.225159
56.220 11.190665
56.225 11.127625
56.230 10.963431
56.235 10.960281
56.240 11.04808
56.245 11.456141
56.250 11.97249
56.255 11.925423
56.260 11.993048
56.265 12.032602
56.270 11.860364
56.275 11.404885
56.280 10.806657
56.285 10.57254
56.290 11.097116
56.295 11.085436
56.300 11.367297
56.305 11.815584
56.310 12.214497
56.315 12.349512
56.320 12.273005
56.325 11.595825
56.330 11.338696
56.335 11.412072
56.340 11.191865
56.345 11.563299
56.350 11.578242
56.355 11.95808
56.360 12.425822
56.365 12.439983
56.370 11.816176
56.375 11.513419
56.380 11.030806
56.385 11.327738
56.390 11.143956
56.395 10.888836
56.400 10.783726
56.405 11.483981
56.410 11.983242
56.415 12.007789
56.420 12.122704
56.425 11.914867
56.430 11.861053
56.435 12.033402
56.440 11.565756
56.445 11.108561
56.450 11.333446
56.455 10.603567
56.460 10.577062
56.465 10.967578
56.470 10.960928
56.475 11.21037
56.480 11.369425
56.485 11.231962
56.490 12.106345
56.495 12.416158
56.500 12.592089
56.505 12.648087
56.510 12.358391
56.515 11.874624
56.520 11.338968
56.525 10.735165
56.530 10.886372
56.535 11.004269
56.540 11.094318
56.545 11.593136
56.550 12.28939
56.555 12.732484
56.560 12.977264
56.565 12.656925
56.570 12.397508
56.575 12.654836
56.580 12.50671
56.585 12.346192
56.590 12.421049
56.595 12.877143
56.600 13.079188
56.605 12.627926
56.610 11.959496
56.615 11.32414
56.620 11.106874
56.625 11.064787
56.630 10.849628
56.635 10.55098
56.640 10.85151
56.645 11.316441
56.650 12.325457
56.655 12.511383
56.660 12.105348
56.665 11.814497
56.670 11.868445
56.675 11.895217
56.680 12.251206
56.685 12.878386
56.690 12.815616
56.695 12.878366
56.700 12.66629
56.705 12.409299
56.710 12.209308
56.715 11.078275
56.720 10.312467
56.725 10.864601
56.730 11.235928
56.735 12.244282
56.740 12.579223
56.745 12.966692
56.750 13.555329
56.755 13.072555
56.760 12.648979
56.765 12.614792
56.770 12.463151
56.775 13.031113
56.780 13.381397
56.785 13.252581
56.790 13.248453
56.795 12.920374
56.800 13.016478
56.805 12.810438
56.810 11.937922
56.815 11.711842
56.820 12.015573
56.825 12.692695
56.830 12.697324
56.835 12.28064
56.840 12.320036
56.845 12.168543
56.850 12.142302
56.855 12.385103
56.860 12.00172
56.865 12.06747
56.870 11.619325
56.875 11.307501
56.880 11.827759
56.885 11.445012
56.890 11.397533
56.895 11.716481
56.900 11.697123
56.905 12.437395
56.910 12.816944
56.915 12.801982
56.920 12.987037
56.925 12.635996
56.930 12.414371
56.935 12.45715
56.940 12.199718
56.945 11.861436
56.950 11.769398
56.955 11.942755
56.960 12.520924
56.965 12.661057
56.970 12.624104
56.975 12.585017
56.980 12.718443
56.985 12.810492
56.990 12.84701
56.995 12.348456
57.000 11.862382
57.005 12.466022
57.010 12.948748
57.015 12.590254
57.020 12.399252
57.025 12.114251
57.030 12.140441
57.035 12.308962
57.040 11.741807
57.045 11.345401
57.050 11.841615
57.055 12.426332
57.060 12.946367
57.065 13.416759
57.070 13.697535
57.075 13.342001
57.080 12.867713
57.085 12.227938
57.090 11.689122
57.095 11.229966
57.100 10.72193
57.105 10.568044
57.110 11.675041
57.115 12.048095
57.120 11.90929
57.125 11.526621
57.130 11.64221
57.135 12.126923
57.140 12.065851
57.145 11.484262
57.150 12.242296
57.155 12.507658
57.160 12.696249
57.165 13.076746
57.170 13.012179
57.175 12.848347
57.180 12.706217
57.185 12.41166
57.190 12.591831
57.195 12.268401
57.200 12.122574
57.205 12.272355
57.210 13.278634
57.215 13.686483
57.220 13.475272
57.225 13.734965
57.230 13.906242
57.235 13.767531
57.240 13.302252
57.245 12.482857
57.250 12.43325
57.255 12.861289
57.260 12.619987
57.265 12.193635
57.270 12.293194
57.275 12.712582
57.280 12.700869
57.285 12.946737
57.290 12.841657
57.295 12.838313
57.300 13.087967
57.305 13.46354
57.310 13.407736
57.315 13.781698
57.320 14.047997
57.325 13.840281
57.330 14.084653
57.335 14.188353
57.340 13.270635
57.345 12.936278
57.350 12.260479
57.355 11.817906
57.360 12.714374
57.365 12.76925
57.370 12.913798
57.375 13.188005
57.380 13.5741
57.385 13.838124
57.390 13.706372
57.395 13.376477
57.400 13.658953
57.405 13.355786
57.410 13.318754
57.415 13.188654
57.420 13.309228
57.425 13.231034
57.430 13.02647
57.435 12.848735
57.440 13.620306
57.445 14.239099
57.450 14.062495
57.455 14.245325
57.460 14.084891
57.465 13.840384
57.470 13.518264
57.475 13.293149
57.480 12.929364
57.485 12.968225
57.490 12.889865
57.495 12.714938
57.500 12.688408
57.505 13.078806
57.510 12.71243
57.515 12.668205
57.520 12.91068
57.525 12.761374
57.530 13.437838
57.535 13.897513
57.540 13.432511
57.545 13.989348
57.550 14.365769
57.555 14.609189
57.560 14.814569
57.565 14.241619
57.570 14.138835
57.575 14.419962
57.580 14.413431
57.585 14.323942
57.590 14.177547
57.595 14.273804
57.600 14.28805
57.605 14.001798
57.610 13.49707
57.615 13.648726
57.620 13.96122
57.625 13.401058
57.630 13.351125
57.635 13.669613
57.640 13.878726
57.645 13.892748
57.650 13.681834
57.655 13.673485
57.660 13.996171
57.665 14.03981
57.670 13.464286
57.675 13.581101
57.680 13.710949
57.685 13.433619
57.690 13.424783
57.695 13.420748
57.700 13.73169
57.705 13.885933
57.710 13.843312
57.715 14.269699
57.720 14.286163
57.725 13.979553
57.730 13.860946
57.735 13.67041
57.740 13.995799
57.745 13.91299
57.750 13.72247
57.755 13.658109
57.760 14.103033
57.765 14.244529
57.770 14.318446
57.775 14.236897
57.780 13.953395
57.785 13.787789
57.790 13.71134
57.795 13.342048
57.800 12.953431
57.805 12.520199
57.810 12.918524
57.815 13.368505
57.820 14.042201
57.825 14.425146
57.830 14.541993
57.835 14.531375
57.840 15.050987
57.845 14.901936
57.850 14.927036
57.855 14.498899
57.860 14.51001
57.865 14.951281
57.870 15.535853
57.875 15.44353
57.880 15.667805
57.885 15.397144
57.890 15.29955
57.895 15.059223
57.900 15.009057
57.905 15.124586
57.910 14.984784
57.915 14.696972
57.920 14.581749
57.925 14.721986
57.930 14.761515
57.935 15.043414
57.940 14.676194
57.945 14.306423
57.950 14.236557
57.955 14.077694
57.960 13.979161
57.965 13.757902
57.970 14.11153
57.975 14.361222
57.980 14.973965
57.985 15.440077
57.990 15.488664
57.995 16.015743
58.000 16.720806
58.005 15.782415
58.010 15.937439
58.015 15.858801
58.020 15.655526
58.025 15.587043
58.030 15.442211
58.035 15.350215
58.040 15.557685
58.045 15.02033
58.050 15.160698
58.055 15.376142
58.060 15.248128
58.065 15.092456
58.070 15.047054
58.075 15.026922
58.080 14.818185
58.085 14.577597
58.090 15.011758
58.095 15.185449
58.100 14.425797
58.105 14.342617
58.110 14.715726
58.115 15.215785
58.120 15.868608
58.125 15.332483
58.130 15.481038
58.135 15.727983
58.140 15.842287
58.145 15.710401
58.150 15.425279
58.155 14.934433
58.160 14.65145
58.165 14.503125
58.170 15.098129
58.175 15.628473
58.180 15.514628
58.185 15.17058
58.190 15.016065
58.195 15.102399
58.200 15.080606
58.205 14.632229
58.210 14.353061
58.215 15.176393
58.220 15.666977
58.225 16.344536
58.230 17.144974
58.235 17.730867
58.240 17.849981
58.245 17.971706
58.250 17.586216
58.255 17.932165
58.260 17.7665
58.265 17.347656
58.270 17.263021
58.275 17.233093
58.280 17.245867
58.285 16.986132
58.290 16.994385
58.295 16.943861
58.300 17.32811
58.305 17.487597
58.310 17.216959
58.315 17.226341
58.320 17.988676
58.325 18.174335
58.330 17.997368
58.335 18.089941
58.340 18.296774
58.345 18.849087
58.350 19.009899
58.355 19.168941
58.360 19.019419
58.365 19.394958
58.370 19.56671
58.375 20.050768
58.380 19.878162
58.385 20.069818
58.390 20.493803
58.395 20.365395
58.400 20.374226
58.405 20.574305
58.410 20.542643
58.415 20.529444
58.420 21.206734
58.425 20.773378
58.430 21.193964
58.435 21.551201
58.440 21.245533
58.445 21.187386
58.450 21.328041
58.455 21.660076
58.460 22.55817
58.465 23.188265
58.470 23.104397
58.475 23.36927
58.480 23.813469
58.485 24.259203
58.490 24.317026
58.495 25.097898
58.500 24.754557
58.505 25.22238
58.510 25.795225
58.515 26.072725
58.520 26.359848
58.525 26.087767
58.530 25.96192
58.535 27.36516
58.540 27.618303
58.545 27.299845
