!@!!GADDS PLOTSO FILE: Chi integration type
!@!!Title/SampleName: map-72
!@!!Comment: ?
!@!!User: Bruker Instrument Administrator
!@!!Site: University of Illinois Chicago
!@!!Frame: map-72_01_000.gfrm
!@!!Wavelengths    1.54184   1.54056   1.54439
!@!!Frame angles: 2Theta: 63.000 Omega: 50.000 Phi: 0.000 Chi: 90.000
!@!!Integration range: 2Theta: 53.000 to 73.000  Gamma: -105.000 to -75.000
!@!!Integration method: bin normalized
!@!N
!@!SS
!@!M
!@!L 0.0 0.0 0.0 0.0
!@!XDegrees
!@!YCounts
53.000 9.191933
53.005 9.870333
53.010 10.626828
53.015 10.783005
53.020 10.427575
53.025 10.390701
53.030 10.750601
53.035 10.548063
53.040 9.943671
53.045 9.61992
53.050 9.952781
53.055 10.487912
53.060 10.929425
53.065 10.442116
53.070 10.291897
53.075 10.292488
53.080 10.331052
53.085 10.124693
53.090 10.070392
53.095 9.620765
53.100 10.248362
53.105 10.897427
53.110 10.837378
53.115 10.516269
53.120 10.499642
53.125 10.572898
53.130 10.454425
53.135 9.944669
53.140 9.518927
53.145 9.48332
53.150 9.3803
53.155 8.873764
53.160 8.488626
53.165 8.682799
53.170 8.607768
53.175 8.841758
53.180 9.32266
53.185 9.426896
53.190 9.587219
53.195 9.966228
53.200 10.169213
53.205 10.039373
53.210 10.128947
53.215 9.997796
53.220 10.932543
53.225 11.254688
53.230 11.193547
53.235 11.32404
53.240 11.500246
53.245 11.750149
53.250 11.506493
53.255 11.582331
53.260 11.318706
53.265 11.29543
53.270 11.443395
53.275 11.690425
53.280 11.730388
53.285 11.012417
53.290 10.653091
53.295 10.42333
53.300 10.168865
53.305 9.767537
53.310 9.342186
53.315 9.095825
53.320 9.271075
53.325 9.555098
53.330 9.691504
53.335 9.294923
53.340 9.106268
53.345 9.210911
53.350 9.461922
53.355 9.708473
53.360 9.902013
53.365 10.418565
53.370 10.686421
53.375 11.139127
53.380 11.429263
53.385 11.063487
53.390 10.970183
53.395 10.955439
53.400 11.104576
53.405 10.999096
53.410 11.065964
53.415 11.158113
53.420 11.241623
53.425 11.105854
53.430 10.921559
53.435 11.205072
53.440 11.415949
53.445 11.205462
53.450 11.113742
53.455 11.515018
53.460 11.962408
53.465 11.766586
53.470 11.465412
53.475 11.432356
53.480 11.372678
53.485 11.48831
53.490 10.735084
53.495 10.446589
53.500 10.47282
53.505 10.441237
53.510 10.317722
53.515 10.69897
53.520 10.839249
53.525 11.083892
53.530 10.917478
53.535 11.123565
53.540 10.949179
53.545 11.039789
53.550 10.567676
53.555 10.54879
53.560 10.474889
53.565 10.68833
53.570 11.033175
53.575 11.088695
53.580 10.950339
53.585 10.930565
53.590 10.840837
53.595 10.773335
53.600 10.340378
53.605 9.797373
53.610 9.561331
53.615 9.650807
53.620 9.426801
53.625 9.359138
53.630 9.395586
53.635 10.117025
53.640 10.435143
53.645 10.552093
53.650 10.541816
53.655 10.816156
53.660 11.104362
53.665 11.00145
53.670 10.629939
53.675 10.601738
53.680 10.803406
53.685 11.62156
53.690 12.002795
53.695 12.16327
53.700 12.212481
53.705 12.156303
53.710 12.322312
53.715 11.809821
53.720 10.90659
53.725 10.27564
53.730 10.162373
53.735 10.506019
53.740 10.818402
53.745 10.876892
53.750 10.825048
53.755 11.261422
53.760 11.643387
53.765 11.204543
53.770 11.15204
53.775 10.92002
53.780 11.148664
53.785 11.288692
53.790 10.568111
53.795 10.389687
53.800 10.905197
53.805 10.464662
53.810 10.212911
53.815 10.312044
53.820 10.928352
53.825 11.855413
53.830 11.664968
53.835 10.913238
53.840 11.084164
53.845 10.991583
53.850 10.510064
53.855 9.956232
53.860 9.620227
53.865 9.747236
53.870 9.812864
53.875 9.343001
53.880 9.026463
53.885 9.044807
53.890 8.718659
53.895 8.397084
53.900 8.433445
53.905 8.421275
53.910 8.51683
53.915 8.830934
53.920 9.154858
53.925 9.779272
53.930 10.638312
53.935 11.16884
53.940 11.723177
53.945 12.156613
53.950 12.0411
53.955 11.756053
53.960 11.728561
53.965 11.445046
53.970 10.802835
53.975 10.585335
53.980 10.547892
53.985 10.804899
53.990 10.670256
53.995 10.886802
54.000 11.395375
54.005 11.585065
54.010 11.413219
54.015 11.374772
54.020 11.082198
54.025 11.115372
54.030 10.931984
54.035 10.663341
54.040 10.694399
54.045 10.73525
54.050 10.912018
54.055 11.209658
54.060 10.689938
54.065 9.673046
54.070 9.529171
54.075 9.482278
54.080 9.58236
54.085 9.999968
54.090 9.886518
54.095 10.576018
54.100 11.499661
54.105 11.914097
54.110 12.650403
54.115 12.394156
54.120 12.045124
54.125 11.951891
54.130 11.927267
54.135 11.757833
54.140 10.936996
54.145 10.428765
54.150 10.69915
54.155 10.646795
54.160 10.897182
54.165 10.3206
54.170 10.612056
54.175 10.775493
54.180 11.063069
54.185 11.398196
54.190 11.499722
54.195 11.063125
54.200 11.336962
54.205 11.568421
54.210 11.671616
54.215 11.473656
54.220 11.813357
54.225 12.005196
54.230 12.509679
54.235 12.643971
54.240 12.341296
54.245 12.174159
54.250 12.127886
54.255 11.554767
54.260 11.165769
54.265 10.895627
54.270 10.975198
54.275 10.935239
54.280 11.073099
54.285 10.945986
54.290 11.416714
54.295 11.747005
54.300 11.49957
54.305 11.349031
54.310 11.612779
54.315 11.852526
54.320 11.845267
54.325 11.103056
54.330 10.892606
54.335 10.933183
54.340 11.139749
54.345 11.262289
54.350 11.069722
54.355 11.014737
54.360 11.394521
54.365 11.968311
54.370 12.014751
54.375 11.535749
54.380 11.343998
54.385 11.262485
54.390 11.434923
54.395 11.288404
54.400 10.999946
54.405 10.928453
54.410 10.772238
54.415 10.612159
54.420 10.534406
54.425 10.487522
54.430 10.633431
54.435 11.063189
54.440 11.23593
54.445 11.523549
54.450 11.672161
54.455 11.553825
54.460 11.588213
54.465 11.239404
54.470 11.094675
54.475 10.990164
54.480 10.625126
54.485 10.461658
54.490 10.704677
54.495 10.777311
54.500 10.725937
54.505 10.146368
54.510 10.055215
54.515 10.369552
54.520 10.438924
54.525 10.269257
54.530 10.4665
54.535 11.042576
54.540 11.711269
54.545 11.837101
54.550 11.886145
54.555 12.014365
54.560 12.410712
54.565 12.049142
54.570 12.030754
54.575 11.884581
54.580 12.145037
54.585 12.371702
54.590 12.110823
54.595 11.93869
54.600 12.062681
54.605 12.246866
54.610 11.941486
54.615 11.354516
54.620 11.090724
54.625 11.709835
54.630 11.564721
54.635 11.136701
54.640 10.605719
54.645 10.544205
54.650 10.931338
54.655 10.649694
54.660 10.432859
54.665 10.886158
54.670 11.347617
54.675 11.979684
54.680 12.123912
54.685 12.198698
54.690 12.394403
54.695 11.913054
54.700 11.823891
54.705 11.249656
54.710 10.992766
54.715 11.352179
54.720 11.604102
54.725 11.477298
54.730 11.355634
54.735 10.968391
54.740 10.968099
54.745 11.151028
54.750 10.637106
54.755 10.523083
54.760 10.901908
54.765 11.036536
54.770 11.058542
54.775 11.19866
54.780 11.495297
54.785 11.234562
54.790 10.823199
54.795 10.775953
54.800 10.716841
54.805 10.90973
54.810 10.932363
54.815 10.821948
54.820 10.861073
54.825 11.14722
54.830 11.310802
54.835 11.874434
54.840 11.973812
54.845 11.909218
54.850 11.873162
54.855 12.243132
54.860 11.94114
54.865 11.645096
54.870 11.123248
54.875 11.202145
54.880 11.810153
54.885 11.882375
54.890 11.867928
54.895 12.184979
54.900 12.325036
54.905 12.486643
54.910 12.268847
54.915 11.621565
54.920 11.637592
54.925 12.034043
54.930 12.416908
54.935 12.406513
54.940 12.306328
54.945 12.566635
54.950 12.90485
54.955 12.519984
54.960 11.948862
54.965 11.834157
54.970 12.042214
54.975 11.782858
54.980 11.052312
54.985 10.752407
54.990 10.930678
54.995 11.093862
55.000 11.112375
55.005 11.160784
55.010 11.355433
55.015 12.443775
55.020 12.829471
55.025 12.745229
55.030 11.907275
55.035 11.901114
55.040 12.156659
55.045 12.176849
55.050 12.521388
55.055 12.718083
55.060 12.790765
55.065 13.158876
55.070 12.872822
55.075 12.848985
55.080 12.964725
55.085 12.446173
55.090 12.449159
55.095 12.563643
55.100 12.557637
55.105 12.651958
55.110 12.764182
55.115 12.61916
55.120 12.051562
55.125 11.818241
55.130 11.895277
55.135 11.654655
55.140 11.376017
55.145 11.129733
55.150 11.021299
55.155 11.649259
55.160 11.853092
55.165 11.853316
55.170 12.268819
55.175 12.306445
55.180 11.913089
55.185 11.692148
55.190 11.293708
55.195 11.187958
55.200 11.116045
55.205 10.963482
55.210 11.377316
55.215 11.966656
55.220 11.91343
55.225 11.33293
55.230 10.854988
55.235 10.949921
55.240 10.75811
55.245 10.432931
55.250 10.127366
55.255 10.721518
55.260 11.366965
55.265 11.661
55.270 11.800004
55.275 12.082118
55.280 12.586307
55.285 12.546445
55.290 12.532439
55.295 12.120073
55.300 12.166499
55.305 12.297085
55.310 11.887386
55.315 11.669759
55.320 11.916403
55.325 11.874596
55.330 12.309457
55.335 12.447959
55.340 12.840949
55.345 12.707219
55.350 12.549668
55.355 12.238559
55.360 12.279249
55.365 11.896017
55.370 11.551376
55.375 11.385899
55.380 11.77948
55.385 11.861892
55.390 11.696484
55.395 11.848931
55.400 11.534061
55.405 11.209111
55.410 10.808874
55.415 10.521646
55.420 10.732235
55.425 11.173173
55.430 11.152481
55.435 11.367311
55.440 11.854884
55.445 12.148804
55.450 11.726686
55.455 11.248266
55.460 11.025395
55.465 11.274749
55.470 11.570481
55.475 11.686056
55.480 11.395923
55.485 11.432749
55.490 11.871517
55.495 12.007889
55.500 12.019635
55.505 11.964454
55.510 11.693933
55.515 12.204669
55.520 12.369201
55.525 12.366035
55.530 11.91761
55.535 11.758078
55.540 12.016372
55.545 11.981908
55.550 12.104482
55.555 12.682163
55.560 12.55878
55.565 13.64067
55.570 13.511011
55.575 13.470664
55.580 13.453174
55.585 13.519925
55.590 13.587712
55.595 13.480093
55.600 13.303344
55.605 12.925838
55.610 12.53171
55.615 12.703358
55.620 12.428569
55.625 11.901154
55.630 12.133691
55.635 12.059972
55.640 12.168534
55.645 12.085583
55.650 12.379995
55.655 12.505277
55.660 12.546268
55.665 12.620418
55.670 12.548219
55.675 12.951911
55.680 13.215938
55.685 13.10993
55.690 13.522321
55.695 13.512104
55.700 13.083385
55.705 13.390036
55.710 13.640294
55.715 13.686721
55.720 13.958321
55.725 13.696258
55.730 13.246428
55.735 13.44519
55.740 13.339344
55.745 12.815252
55.750 12.392366
55.755 11.609236
55.760 11.572328
55.765 12.116147
55.770 12.064482
55.775 11.572248
55.780 11.76471
55.785 12.196072
55.790 12.142611
55.795 12.136936
55.800 12.062446
55.805 11.996909
55.810 12.562464
55.815 12.580241
55.820 12.396271
55.825 12.602975
55.830 12.855643
55.835 13.128908
55.840 13.337538
55.845 13.158195
55.850 13.088347
55.855 13.442919
55.860 13.38349
55.865 13.025475
55.870 12.686862
55.875 12.806899
55.880 12.691561
55.885 12.615603
55.890 13.106741
55.895 13.161273
55.900 12.828957
55.905 12.566649
55.910 13.140015
55.915 13.332718
55.920 13.375355
55.925 12.956989
55.930 13.295004
55.935 13.41739
55.940 13.204561
55.945 12.835154
55.950 12.672043
55.955 12.939203
55.960 13.237442
55.965 13.199751
55.970 13.665071
55.975 13.828337
55.980 14.436823
55.985 14.723605
55.990 14.070877
55.995 13.572924
56.000 13.681885
56.005 13.442679
56.010 12.791704
56.015 12.003009
56.020 11.944075
56.025 11.887578
56.030 11.434694
56.035 11.654199
56.040 11.715551
56.045 12.222344
56.050 12.416877
56.055 12.707148
56.060 12.983883
56.065 13.649667
56.070 13.467627
56.075 13.587021
56.080 13.290297
56.085 12.955463
56.090 12.677353
56.095 12.792356
56.100 12.585602
56.105 12.093302
56.110 12.206669
56.115 12.475031
56.120 12.776155
56.125 13.004279
56.130 12.797722
56.135 12.53339
56.140 13.116657
56.145 12.84286
56.150 12.749882
56.155 13.392216
56.160 13.74623
56.165 13.657039
56.170 13.667901
56.175 13.387827
56.180 13.666804
56.185 13.640797
56.190 13.039613
56.195 12.769765
56.200 13.099545
56.205 12.808722
56.210 13.036603
56.215 13.160501
56.220 13.347517
56.225 13.170953
56.230 13.364176
56.235 13.756239
56.240 13.714279
56.245 13.682968
56.250 13.381057
56.255 13.579143
56.260 13.550486
56.265 13.262984
56.270 13.090396
56.275 13.177598
56.280 12.970115
56.285 13.090141
56.290 12.785945
56.295 13.040575
56.300 13.229851
56.305 13.40875
56.310 13.608407
56.315 13.929399
56.320 14.297876
56.325 14.192751
56.330 13.891879
56.335 14.028901
56.340 13.755219
56.345 13.452397
56.350 12.836411
56.355 12.42596
56.360 12.165493
56.365 12.156191
56.370 12.064499
56.375 12.085632
56.380 12.264799
56.385 12.625941
56.390 13.211597
56.395 14.001506
56.400 14.189456
56.405 14.361221
56.410 14.542501
56.415 14.524523
56.420 14.924922
56.425 14.819661
56.430 14.649287
56.435 14.406906
56.440 14.046618
56.445 13.929339
56.450 13.933073
56.455 13.553465
56.460 13.02075
56.465 12.913992
56.470 13.019732
56.475 13.208652
56.480 13.079624
56.485 12.832558
56.490 13.01899
56.495 13.533643
56.500 13.691961
56.505 13.844447
56.510 14.275791
56.515 14.712027
56.520 15.020712
56.525 14.3194
56.530 14.266317
56.535 13.9136
56.540 13.39927
56.545 12.977786
56.550 12.464128
56.555 12.367088
56.560 12.593966
56.565 12.843451
56.570 13.233242
56.575 13.249871
56.580 13.179461
56.585 13.514014
56.590 13.592967
56.595 13.692916
56.600 13.152901
56.605 13.029581
56.610 13.275041
56.615 13.357255
56.620 13.483091
56.625 13.612656
56.630 13.662282
56.635 13.677556
56.640 13.915572
56.645 13.909357
56.650 13.693145
56.655 13.261456
56.660 13.479372
56.665 13.166256
56.670 13.671691
56.675 13.810268
56.680 13.911971
56.685 14.010612
56.690 14.369493
56.695 14.251267
56.700 14.453174
56.705 14.144152
56.710 14.235342
56.715 14.669161
56.720 14.742561
56.725 14.877442
56.730 15.060493
56.735 15.076026
56.740 15.595361
56.745 15.627318
56.750 15.497827
56.755 15.466269
56.760 15.13623
56.765 14.805183
56.770 14.529088
56.775 13.683687
56.780 13.330012
56.785 13.358348
56.790 13.398797
56.795 13.545316
56.800 13.664152
56.805 14.06771
56.810 14.863068
56.815 15.115541
56.820 15.146951
56.825 15.050467
56.830 15.096415
56.835 15.315084
56.840 15.123368
56.845 14.56145
56.850 14.417283
56.855 14.698885
56.860 14.543322
56.865 14.708138
56.870 14.99049
56.875 14.850636
56.880 14.800843
56.885 14.29032
56.890 13.709692
56.895 14.025691
56.900 13.357459
56.905 13.072341
56.910 12.746564
56.915 13.07197
56.920 13.940096
56.925 14.453963
56.930 14.463074
56.935 14.79371
56.940 14.504309
56.945 14.566565
56.950 14.278344
56.955 13.620108
56.960 13.335898
56.965 12.880787
56.970 12.96625
56.975 13.815698
56.980 14.253531
56.985 14.714455
56.990 14.75553
56.995 14.591284
57.000 14.814474
57.005 15.426941
57.010 15.550261
57.015 15.881322
57.020 15.646497
57.025 15.997028
57.030 15.977034
57.035 15.517812
57.040 15.239864
57.045 14.644578
57.050 14.117601
57.055 14.257765
57.060 14.240229
57.065 14.80051
57.070 14.877933
57.075 14.36943
57.080 14.136515
57.085 13.873602
57.090 13.840185
57.095 13.787271
57.100 13.541553
57.105 13.597201
57.110 13.135229
57.115 13.045823
57.120 13.178378
57.125 13.208896
57.130 13.133045
57.135 13.175818
57.140 13.331977
57.145 14.288855
57.150 15.285946
57.155 15.256586
57.160 15.208285
57.165 15.08163
57.170 14.992293
57.175 15.169281
57.180 14.870018
57.185 14.549667
57.190 14.71823
57.195 14.487312
57.200 14.774928
57.205 14.713083
57.210 14.301389
57.215 14.301135
57.220 14.487244
57.225 14.307446
57.230 14.084106
57.235 14.856882
57.240 15.283035
57.245 15.818866
57.250 15.700924
57.255 15.258058
57.260 15.235385
57.265 15.950866
57.270 15.273847
57.275 14.705707
57.280 14.462509
57.285 14.488137
57.290 14.719048
57.295 15.433747
57.300 14.672293
57.305 14.127095
57.310 14.934892
57.315 15.061386
57.320 15.673887
57.325 15.882558
57.330 15.49058
57.335 15.791318
57.340 16.228481
57.345 15.735108
57.350 14.941786
57.355 14.749591
57.360 14.278029
57.365 13.828016
57.370 13.924258
57.375 14.614259
57.380 14.506674
57.385 14.724826
57.390 14.462404
57.395 14.546665
57.400 15.326223
57.405 15.240558
57.410 14.656493
57.415 14.836123
57.420 15.171341
57.425 15.237811
57.430 15.168632
57.435 14.735023
57.440 14.439949
57.445 14.645135
57.450 14.332076
57.455 14.117014
57.460 14.242048
57.465 14.428336
57.470 14.59636
57.475 14.622408
57.480 14.433268
57.485 14.897847
57.490 15.465978
57.495 15.585477
57.500 15.268636
57.505 15.26376
57.510 15.504389
57.515 15.481041
57.520 15.53321
57.525 15.625883
57.530 15.689882
57.535 16.505493
57.540 16.808844
57.545 16.681499
57.550 16.447088
57.555 16.202925
57.560 15.485868
57.565 15.176051
57.570 15.480883
57.575 15.653542
57.580 15.932404
57.585 16.397081
57.590 16.830853
57.595 16.960976
57.600 16.65868
57.605 15.664427
57.610 15.152412
57.615 15.133548
57.620 14.963396
57.625 14.789275
57.630 15.294481
57.635 15.638102
57.640 16.118103
57.645 15.905636
57.650 15.983216
57.655 16.185316
57.660 16.311829
57.665 16.028713
57.670 15.511646
57.675 15.348408
57.680 15.833193
57.685 16.344875
57.690 16.386063
57.695 17.002136
57.700 17.194502
57.705 17.472305
57.710 17.268988
57.715 17.075985
57.720 16.216402
57.725 16.149593
57.730 16.011395
57.735 16.936609
57.740 17.38077
57.745 17.299019
57.750 17.276213
57.755 17.348579
57.760 16.979658
57.765 16.307495
57.770 15.434587
57.775 15.692455
57.780 15.862618
57.785 16.479479
57.790 16.546322
57.795 16.427238
57.800 16.023996
57.805 15.878283
57.810 15.717452
57.815 16.235794
57.820 16.0779
57.825 16.131958
57.830 16.42889
57.835 17.17078
57.840 17.650856
57.845 17.810799
57.850 17.447489
57.855 17.457176
57.860 17.644495
57.865 17.98247
57.870 18.039545
57.875 17.705906
57.880 17.425205
57.885 17.157301
57.890 16.931786
57.895 16.676487
57.900 16.765024
57.905 16.481134
57.910 16.357838
57.915 16.615376
57.920 16.565863
57.925 16.168184
57.930 16.189873
57.935 15.963546
57.940 16.303135
57.945 16.610411
57.950 16.702658
57.955 16.928684
57.960 17.160984
57.965 17.484589
57.970 17.055273
57.975 16.591421
57.980 16.54925
57.985 16.761248
57.990 17.35853
57.995 17.42593
58.000 17.056429
58.005 17.310316
58.010 17.234398
58.015 17.298761
58.020 16.48971
58.025 16.089972
58.030 16.433037
58.035 16.370579
58.040 16.634119
58.045 17.652351
58.050 18.248156
58.055 19.279221
58.060 19.386415
58.065 19.13221
58.070 19.224764
58.075 19.001869
58.080 18.750679
58.085 18.264589
58.090 17.38039
58.095 17.271627
58.100 17.317831
58.105 17.425306
58.110 17.361071
58.115 17.393961
58.120 17.660431
58.125 17.648149
58.130 17.647579
58.135 17.618382
58.140 17.591124
58.145 17.761946
58.150 17.095646
58.155 17.473637
58.160 18.001692
58.165 18.323675
58.170 19.279696
58.175 19.817556
58.180 19.938526
58.185 19.212448
58.190 18.765652
58.195 18.962847
58.200 18.816799
58.205 18.595255
58.210 18.516695
58.215 18.382254
58.220 19.217531
58.225 19.514439
58.230 19.313932
58.235 19.166971
58.240 19.059446
58.245 18.887018
58.250 18.854181
58.255 19.20685
58.260 19.206512
58.265 19.077362
58.270 18.645678
58.275 18.677824
58.280 19.136347
58.285 18.884277
58.290 18.134035
58.295 18.111593
58.300 18.519964
58.305 18.8631
58.310 18.588001
58.315 18.226133
58.320 18.566463
58.325 19.249346
58.330 19.334669
58.335 19.462456
58.340 19.657356
58.345 19.811537
58.350 20.663332
58.355 21.078201
58.360 21.437757
58.365 21.952005
58.370 22.551693
58.375 22.976204
58.380 23.295153
58.385 23.193615
58.390 23.596449
58.395 23.838436
58.400 23.839134
58.405 24.183674
58.410 24.550592
58.415 24.938457
58.420 25.61166
58.425 25.322248
58.430 25.094873
58.435 25.035852
58.440 25.556351
58.445 25.828554
58.450 25.86832
