!@!!GADDS PLOTSO FILE: Chi integration type
!@!!Title/SampleName: map-a8
!@!!Comment: ?
!@!!User: Bruker Instrument Administrator
!@!!Site: University of Illinois Chicago
!@!!Frame: map-a8_01_000.gfrm
!@!!Wavelengths    1.54184   1.54056   1.54439
!@!!Frame angles: 2Theta: 63.000 Omega: 50.000 Phi: 0.000 Chi: 90.000
!@!!Integration range: 2Theta: 53.000 to 73.000  Gamma: -105.000 to -75.000
!@!!Integration method: bin normalized
!@!N
!@!SS
!@!M
!@!L 0.0 0.0 0.0 0.0
!@!XDegrees
!@!YCounts
53.000 9.679026
53.005 9.736651
53.010 9.956639
53.015 10.300847
53.020 11.213408
53.025 11.621582
53.030 11.782308
53.035 12.165742
53.040 12.343043
53.045 12.56675
53.050 12.126608
53.055 11.429345
53.060 10.571812
53.065 10.045838
53.070 9.845367
53.075 9.69696
53.080 10.094428
53.085 10.276787
53.090 10.497877
53.095 10.60436
53.100 10.502093
53.105 10.50999
53.110 10.157715
53.115 9.158051
53.120 8.942718
53.125 8.860881
53.130 9.092904
53.135 8.965784
53.140 8.907274
53.145 9.303904
53.150 9.987385
53.155 10.169157
53.160 10.146854
53.165 10.354412
53.170 10.620661
53.175 10.991947
53.180 11.242444
53.185 11.528314
53.190 11.852971
53.195 11.833551
53.200 11.665015
53.205 11.719419
53.210 11.607078
53.215 11.153818
53.220 10.936712
53.225 10.74183
53.230 10.817012
53.235 11.018984
53.240 10.81336
53.245 10.712679
53.250 10.558326
53.255 10.495123
53.260 10.439693
53.265 10.141007
53.270 10.163011
53.275 10.272579
53.280 9.908175
53.285 10.032325
53.290 9.800539
53.295 10.272453
53.300 10.435559
53.305 10.032488
53.310 10.037302
53.315 10.195626
53.320 10.213709
53.325 10.413826
53.330 10.695504
53.335 10.941931
53.340 11.362441
53.345 11.607833
53.350 11.753766
53.355 11.470319
53.360 11.269383
53.365 11.180918
53.370 10.448406
53.375 10.255219
53.380 10.197952
53.385 10.203118
53.390 10.883924
53.395 10.944679
53.400 10.843943
53.405 11.269339
53.410 11.048965
53.415 10.900128
53.420 10.960502
53.425 10.710365
53.430 10.854569
53.435 10.818056
53.440 10.761582
53.445 11.471434
53.450 11.747079
53.455 11.377478
53.460 11.008731
53.465 10.696331
53.470 10.507983
53.475 10.26057
53.480 10.001147
53.485 9.748783
53.490 9.860094
53.495 10.56085
53.500 10.291716
53.505 10.632078
53.510 10.722848
53.515 10.395658
53.520 10.866015
53.525 10.891885
53.530 10.925637
53.535 11.845694
53.540 12.196208
53.545 12.087075
53.550 12.393434
53.555 12.525802
53.560 12.366033
53.565 12.075747
53.570 11.630542
53.575 11.806328
53.580 12.129806
53.585 11.926531
53.590 11.82533
53.595 11.709161
53.600 11.430924
53.605 10.93092
53.610 10.311901
53.615 9.888945
53.620 10.201327
53.625 10.168873
53.630 10.446625
53.635 11.090543
53.640 11.643728
53.645 12.139948
53.650 12.089017
53.655 11.994444
53.660 12.182597
53.665 11.656081
53.670 10.820179
53.675 10.503137
53.680 10.503462
53.685 11.267562
53.690 11.326838
53.695 11.03126
53.700 11.504307
53.705 11.462431
53.710 11.315614
53.715 10.996942
53.720 10.589398
53.725 10.694814
53.730 10.952343
53.735 11.339059
53.740 11.631631
53.745 11.452562
53.750 11.406428
53.755 11.517217
53.760 11.758282
53.765 11.472482
53.770 11.398542
53.775 11.26741
53.780 11.426577
53.785 11.618806
53.790 11.259213
53.795 10.669816
53.800 10.821579
53.805 10.903319
53.810 11.638197
53.815 11.974822
53.820 12.109207
53.825 12.659187
53.830 13.270107
53.835 13.344139
53.840 13.106607
53.845 12.112183
53.850 11.863356
53.855 11.593378
53.860 11.204876
53.865 11.276913
53.870 11.153917
53.875 11.485789
53.880 11.706537
53.885 11.959637
53.890 11.785998
53.895 11.45729
53.900 10.964874
53.905 11.04803
53.910 10.770543
53.915 10.460867
53.920 9.995768
53.925 10.218109
53.930 10.523881
53.935 10.775123
53.940 10.515918
53.945 10.759506
53.950 10.891292
53.955 11.019833
53.960 11.549303
53.965 11.706825
53.970 11.849911
53.975 12.101129
53.980 12.351838
53.985 12.898804
53.990 13.064102
53.995 12.908969
54.000 13.009431
54.005 13.059161
54.010 12.983893
54.015 12.905456
54.020 13.287719
54.025 13.086556
54.030 13.036685
54.035 13.199313
54.040 13.010746
54.045 13.023471
54.050 12.663631
54.055 11.913907
54.060 11.935919
54.065 11.837092
54.070 11.331325
54.075 11.205893
54.080 11.181946
54.085 11.896362
54.090 12.133366
54.095 12.300409
54.100 12.526559
54.105 12.702591
54.110 12.914329
54.115 12.916945
54.120 12.451066
54.125 12.188976
54.130 11.370876
54.135 11.098807
54.140 10.965529
54.145 11.501367
54.150 11.706426
54.155 11.819389
54.160 11.858758
54.165 12.3208
54.170 12.451662
54.175 12.348701
54.180 11.567089
54.185 11.18171
54.190 11.335306
54.195 11.891312
54.200 12.276045
54.205 12.196154
54.210 12.156899
54.215 12.373919
54.220 12.762608
54.225 12.803205
54.230 12.214069
54.235 12.055584
54.240 12.172689
54.245 12.079174
54.250 12.114474
54.255 12.018966
54.260 11.826032
54.265 11.692153
54.270 12.01628
54.275 12.497375
54.280 13.187822
54.285 13.275554
54.290 13.05653
54.295 13.328294
54.300 13.97611
54.305 13.89634
54.310 13.598738
54.315 13.284454
54.320 13.027998
54.325 12.880125
54.330 12.611251
54.335 11.919292
54.340 11.748474
54.345 11.293098
54.350 11.068778
54.355 11.503773
54.360 11.542459
54.365 11.846601
54.370 12.260704
54.375 12.314769
54.380 12.712006
54.385 12.398014
54.390 12.290683
54.395 12.235759
54.400 12.019434
54.405 12.114824
54.410 12.311631
54.415 12.326324
54.420 12.586524
54.425 12.208009
54.430 11.893893
54.435 11.623695
54.440 11.528962
54.445 11.240314
54.450 10.762341
54.455 10.892661
54.460 11.276865
54.465 12.114974
54.470 12.225916
54.475 11.832427
54.480 11.458921
54.485 11.340049
54.490 11.092143
54.495 10.593844
54.500 9.837996
54.505 9.724898
54.510 9.939159
54.515 10.386097
54.520 10.5635
54.525 10.684167
54.530 10.854308
54.535 11.002719
54.540 11.490595
54.545 11.979907
54.550 11.946527
54.555 12.137488
54.560 12.172433
54.565 12.160411
54.570 12.232487
54.575 11.957101
54.580 12.048502
54.585 12.317718
54.590 12.29805
54.595 12.432072
54.600 12.576971
54.605 12.896073
54.610 12.480026
54.615 11.937822
54.620 11.589734
54.625 11.391001
54.630 11.646182
54.635 11.820262
54.640 11.302371
54.645 11.19511
54.650 11.310576
54.655 11.748296
54.660 12.558631
54.665 12.434171
54.670 12.374767
54.675 12.512702
54.680 12.746827
54.685 12.366237
54.690 12.543387
54.695 12.687586
54.700 12.339947
54.705 12.140407
54.710 12.772373
54.715 13.145524
54.720 13.360788
54.725 12.211117
54.730 11.615545
54.735 11.71548
54.740 12.284001
54.745 11.69114
54.750 11.704353
54.755 12.191623
54.760 12.592557
54.765 12.854071
54.770 13.450333
54.775 13.41608
54.780 13.131507
54.785 13.24896
54.790 13.026847
54.795 12.891349
54.800 13.109137
54.805 12.649956
54.810 12.382637
54.815 12.209189
54.820 11.698367
54.825 11.504492
54.830 11.243397
54.835 11.022895
54.840 10.996559
54.845 11.726565
54.850 12.203236
54.855 12.475821
54.860 12.82486
54.865 12.956299
54.870 13.149646
54.875 12.679733
54.880 12.007107
54.885 11.914245
54.890 12.043498
54.895 12.066398
54.900 12.528501
54.905 12.429784
54.910 12.36855
54.915 12.540234
54.920 12.790627
54.925 12.488385
54.930 12.50118
54.935 12.156802
54.940 12.201538
54.945 12.750924
54.950 13.241258
54.955 13.247826
54.960 12.963861
54.965 12.679112
54.970 12.630754
54.975 12.290895
54.980 12.129736
54.985 11.634933
54.990 11.871106
54.995 11.932847
55.000 11.59316
55.005 11.412466
55.010 11.57678
55.015 12.103191
55.020 12.729735
55.025 12.665407
55.030 12.956192
55.035 13.083841
55.040 13.527407
55.045 13.636673
55.050 13.272985
55.055 12.650326
55.060 13.05545
55.065 13.78151
55.070 14.469119
55.075 13.976753
55.080 13.669169
55.085 12.839395
55.090 12.928204
55.095 12.508242
55.100 11.807833
55.105 11.579947
55.110 11.626854
55.115 11.772322
55.120 12.700343
55.125 12.756442
55.130 12.671782
55.135 13.19971
55.140 13.552701
55.145 13.604965
55.150 13.579778
55.155 12.791663
55.160 12.611163
55.165 12.892263
55.170 12.990258
55.175 12.856355
55.180 13.241002
55.185 13.576059
55.190 13.696687
55.195 13.541529
55.200 13.068581
55.205 13.099893
55.210 13.262112
55.215 12.66564
55.220 12.318523
55.225 12.694898
55.230 12.32782
55.235 12.061303
55.240 11.592264
55.245 11.568989
55.250 11.982263
55.255 12.263447
55.260 11.903732
55.265 12.080049
55.270 12.504697
55.275 12.558313
55.280 12.562132
55.285 12.443114
55.290 12.339128
55.295 12.462927
55.300 12.710851
55.305 12.232966
55.310 12.142308
55.315 11.971319
55.320 11.959642
55.325 11.892715
55.330 12.082266
55.335 12.20531
55.340 12.302702
55.345 11.764126
55.350 11.731172
55.355 12.341477
55.360 12.934844
55.365 13.478451
55.370 13.658982
55.375 13.657585
55.380 14.203857
55.385 14.1479
55.390 13.767532
55.395 13.735248
55.400 12.874257
55.405 12.584069
55.410 12.323775
55.415 11.995032
55.420 12.327775
55.425 12.704865
55.430 12.768273
55.435 13.147604
55.440 13.681775
55.445 14.849155
55.450 15.208938
55.455 14.916603
55.460 14.377935
55.465 14.533414
55.470 14.543922
55.475 14.010879
55.480 13.015638
55.485 12.63439
55.490 12.669796
55.495 12.725517
55.500 12.371645
55.505 12.226999
55.510 12.243471
55.515 12.751653
55.520 13.2108
55.525 13.035381
55.530 12.831325
55.535 13.081937
55.540 13.146731
55.545 13.00168
55.550 12.929074
55.555 13.212645
55.560 13.649908
55.565 13.621152
55.570 13.539466
55.575 13.641111
55.580 14.172832
55.585 14.166125
55.590 13.964558
55.595 13.624021
55.600 13.530953
55.605 13.365277
55.610 13.426017
55.615 12.995965
55.620 12.91835
55.625 13.011224
55.630 12.957067
55.635 13.187415
55.640 13.171131
55.645 12.893984
55.650 13.01297
55.655 12.946686
55.660 12.781541
55.665 13.288007
55.670 12.643769
55.675 12.967157
55.680 13.356124
55.685 13.275812
55.690 13.426413
55.695 13.441458
55.700 13.550942
55.705 13.909642
55.710 13.444805
55.715 13.408907
55.720 13.544883
55.725 13.756068
55.730 13.866267
55.735 13.676409
55.740 13.732795
55.745 13.57349
55.750 13.347205
55.755 12.958807
55.760 12.730867
55.765 12.656748
55.770 12.808025
55.775 12.930979
55.780 13.010491
55.785 12.99163
55.790 13.362924
55.795 13.620471
55.800 13.599576
55.805 13.456901
55.810 13.927881
55.815 14.619968
55.820 15.379474
55.825 15.442147
55.830 15.444997
55.835 15.551523
55.840 15.435392
55.845 15.06768
55.850 14.83369
55.855 14.456154
55.860 14.000173
55.865 13.506936
55.870 13.895761
55.875 14.396097
55.880 14.744532
55.885 14.639928
55.890 14.468003
55.895 14.607091
55.900 14.818634
55.905 14.391882
55.910 14.09385
55.915 14.093921
55.920 13.83845
55.925 13.954749
55.930 14.144766
55.935 14.432184
55.940 15.269273
55.945 15.423003
55.950 15.306684
55.955 15.602544
55.960 15.06074
55.965 14.83563
55.970 14.581338
55.975 14.065682
55.980 13.44666
55.985 12.816778
55.990 12.512476
55.995 12.872975
56.000 12.801677
56.005 12.480732
56.010 12.428742
56.015 12.575409
56.020 13.424162
56.025 13.646134
56.030 13.481347
56.035 13.432047
56.040 12.880103
56.045 12.84656
56.050 13.078384
56.055 12.611554
56.060 12.719817
56.065 12.996537
56.070 13.391844
56.075 14.571439
56.080 14.85513
56.085 14.269125
56.090 13.922338
56.095 14.256211
56.100 14.095403
56.105 13.94741
56.110 13.230265
56.115 12.948583
56.120 13.404861
56.125 13.429248
56.130 12.859762
56.135 13.32392
56.140 13.464306
56.145 13.518388
56.150 14.117622
56.155 14.808802
56.160 15.141083
56.165 15.341285
56.170 14.879177
56.175 14.403211
56.180 14.232559
56.185 14.010097
56.190 13.087216
56.195 12.842898
56.200 12.705069
56.205 12.937977
56.210 12.883936
56.215 13.109034
56.220 12.56916
56.225 12.843038
56.230 13.150779
56.235 13.196465
56.240 13.587526
56.245 14.04734
56.250 13.945193
56.255 13.823909
56.260 13.696153
56.265 14.184916
56.270 14.258927
56.275 14.018796
56.280 13.704369
56.285 14.230597
56.290 14.920347
56.295 15.17786
56.300 14.857862
56.305 15.180124
56.310 15.257113
56.315 15.444169
56.320 15.259042
56.325 14.673546
56.330 14.18916
56.335 13.786479
56.340 13.531221
56.345 13.586558
56.350 12.89968
56.355 12.747845
56.360 13.08143
56.365 13.582471
56.370 14.295957
56.375 14.091618
56.380 14.178332
56.385 14.647136
56.390 14.682125
56.395 14.600842
56.400 14.502863
56.405 14.182894
56.410 13.962011
56.415 14.142147
56.420 14.564011
56.425 14.545134
56.430 14.525289
56.435 14.327102
56.440 14.150441
56.445 14.375542
56.450 14.219522
56.455 13.901092
56.460 14.255989
56.465 14.486161
56.470 14.944901
56.475 15.395922
56.480 15.486928
56.485 15.086691
56.490 15.340662
56.495 14.806767
56.500 14.119035
56.505 13.951941
56.510 13.43165
56.515 13.207281
56.520 13.240015
56.525 13.253585
56.530 13.969028
56.535 13.986567
56.540 13.906275
56.545 14.283359
56.550 14.443007
56.555 14.485751
56.560 13.875319
56.565 13.526004
56.570 13.527937
56.575 13.601923
56.580 13.740314
56.585 13.859768
56.590 14.170341
56.595 14.762548
56.600 14.761038
56.605 15.07221
56.610 15.246293
56.615 15.587385
56.620 15.515163
56.625 15.316169
56.630 15.311068
56.635 15.884909
56.640 15.639227
56.645 15.151223
56.650 15.101504
56.655 14.746037
56.660 15.006833
56.665 14.524173
56.670 13.952212
56.675 13.908439
56.680 13.955747
56.685 13.857744
56.690 14.306881
56.695 14.120678
56.700 14.695108
56.705 14.826249
56.710 15.264642
56.715 15.063414
56.720 14.948241
56.725 14.769885
56.730 15.027237
56.735 14.711913
56.740 14.627794
56.745 14.041694
56.750 13.676517
56.755 13.940291
56.760 14.306753
56.765 14.63105
56.770 15.04621
56.775 15.252446
56.780 15.507854
56.785 15.738551
56.790 15.905761
56.795 16.086761
56.800 15.304038
56.805 15.0999
56.810 15.245814
56.815 15.653474
56.820 15.890658
56.825 15.456449
56.830 15.359181
56.835 15.857063
56.840 16.008116
56.845 15.94642
56.850 15.544462
56.855 15.461157
56.860 15.665314
56.865 15.714985
56.870 15.618302
56.875 15.383682
56.880 15.134523
56.885 14.988962
56.890 14.951809
56.895 14.85569
56.900 14.679337
56.905 14.466692
56.910 14.222658
56.915 14.572458
56.920 15.215158
56.925 15.386282
56.930 15.454875
56.935 15.877998
56.940 16.014437
56.945 15.681935
56.950 15.594851
56.955 14.921036
56.960 14.757307
56.965 14.172725
56.970 13.705223
56.975 14.246484
56.980 14.577348
56.985 14.711395
56.990 15.18781
56.995 15.482155
57.000 15.522027
57.005 15.074423
57.010 15.081048
57.015 15.600527
57.020 15.461786
57.025 15.134664
57.030 14.96803
57.035 14.938787
57.040 14.912247
57.045 14.296568
57.050 13.801737
57.055 13.516766
57.060 13.807529
57.065 14.180977
57.070 14.714611
57.075 15.12006
57.080 15.308366
57.085 15.634241
57.090 15.68735
57.095 15.457392
57.100 15.440376
57.105 15.402508
57.110 15.010008
57.115 15.053507
57.120 14.908206
57.125 14.892709
57.130 14.723151
57.135 14.503959
57.140 14.42196
57.145 14.513962
57.150 14.167151
57.155 14.267616
57.160 14.863313
57.165 14.941368
57.170 15.250487
57.175 14.842977
57.180 15.110437
57.185 15.253528
57.190 14.948812
57.195 14.569472
57.200 14.290984
57.205 13.896862
57.210 14.251077
57.215 13.93001
57.220 13.860761
57.225 14.036912
57.230 13.936512
57.235 14.032531
57.240 14.078194
57.245 13.975988
57.250 14.240144
57.255 14.443942
57.260 14.055328
57.265 14.039209
57.270 14.032125
57.275 13.908913
57.280 14.293426
57.285 14.430259
57.290 14.466517
57.295 14.616503
57.300 14.792747
57.305 15.0413
57.310 15.194016
57.315 15.479902
57.320 16.044903
57.325 16.426056
57.330 16.731834
57.335 17.078281
57.340 17.305452
57.345 17.139799
57.350 17.026279
57.355 16.500994
57.360 16.186632
57.365 16.074499
57.370 16.18219
57.375 16.260916
57.380 16.066618
57.385 15.875031
57.390 16.433746
57.395 16.890709
57.400 17.13022
57.405 16.69842
57.410 16.262661
57.415 16.241386
57.420 15.836452
57.425 15.140183
57.430 14.810376
57.435 14.34613
57.440 14.404648
57.445 14.715272
57.450 14.649896
57.455 14.708355
57.460 14.362727
57.465 14.782397
57.470 14.637915
57.475 14.579637
57.480 15.034985
57.485 15.226255
57.490 15.700017
57.495 16.164457
57.500 16.327673
57.505 16.807928
57.510 17.016867
57.515 16.409595
57.520 16.012556
57.525 15.874349
57.530 15.98846
57.535 15.692882
57.540 15.794548
57.545 15.695451
57.550 15.932867
57.555 15.843364
57.560 15.687901
57.565 15.672002
57.570 15.168519
57.575 14.836141
57.580 15.150034
57.585 15.047085
57.590 15.480287
57.595 15.341955
57.600 15.459031
57.605 16.011236
57.610 16.061295
57.615 16.027798
57.620 16.169037
57.625 15.429913
57.630 15.709496
57.635 15.454958
57.640 14.986885
57.645 15.080703
57.650 15.397088
57.655 15.454428
57.660 15.544399
57.665 15.055584
57.670 15.154412
57.675 15.197505
57.680 15.094667
57.685 15.010774
57.690 15.160748
57.695 15.195074
57.700 15.335451
57.705 14.864802
57.710 15.20127
57.715 15.068366
57.720 15.269653
57.725 15.16678
57.730 15.336136
57.735 15.51622
57.740 15.757415
57.745 15.343531
57.750 15.33394
57.755 14.906186
57.760 15.475578
57.765 15.843205
57.770 15.396588
57.775 15.244632
57.780 15.816658
57.785 16.380985
57.790 16.361448
57.795 15.683177
57.800 15.575464
57.805 15.824581
57.810 15.539471
57.815 15.200085
57.820 15.119302
57.825 15.676732
57.830 15.940099
57.835 16.393412
57.840 17.161718
57.845 17.464916
57.850 17.172415
57.855 16.902355
57.860 16.603996
57.865 16.661903
57.870 16.767359
57.875 16.761442
57.880 17.071802
57.885 17.391058
57.890 17.836403
57.895 18.15941
57.900 18.50136
57.905 17.672287
57.910 16.749723
57.915 16.464607
57.920 16.599707
57.925 16.677057
57.930 16.468435
57.935 15.806931
57.940 16.067181
57.945 16.291307
57.950 16.163933
57.955 16.023045
57.960 15.651064
57.965 15.715083
57.970 15.818266
57.975 16.357533
57.980 16.553276
57.985 16.381262
57.990 15.867153
57.995 16.112394
58.000 16.530809
58.005 16.632254
58.010 16.27051
58.015 16.312119
58.020 16.852266
58.025 17.220238
58.030 16.602102
58.035 15.712922
58.040 15.443892
58.045 15.006038
58.050 14.76529
58.055 15.153421
58.060 14.906617
58.065 15.196877
58.070 16.16827
58.075 16.58847
58.080 17.372736
58.085 17.602699
58.090 16.775719
58.095 16.687847
58.100 16.12182
58.105 15.91662
58.110 15.545394
58.115 14.7585
58.120 14.950049
58.125 15.770809
58.130 16.824989
58.135 17.301037
58.140 16.91555
58.145 17.16711
58.150 17.318731
58.155 17.048822
58.160 16.706718
58.165 16.157211
58.170 16.154106
58.175 16.411119
58.180 16.131092
58.185 16.334991
58.190 16.230064
58.195 15.690412
58.200 15.63963
58.205 15.749304
58.210 15.535011
58.215 15.378351
58.220 15.041249
58.225 15.313579
58.230 14.917335
58.235 14.928848
58.240 14.803889
58.245 15.298333
58.250 15.887607
58.255 16.552471
58.260 17.280058
58.265 17.788563
58.270 17.591827
58.275 17.728748
58.280 17.494841
58.285 17.015938
58.290 16.39024
58.295 15.307142
58.300 15.231668
58.305 15.632498
58.310 15.80075
58.315 15.765873
58.320 15.813544
58.325 16.149717
58.330 16.40169
58.335 16.765703
58.340 16.833773
58.345 16.475645
58.350 16.655138
58.355 16.51026
58.360 16.419809
58.365 16.217096
58.370 15.703665
58.375 15.702977
58.380 15.757975
58.385 15.307359
58.390 15.521555
58.395 15.077735
58.400 15.000497
58.405 15.438886
58.410 15.503956
58.415 15.987346
58.420 16.585058
58.425 16.479425
58.430 16.827282
58.435 17.265759
58.440 16.816395
58.445 16.953554
