!@!!GADDS PLOTSO FILE: Chi integration type
!@!!Title/SampleName: map-a9
!@!!Comment: ?
!@!!User: Bruker Instrument Administrator
!@!!Site: University of Illinois Chicago
!@!!Frame: map-a9_01_000.gfrm
!@!!Wavelengths    1.54184   1.54056   1.54439
!@!!Frame angles: 2Theta: 63.000 Omega: 50.000 Phi: 0.000 Chi: 90.000
!@!!Integration range: 2Theta: 53.000 to 73.000  Gamma: -105.000 to -75.000
!@!!Integration method: bin normalized
!@!N
!@!SS
!@!M
!@!L 0.0 0.0 0.0 0.0
!@!XDegrees
!@!YCounts
53.000 9.648011
53.005 9.823916
53.010 9.626816
53.015 9.632309
53.020 9.981653
53.025 10.274404
53.030 10.410579
53.035 10.467067
53.040 10.793759
53.045 11.007505
53.050 10.690465
53.055 10.511039
53.060 10.358139
53.065 10.207357
53.070 9.890099
53.075 9.444439
53.080 9.390903
53.085 9.345648
53.090 9.683794
53.095 10.196473
53.100 9.911856
53.105 10.060024
53.110 10.462972
53.115 10.538715
53.120 10.742787
53.125 10.264284
53.130 10.293641
53.135 10.395299
53.140 9.917573
53.145 9.776195
53.150 9.904317
53.155 10.204523
53.160 10.426513
53.165 9.953267
53.170 10.243295
53.175 10.69786
53.180 10.297404
53.185 10.096574
53.190 9.639298
53.195 9.679685
53.200 10.098803
53.205 10.28035
53.210 10.311339
53.215 10.297603
53.220 10.609757
53.225 10.539748
53.230 10.466243
53.235 10.265573
53.240 9.805781
53.245 9.919389
53.250 9.810743
53.255 9.490701
53.260 9.832861
53.265 10.075207
53.270 10.30572
53.275 10.574801
53.280 10.493674
53.285 10.143291
53.290 10.08927
53.295 10.166711
53.300 10.067809
53.305 9.920349
53.310 10.281304
53.315 10.573404
53.320 11.107543
53.325 10.774022
53.330 10.838613
53.335 11.168988
53.340 11.381716
53.345 11.184017
53.350 11.268771
53.355 11.065702
53.360 11.28694
53.365 10.911366
53.370 10.116601
53.375 9.984919
53.380 9.706249
53.385 9.469847
53.390 9.511613
53.395 9.02756
53.400 9.285125
53.405 9.499065
53.410 9.566085
53.415 9.394716
53.420 9.674694
53.425 9.64308
53.430 10.397373
53.435 10.64283
53.440 10.703513
53.445 11.007061
53.450 11.479142
53.455 11.533473
53.460 11.254033
53.465 10.369591
53.470 9.9772
53.475 10.129482
53.480 10.320982
53.485 10.339869
53.490 10.454943
53.495 10.657598
53.500 10.96671
53.505 10.951087
53.510 10.658811
53.515 10.443312
53.520 10.804725
53.525 11.413115
53.530 11.287898
53.535 11.334615
53.540 11.026312
53.545 11.204081
53.550 11.257245
53.555 11.131929
53.560 10.867783
53.565 11.426815
53.570 11.957138
53.575 12.204387
53.580 11.885769
53.585 11.379946
53.590 11.116042
53.595 10.744574
53.600 10.194227
53.605 10.086315
53.610 10.095204
53.615 10.193668
53.620 10.238178
53.625 10.140201
53.630 10.62851
53.635 11.19643
53.640 11.772605
53.645 11.859097
53.650 11.70187
53.655 12.073534
53.660 12.150205
53.665 12.143709
53.670 11.365059
53.675 10.865592
53.680 11.144308
53.685 11.524563
53.690 11.88947
53.695 11.823474
53.700 11.801978
53.705 11.771347
53.710 11.434315
53.715 11.356947
53.720 11.000487
53.725 10.965113
53.730 11.222262
53.735 11.787493
53.740 12.056797
53.745 11.887886
53.750 11.485772
53.755 11.306742
53.760 11.231496
53.765 11.02545
53.770 10.473036
53.775 10.299044
53.780 10.521351
53.785 10.721916
53.790 10.899519
53.795 10.834476
53.800 10.856271
53.805 11.012978
53.810 11.145827
53.815 11.33642
53.820 11.466578
53.825 11.157466
53.830 11.007415
53.835 11.366965
53.840 11.985571
53.845 12.390568
53.850 12.415637
53.855 12.562772
53.860 12.308211
53.865 12.08586
53.870 11.916609
53.875 11.844546
53.880 11.649965
53.885 11.948532
53.890 11.8754
53.895 12.274124
53.900 12.093161
53.905 11.949331
53.910 11.374398
53.915 11.058307
53.920 10.537644
53.925 10.171029
53.930 9.840877
53.935 9.628568
53.940 9.41315
53.945 9.830876
53.950 10.007668
53.955 10.298836
53.960 10.744973
53.965 11.219308
53.970 10.910197
53.975 10.994915
53.980 11.004967
53.985 11.1315
53.990 10.909837
53.995 10.588511
54.000 10.921108
54.005 11.423847
54.010 11.208566
54.015 11.337643
54.020 11.481547
54.025 11.766967
54.030 11.808905
54.035 11.653398
54.040 11.737833
54.045 12.11582
54.050 11.876849
54.055 11.443728
54.060 11.50824
54.065 11.655986
54.070 11.570646
54.075 11.38849
54.080 11.015123
54.085 11.018678
54.090 11.32424
54.095 11.278622
54.100 10.638557
54.105 11.164788
54.110 11.246948
54.115 11.939673
54.120 12.636725
54.125 12.495753
54.130 12.451963
54.135 12.876488
54.140 12.706311
54.145 12.390542
54.150 11.937451
54.155 12.008149
54.160 11.881145
54.165 11.765457
54.170 11.559509
54.175 11.33627
54.180 11.522553
54.185 11.20312
54.190 11.083053
54.195 11.473364
54.200 11.948958
54.205 11.929058
54.210 11.998808
54.215 11.916365
54.220 12.406191
54.225 12.318658
54.230 12.081537
54.235 11.964974
54.240 12.327293
54.245 12.569919
54.250 12.631539
54.255 12.096144
54.260 11.928615
54.265 11.59388
54.270 11.441175
54.275 10.829662
54.280 10.404314
54.285 10.084387
54.290 9.727934
54.295 9.925437
54.300 10.553685
54.305 11.005266
54.310 11.413824
54.315 11.606493
54.320 11.916203
54.325 12.038284
54.330 11.673811
54.335 11.433907
54.340 11.151068
54.345 11.361882
54.350 11.274289
54.355 11.296464
54.360 11.452723
54.365 11.864733
54.370 11.966558
54.375 11.97959
54.380 11.75627
54.385 11.801299
54.390 11.585959
54.395 11.806853
54.400 11.69055
54.405 11.784402
54.410 11.720007
54.415 12.019814
54.420 12.731852
54.425 13.326893
54.430 13.032166
54.435 12.931312
54.440 13.110219
54.445 13.762712
54.450 13.709125
54.455 13.280733
54.460 13.309794
54.465 13.568855
54.470 13.445764
54.475 12.830405
54.480 12.538475
54.485 12.225337
54.490 11.701031
54.495 11.638731
54.500 11.512988
54.505 11.562757
54.510 11.047915
54.515 11.129409
54.520 11.262925
54.525 11.53912
54.530 11.4698
54.535 11.317227
54.540 11.641657
54.545 11.997663
54.550 11.633993
54.555 11.602779
54.560 11.830109
54.565 11.996556
54.570 12.414365
54.575 12.528352
54.580 12.096704
54.585 12.455411
54.590 12.856856
54.595 12.525025
54.600 12.424426
54.605 12.130897
54.610 12.497299
54.615 12.096199
54.620 11.91496
54.625 11.790753
54.630 11.942684
54.635 11.859403
54.640 11.108352
54.645 11.30721
54.650 11.819414
54.655 11.509809
54.660 11.403912
54.665 10.943546
54.670 10.821424
54.675 10.738708
54.680 10.692819
54.685 11.039531
54.690 11.482882
54.695 12.089527
54.700 12.344111
54.705 12.829001
54.710 13.306086
54.715 13.142111
54.720 12.551501
54.725 11.664369
54.730 10.897162
54.735 10.832137
54.740 11.400524
54.745 11.293138
54.750 11.001373
54.755 11.232478
54.760 11.934988
54.765 12.195289
54.770 12.331348
54.775 11.656119
54.780 12.113523
54.785 12.538686
54.790 12.696749
54.795 12.730124
54.800 13.159299
54.805 13.346424
54.810 13.67187
54.815 13.460014
54.820 13.23434
54.825 13.417026
54.830 13.057849
54.835 12.652547
54.840 11.898824
54.845 12.012383
54.850 12.463922
54.855 12.36705
54.860 12.375177
54.865 12.434154
54.870 12.476838
54.875 12.419417
54.880 11.509953
54.885 11.497056
54.890 11.686516
54.895 11.620554
54.900 11.619219
54.905 11.730468
54.910 12.335475
54.915 13.26594
54.920 12.798478
54.925 12.22571
54.930 11.753195
54.935 11.736186
54.940 12.287973
54.945 12.670137
54.950 13.183121
54.955 13.967314
54.960 14.457644
54.965 15.372106
54.970 15.429118
54.975 14.996584
54.980 14.321327
54.985 13.226209
54.990 12.905935
54.995 12.772032
55.000 12.043664
55.005 12.223912
55.010 12.102747
55.015 11.79565
55.020 12.019551
55.025 12.021274
55.030 11.902559
55.035 12.388903
55.040 12.641017
55.045 12.543038
55.050 12.87701
55.055 13.090532
55.060 13.427625
55.065 13.722967
55.070 13.269423
55.075 13.165214
55.080 13.330484
55.085 13.202653
55.090 13.049728
55.095 12.813648
55.100 12.372484
55.105 12.333434
55.110 12.33135
55.115 12.352378
55.120 12.836566
55.125 12.452588
55.130 12.457029
55.135 12.633247
55.140 12.595741
55.145 12.725304
55.150 12.542257
55.155 11.987081
55.160 12.01451
55.165 12.339857
55.170 12.469308
55.175 12.62102
55.180 12.8613
55.185 13.371303
55.190 13.415218
55.195 13.038796
55.200 12.550959
55.205 12.136541
55.210 12.036912
55.215 11.80823
55.220 11.252205
55.225 11.471424
55.230 11.792541
55.235 12.151498
55.240 12.445465
55.245 12.150228
55.250 12.380911
55.255 12.649364
55.260 13.323709
55.265 13.850767
55.270 14.159832
55.275 13.608301
55.280 13.324104
55.285 13.131277
55.290 13.021201
55.295 12.285393
55.300 12.178881
55.305 12.144188
55.310 12.07218
55.315 11.960197
55.320 11.795414
55.325 11.336179
55.330 11.196717
55.335 10.974221
55.340 11.565621
55.345 12.16697
55.350 12.040689
55.355 12.457239
55.360 13.435183
55.365 13.952328
55.370 13.942261
55.375 14.021582
55.380 14.709255
55.385 15.066899
55.390 14.665163
55.395 14.648332
55.400 14.377799
55.405 14.305037
55.410 13.954411
55.415 13.806882
55.420 13.816749
55.425 13.770149
55.430 13.320223
55.435 13.209934
55.440 13.268812
55.445 13.013899
55.450 13.134315
55.455 13.223286
55.460 13.573677
55.465 13.333436
55.470 13.558541
55.475 13.549475
55.480 13.680407
55.485 13.395518
55.490 13.310691
55.495 13.337964
55.500 13.121156
55.505 13.222507
55.510 13.276066
55.515 13.030804
55.520 13.68132
55.525 13.518122
55.530 13.174376
55.535 13.762336
55.540 13.38583
55.545 13.452234
55.550 13.368515
55.555 12.683893
55.560 12.444543
55.565 12.82247
55.570 12.648893
55.575 13.022779
55.580 12.929523
55.585 12.710217
55.590 12.627631
55.595 12.868652
55.600 12.721399
55.605 13.401867
55.610 14.017426
55.615 14.210522
55.620 14.554436
55.625 14.867971
55.630 15.217871
55.635 14.955968
55.640 13.622819
55.645 12.863949
55.650 12.545321
55.655 12.605227
55.660 12.745583
55.665 12.198961
55.670 12.41852
55.675 12.535357
55.680 12.459091
55.685 12.65703
55.690 12.325397
55.695 12.200904
55.700 12.661241
55.705 12.753643
55.710 12.470203
55.715 12.500462
55.720 12.501645
55.725 12.833094
55.730 12.758409
55.735 12.099159
55.740 12.016566
55.745 12.3207
55.750 12.362679
55.755 12.734412
55.760 12.462079
55.765 12.321662
55.770 12.66331
55.775 12.862852
55.780 12.708453
55.785 12.66987
55.790 12.329016
55.795 12.809759
55.800 12.974472
55.805 13.008125
55.810 12.805019
55.815 12.915299
55.820 13.23248
55.825 12.828022
55.830 12.531865
55.835 12.885302
55.840 13.173533
55.845 13.421145
55.850 13.504564
55.855 13.603016
55.860 13.945015
55.865 13.761911
55.870 13.38544
55.875 13.374584
55.880 13.535151
55.885 13.849314
55.890 13.696151
55.895 14.027283
55.900 13.957445
55.905 14.300922
55.910 14.624483
55.915 14.65849
55.920 15.051327
55.925 14.849827
55.930 14.693479
55.935 14.83261
55.940 14.177485
55.945 14.152899
55.950 14.02712
55.955 13.533441
55.960 13.339957
55.965 12.788393
55.970 13.267588
55.975 13.382715
55.980 13.354001
55.985 12.654461
55.990 12.561995
55.995 12.774719
56.000 13.112477
56.005 12.587743
56.010 12.514646
56.015 12.702641
56.020 13.270928
56.025 13.482865
56.030 13.622687
56.035 13.927464
56.040 14.550772
56.045 14.579143
56.050 14.379907
56.055 14.036609
56.060 14.31215
56.065 14.61735
56.070 14.193233
56.075 13.608163
56.080 13.797112
56.085 14.131386
56.090 14.357715
56.095 14.10763
56.100 13.576259
56.105 13.870867
56.110 14.022382
56.115 13.399589
56.120 12.863004
56.125 12.707457
56.130 12.540689
56.135 12.621909
56.140 12.528831
56.145 12.909753
56.150 13.2724
56.155 13.407828
56.160 13.656199
56.165 13.862455
56.170 14.079804
56.175 14.234056
56.180 13.884007
56.185 13.833285
56.190 14.016494
56.195 14.299702
56.200 14.278498
56.205 14.208088
56.210 14.165464
56.215 14.251053
56.220 14.27656
56.225 13.789956
56.230 13.610179
56.235 13.309283
56.240 13.658104
56.245 14.076543
56.250 13.998013
56.255 14.201512
56.260 14.452605
56.265 14.88635
56.270 15.235528
56.275 14.805582
56.280 14.549365
56.285 14.807672
56.290 14.864109
56.295 14.649067
56.300 14.304574
56.305 14.083464
56.310 14.038231
56.315 14.676662
56.320 14.478804
56.325 14.81075
56.330 14.962179
56.335 14.447348
56.340 14.691065
56.345 14.61456
56.350 13.982886
56.355 14.198317
56.360 13.997526
56.365 14.511112
56.370 15.013147
56.375 14.733428
56.380 14.800982
56.385 15.119593
56.390 14.746434
56.395 14.600133
56.400 14.601847
56.405 14.56331
56.410 14.978002
56.415 15.19758
56.420 15.160427
56.425 15.335152
56.430 15.147777
56.435 15.212698
56.440 15.292319
56.445 15.03817
56.450 14.259197
56.455 13.666907
56.460 14.238805
56.465 14.206596
56.470 14.07111
56.475 14.273272
56.480 14.607078
56.485 15.025036
56.490 15.813339
56.495 15.543807
56.500 15.318622
56.505 15.536156
56.510 15.143482
56.515 15.094419
56.520 15.496946
56.525 15.574925
56.530 15.562435
56.535 15.852023
56.540 15.59333
56.545 15.97888
56.550 16.286829
56.555 15.678594
56.560 15.281209
56.565 15.36783
56.570 15.229313
56.575 15.376311
56.580 15.082159
56.585 14.669746
56.590 15.147622
56.595 15.194581
56.600 15.086977
56.605 15.458773
56.610 15.229649
56.615 15.493032
56.620 15.152235
56.625 14.407083
56.630 14.447495
56.635 14.413101
56.640 14.289396
56.645 13.987701
56.650 14.116638
56.655 15.09508
56.660 15.276659
56.665 14.842462
56.670 14.227153
56.675 14.540584
56.680 14.535728
56.685 14.517638
56.690 14.254552
56.695 14.928891
56.700 15.154215
56.705 14.935951
56.710 14.383562
56.715 14.14954
56.720 13.861366
56.725 13.557831
56.730 12.538655
56.735 12.201347
56.740 12.954377
56.745 13.225175
56.750 13.593706
56.755 13.944701
56.760 14.355494
56.765 14.874655
56.770 15.403608
56.775 15.654087
56.780 15.878391
56.785 16.232166
56.790 15.986588
56.795 15.380902
56.800 15.540474
56.805 14.901553
56.810 14.262094
56.815 14.613439
56.820 14.313035
56.825 14.474418
56.830 14.564266
56.835 14.716788
56.840 15.234194
56.845 15.15191
56.850 14.250821
56.855 13.602358
56.860 13.317125
56.865 13.360487
56.870 13.241643
56.875 13.285138
56.880 13.331471
56.885 13.733659
56.890 14.647278
56.895 15.28553
56.900 15.149055
56.905 15.097517
56.910 14.801543
56.915 14.736172
56.920 14.528319
56.925 13.963913
56.930 13.687389
56.935 13.460232
56.940 12.804683
56.945 13.158372
56.950 13.420255
56.955 14.128385
56.960 14.226133
56.965 13.971192
56.970 14.460769
56.975 15.26464
56.980 14.931436
56.985 14.601573
56.990 14.138456
56.995 14.044496
57.000 14.185292
57.005 13.992771
57.010 14.25752
57.015 14.697914
57.020 14.863943
57.025 14.357298
57.030 14.248557
57.035 14.276661
57.040 14.633914
57.045 13.94747
57.050 13.530503
57.055 13.403833
57.060 13.986479
57.065 14.486338
57.070 14.590684
57.075 14.450206
57.080 14.386039
57.085 14.096761
57.090 14.313015
57.095 14.340149
57.100 14.411934
57.105 14.514565
57.110 14.219899
57.115 14.326958
57.120 14.738202
57.125 15.134932
57.130 15.524964
57.135 15.423131
57.140 15.705999
57.145 16.099279
57.150 16.179256
57.155 15.909994
57.160 15.067741
57.165 14.295435
57.170 13.921448
57.175 13.854372
57.180 13.412484
57.185 13.55045
57.190 14.028139
57.195 14.279696
57.200 14.83867
57.205 15.0001
57.210 14.706209
57.215 15.300246
57.220 15.404504
57.225 15.400319
57.230 15.369579
57.235 15.560283
57.240 15.738439
57.245 14.815425
57.250 14.011706
57.255 14.258833
57.260 14.109027
57.265 13.916547
57.270 13.494905
57.275 13.301641
57.280 14.46383
57.285 14.82259
57.290 14.306328
57.295 14.3417
57.300 14.523557
57.305 14.53271
57.310 14.872043
57.315 15.020092
57.320 15.242005
57.325 15.493864
57.330 15.919246
57.335 16.215296
57.340 16.196117
57.345 16.452887
57.350 16.456184
57.355 16.441059
57.360 16.871964
57.365 16.846413
57.370 17.46125
57.375 18.025049
57.380 17.968597
57.385 17.849945
57.390 17.84075
57.395 17.905407
57.400 17.488501
57.405 16.964445
57.410 16.408352
57.415 16.666632
57.420 17.019188
57.425 17.009132
57.430 16.277077
57.435 16.261639
57.440 16.285421
57.445 16.496557
57.450 15.85092
57.455 15.43083
57.460 15.337915
57.465 15.77606
57.470 15.716184
57.475 15.46041
57.480 15.044245
57.485 15.433196
57.490 15.79302
57.495 16.410154
57.500 16.199369
57.505 16.032461
57.510 16.116455
57.515 16.4755
57.520 15.960789
57.525 15.753708
57.530 15.840335
57.535 15.756764
57.540 15.934929
57.545 15.864316
57.550 15.698248
57.555 15.539957
57.560 15.334702
57.565 14.997864
57.570 15.074353
57.575 15.241274
57.580 15.438806
57.585 15.889934
57.590 16.016127
57.595 15.724053
57.600 15.570084
57.605 15.75182
57.610 15.461761
57.615 15.373748
57.620 15.176384
57.625 15.312292
57.630 15.269296
57.635 15.025421
57.640 14.723965
57.645 14.721788
57.650 14.439303
57.655 14.410313
57.660 14.682318
57.665 14.792165
57.670 14.820975
57.675 14.776886
57.680 14.954029
57.685 15.33563
57.690 15.290172
57.695 15.725682
57.700 15.926505
57.705 16.323053
57.710 16.532639
57.715 16.237118
57.720 16.305082
57.725 16.352711
57.730 15.27533
57.735 15.353004
57.740 15.36174
57.745 15.664589
57.750 15.882409
57.755 15.562227
57.760 14.979102
57.765 15.046233
57.770 14.738763
57.775 14.840086
57.780 14.563141
57.785 14.605099
57.790 14.819265
57.795 15.34304
57.800 14.906003
57.805 14.825751
57.810 14.770296
57.815 14.861584
57.820 15.049529
57.825 15.172465
57.830 15.244755
57.835 16.3027
57.840 16.049856
57.845 15.531363
57.850 15.454178
57.855 14.96681
57.860 14.888799
57.865 15.443691
57.870 15.435332
57.875 16.009884
57.880 16.306587
57.885 16.813248
57.890 17.274689
57.895 17.752262
57.900 17.539751
57.905 17.210705
57.910 16.606709
57.915 16.135288
57.920 15.730522
57.925 14.881879
57.930 14.42316
57.935 14.350143
57.940 14.543718
57.945 15.138764
57.950 15.167456
57.955 15.142861
57.960 15.269506
57.965 15.298153
57.970 15.172527
57.975 15.408987
57.980 15.783944
57.985 15.902397
57.990 15.946985
57.995 16.107634
58.000 16.151258
58.005 16.104122
58.010 16.269869
58.015 16.058136
58.020 16.270405
58.025 16.506638
58.030 16.362631
58.035 16.192881
58.040 16.566254
58.045 16.863182
58.050 17.069042
58.055 17.07658
58.060 17.045551
58.065 17.297058
58.070 17.482443
58.075 16.759212
58.080 16.046106
58.085 15.862392
58.090 16.30864
58.095 16.08658
58.100 16.153835
58.105 15.996735
58.110 16.47747
58.115 17.088726
58.120 16.81773
58.125 15.920042
58.130 16.011213
58.135 15.720944
58.140 15.874649
58.145 16.321899
58.150 15.945115
58.155 16.530485
58.160 16.652016
58.165 16.585579
58.170 16.840797
58.175 16.577038
58.180 15.797017
58.185 15.869226
58.190 15.776374
58.195 15.76358
58.200 15.873311
58.205 15.942215
58.210 16.087103
58.215 16.455086
58.220 16.322487
58.225 16.363224
58.230 16.621546
58.235 16.15449
58.240 15.591698
58.245 14.899731
58.250 14.653547
58.255 15.053447
58.260 14.845124
58.265 14.575564
58.270 14.922052
58.275 15.345897
58.280 16.169624
58.285 16.300734
58.290 16.25493
58.295 16.797115
58.300 17.778673
58.305 18.19529
58.310 18.656355
58.315 18.829561
58.320 18.380159
58.325 17.679054
58.330 17.219921
58.335 17.012026
58.340 16.656155
58.345 15.961663
58.350 15.578616
58.355 16.156607
58.360 16.076551
58.365 15.874808
58.370 15.237699
58.375 15.386639
58.380 15.510008
58.385 15.348061
58.390 15.50086
58.395 16.12406
58.400 15.798621
58.405 15.640301
58.410 15.749126
58.415 15.085381
58.420 14.684321
58.425 14.600642
58.430 14.474552
58.435 14.751675
58.440 14.757325
58.445 14.648639
58.450 15.281339
58.455 15.30496
