!@!!GADDS PLOTSO FILE: Chi integration type
!@!!Title/SampleName: map-7a
!@!!Comment: ?
!@!!User: Bruker Instrument Administrator
!@!!Site: University of Illinois Chicago
!@!!Frame: map-7a_01_000.gfrm
!@!!Wavelengths    1.54184   1.54056   1.54439
!@!!Frame angles: 2Theta: 63.000 Omega: 50.000 Phi: 0.000 Chi: 90.000
!@!!Integration range: 2Theta: 53.000 to 73.000  Gamma: -105.000 to -75.000
!@!!Integration method: bin normalized
!@!N
!@!SS
!@!M
!@!L 0.0 0.0 0.0 0.0
!@!XDegrees
!@!YCounts
53.000 8.671655
53.005 8.355041
53.010 8.319378
53.015 8.38907
53.020 8.517864
53.025 8.825568
53.030 8.716042
53.035 8.701013
53.040 9.239331
53.045 9.657025
53.050 9.830207
53.055 9.89991
53.060 9.786416
53.065 9.734262
53.070 9.54229
53.075 9.443653
53.080 9.643908
53.085 9.91512
53.090 10.015654
53.095 9.984293
53.100 9.759391
53.105 9.787072
53.110 9.798163
53.115 9.339412
53.120 8.689384
53.125 8.574075
53.130 8.854412
53.135 9.146276
53.140 8.609392
53.145 8.347639
53.150 8.502556
53.155 8.933853
53.160 9.319171
53.165 9.279194
53.170 9.203046
53.175 9.625349
53.180 9.595159
53.185 9.35656
53.190 9.121127
53.195 8.642565
53.200 8.787466
53.205 8.848499
53.210 9.115387
53.215 9.108736
53.220 9.223521
53.225 9.414576
53.230 9.522191
53.235 9.89401
53.240 9.797796
53.245 9.513206
53.250 10.24662
53.255 9.870872
53.260 9.588244
53.265 9.360082
53.270 9.003289
53.275 8.902659
53.280 8.827635
53.285 8.598915
53.290 8.917254
53.295 9.117986
53.300 8.797227
53.305 8.874727
53.310 9.188076
53.315 9.002949
53.320 9.082667
53.325 9.202092
53.330 9.193834
53.335 9.358741
53.340 9.538402
53.345 9.675127
53.350 9.466672
53.355 9.229158
53.360 9.585138
53.365 9.602057
53.370 9.68906
53.375 9.621743
53.380 9.627586
53.385 10.057804
53.390 9.604403
53.395 9.581574
53.400 9.621695
53.405 9.540236
53.410 9.491304
53.415 9.178537
53.420 9.239502
53.425 9.614768
53.430 9.222259
53.435 9.247339
53.440 9.114814
53.445 9.187723
53.450 9.43147
53.455 9.862232
53.460 9.971719
53.465 10.534645
53.470 10.916695
53.475 11.012705
53.480 10.837413
53.485 11.037744
53.490 10.76672
53.495 10.865091
53.500 10.447947
53.505 10.368112
53.510 10.362268
53.515 10.467372
53.520 9.754869
53.525 9.448343
53.530 9.417958
53.535 9.381713
53.540 9.211094
53.545 9.111392
53.550 9.43214
53.555 9.680133
53.560 9.71505
53.565 9.45631
53.570 9.333251
53.575 9.591066
53.580 9.533484
53.585 8.79764
53.590 8.749459
53.595 9.321959
53.600 9.389895
53.605 9.581032
53.610 9.697024
53.615 9.935019
53.620 10.255548
53.625 10.048003
53.630 9.926865
53.635 10.156934
53.640 9.988332
53.645 9.54772
53.650 9.797931
53.655 10.018632
53.660 9.926727
53.665 10.192942
53.670 10.130721
53.675 10.223568
53.680 10.178561
53.685 10.018208
53.690 10.280365
53.695 10.759474
53.700 10.550084
53.705 11.502562
53.710 11.8844
53.715 11.897393
53.720 11.328941
53.725 11.00481
53.730 10.269311
53.735 9.639329
53.740 8.927707
53.745 9.206433
53.750 9.611874
53.755 9.875513
53.760 9.939708
53.765 10.065574
53.770 10.273849
53.775 9.652968
53.780 9.178001
53.785 9.144509
53.790 9.574388
53.795 9.429847
53.800 9.904106
53.805 9.963624
53.810 10.508323
53.815 10.536712
53.820 10.457542
53.825 10.218897
53.830 10.011062
53.835 9.589089
53.840 9.97721
53.845 9.722548
53.850 9.633595
53.855 9.816942
53.860 9.712473
53.865 9.451496
53.870 9.134762
53.875 8.897741
53.880 8.855736
53.885 8.680872
53.890 8.506021
53.895 8.455128
53.900 8.716403
53.905 8.767952
53.910 8.845187
53.915 9.383644
53.920 9.580162
53.925 9.599994
53.930 9.682909
53.935 9.741578
53.940 9.959826
53.945 10.02461
53.950 9.722134
53.955 9.719877
53.960 9.648176
53.965 9.842583
53.970 9.974235
53.975 9.85303
53.980 9.732314
53.985 9.936858
53.990 9.890779
53.995 10.438365
54.000 10.757083
54.005 10.743952
54.010 11.070988
54.015 11.493964
54.020 11.766142
54.025 11.549049
54.030 11.846072
54.035 11.792324
54.040 11.148436
54.045 10.464486
54.050 10.183709
54.055 10.225846
54.060 9.943294
54.065 9.358627
54.070 9.549172
54.075 9.756177
54.080 10.056444
54.085 9.904743
54.090 9.729712
54.095 10.120237
54.100 9.847616
54.105 9.947178
54.110 10.649242
54.115 10.742978
54.120 10.737431
54.125 10.811026
54.130 10.787701
54.135 10.804843
54.140 10.235004
54.145 9.66784
54.150 9.557275
54.155 9.587522
54.160 9.750901
54.165 10.078266
54.170 10.395094
54.175 10.633092
54.180 10.936722
54.185 11.068992
54.190 11.454529
54.195 10.986271
54.200 10.447816
54.205 10.423632
54.210 10.694258
54.215 11.075068
54.220 10.965584
54.225 10.804146
54.230 11.072213
54.235 11.283717
54.240 11.215425
54.245 10.94501
54.250 10.267443
54.255 9.919355
54.260 9.82001
54.265 9.812158
54.270 9.778318
54.275 9.446755
54.280 9.826573
54.285 10.383667
54.290 10.601547
54.295 10.317472
54.300 10.427129
54.305 10.755445
54.310 10.903996
54.315 10.600466
54.320 10.457469
54.325 10.574472
54.330 10.60056
54.335 10.300071
54.340 10.611926
54.345 10.742525
54.350 10.472397
54.355 10.236292
54.360 10.28112
54.365 10.669981
54.370 11.297051
54.375 11.317952
54.380 11.555161
54.385 11.620945
54.390 11.824789
54.395 11.926192
54.400 12.05019
54.405 11.439728
54.410 11.200798
54.415 11.087972
54.420 10.874343
54.425 11.13967
54.430 11.05761
54.435 10.726985
54.440 10.796456
54.445 10.843562
54.450 11.16061
54.455 11.003045
54.460 10.359185
54.465 10.17897
54.470 9.448934
54.475 9.185749
54.480 9.212315
54.485 9.039063
54.490 8.917731
54.495 8.699516
54.500 8.919487
54.505 9.865644
54.510 9.586178
54.515 9.629257
54.520 9.696883
54.525 10.307058
54.530 10.295397
54.535 10.052208
54.540 9.721888
54.545 9.762177
54.550 9.612317
54.555 9.732456
54.560 9.363087
54.565 9.573398
54.570 10.162136
54.575 10.841839
54.580 10.936719
54.585 11.019171
54.590 11.177562
54.595 11.719767
54.600 11.551631
54.605 11.188004
54.610 10.532731
54.615 10.392241
54.620 10.695262
54.625 10.461861
54.630 10.096277
54.635 10.405455
54.640 10.837238
54.645 10.855686
54.650 10.806032
54.655 10.293921
54.660 10.452803
54.665 10.474601
54.670 9.943765
54.675 10.060913
54.680 9.97455
54.685 10.398703
54.690 10.389112
54.695 10.611512
54.700 11.203402
54.705 11.580867
54.710 11.297255
54.715 11.032919
54.720 10.872596
54.725 11.264786
54.730 11.125779
54.735 10.415733
54.740 9.788675
54.745 9.728469
54.750 9.959876
54.755 9.528468
54.760 9.321356
54.765 9.351972
54.770 9.70405
54.775 10.263576
54.780 10.408109
54.785 11.094943
54.790 11.345447
54.795 11.262916
54.800 11.447948
54.805 11.355145
54.810 11.207608
54.815 11.24267
54.820 10.555609
54.825 10.09022
54.830 9.890143
54.835 9.824338
54.840 9.770435
54.845 9.706483
54.850 9.717879
54.855 9.979952
54.860 10.840729
54.865 10.479185
54.870 10.264474
54.875 10.515731
54.880 11.164416
54.885 11.222593
54.890 10.857657
54.895 10.704988
54.900 11.174171
54.905 11.339481
54.910 11.297071
54.915 10.999676
54.920 11.618414
54.925 12.110925
54.930 12.508459
54.935 12.534898
54.940 12.593709
54.945 12.299744
54.950 11.971304
54.955 11.415895
54.960 11.638259
54.965 11.498369
54.970 11.180939
54.975 11.927231
54.980 12.068413
54.985 12.20242
54.990 12.057165
54.995 11.754535
55.000 12.233241
55.005 12.794344
55.010 12.448603
55.015 12.210184
55.020 11.83926
55.025 11.375526
55.030 11.091012
55.035 10.414608
55.040 9.553504
55.045 9.598509
55.050 9.844219
55.055 9.788571
55.060 10.226389
55.065 9.873274
55.070 10.131154
55.075 10.619922
55.080 10.927157
55.085 11.076123
55.090 11.57225
55.095 11.38032
55.100 11.572988
55.105 11.596338
55.110 11.257615
55.115 10.978012
55.120 11.161854
55.125 11.012424
55.130 11.36363
55.135 11.645451
55.140 11.142108
55.145 11.281271
55.150 11.415568
55.155 11.096164
55.160 10.843931
55.165 10.809106
55.170 11.127731
55.175 11.742915
55.180 11.754401
55.185 11.617006
55.190 11.511989
55.195 11.554193
55.200 11.121724
55.205 10.906569
55.210 10.534527
55.215 10.73799
55.220 10.752286
55.225 11.086408
55.230 10.917789
55.235 10.850364
55.240 10.836792
55.245 10.981517
55.250 11.073058
55.255 11.450583
55.260 11.811424
55.265 12.295924
55.270 12.763566
55.275 13.013337
55.280 12.87131
55.285 12.583592
55.290 12.380343
55.295 12.145808
55.300 11.672815
55.305 11.436301
55.310 11.033451
55.315 10.96654
55.320 11.001611
55.325 11.136793
55.330 11.22513
55.335 11.630476
55.340 11.968643
55.345 11.995481
55.350 12.365806
55.355 12.623904
55.360 12.837079
55.365 13.73574
55.370 13.702548
55.375 13.569711
55.380 13.635303
55.385 13.423601
55.390 13.430166
55.395 13.015797
55.400 12.123286
55.405 11.922562
55.410 11.870006
55.415 11.731964
55.420 11.527547
55.425 10.685686
55.430 10.279245
55.435 10.21371
55.440 10.407701
55.445 10.849528
55.450 10.885636
55.455 11.25611
55.460 11.946967
55.465 12.047959
55.470 12.481214
55.475 12.59102
55.480 12.236178
55.485 11.959488
55.490 11.870665
55.495 11.652222
55.500 11.426558
55.505 11.471709
55.510 11.086334
55.515 11.119535
55.520 11.520662
55.525 11.605027
55.530 11.868609
55.535 11.952314
55.540 11.622386
55.545 11.758239
55.550 11.918494
55.555 11.366703
55.560 10.83311
55.565 10.70424
55.570 10.800534
55.575 11.068316
55.580 11.16536
55.585 11.253295
55.590 11.525694
55.595 11.968933
55.600 12.027061
55.605 11.677413
55.610 11.50798
55.615 11.181921
55.620 11.00534
55.625 10.929896
55.630 11.233675
55.635 11.701382
55.640 12.550112
55.645 12.547327
55.650 12.830877
55.655 13.128791
55.660 13.421928
55.665 12.488407
55.670 11.978996
55.675 11.705454
55.680 11.849786
55.685 11.973275
55.690 12.036196
55.695 12.181287
55.700 13.043968
55.705 13.465835
55.710 13.595068
55.715 13.583722
55.720 13.520375
55.725 13.869971
55.730 13.43234
55.735 12.868797
55.740 12.476595
55.745 12.269715
55.750 12.237771
55.755 12.048756
55.760 11.790542
55.765 12.187165
55.770 13.095501
55.775 13.515141
55.780 13.668335
55.785 13.6659
55.790 13.78461
55.795 13.337281
55.800 13.614783
55.805 13.051883
55.810 12.648746
55.815 12.726295
55.820 12.931312
55.825 13.374887
55.830 13.915765
55.835 14.22604
55.840 14.566118
55.845 14.691495
55.850 14.54785
55.855 14.508485
55.860 14.403717
55.865 13.869373
55.870 13.355007
55.875 12.793523
55.880 12.440298
55.885 12.748777
55.890 12.6658
55.895 12.467535
55.900 12.824266
55.905 12.786925
55.910 13.249425
55.915 13.145957
55.920 12.84297
55.925 12.417624
55.930 12.082198
55.935 11.853291
55.940 12.016873
55.945 12.467997
55.950 12.562019
55.955 12.560673
55.960 12.466834
55.965 12.826008
55.970 13.005096
55.975 12.252971
55.980 11.472453
55.985 11.634334
55.990 11.55775
55.995 11.552021
56.000 11.089758
56.005 10.869417
56.010 10.989324
56.015 11.031108
56.020 10.571761
56.025 10.581729
56.030 10.846457
56.035 11.132915
56.040 11.667204
56.045 12.19878
56.050 12.59308
56.055 12.835093
56.060 12.80577
56.065 12.775626
56.070 12.658492
56.075 12.198237
56.080 12.124307
56.085 11.718356
56.090 11.607794
56.095 11.363715
56.100 11.182015
56.105 11.060789
56.110 10.911289
56.115 11.262509
56.120 11.502979
56.125 12.13236
56.130 13.094731
56.135 13.260366
56.140 13.376148
56.145 13.128102
56.150 12.705701
56.155 13.023624
56.160 12.450179
56.165 12.036936
56.170 12.688366
56.175 12.828358
56.180 13.034076
56.185 13.164002
56.190 13.113166
56.195 13.19241
56.200 13.193421
56.205 12.646241
56.210 12.593346
56.215 12.604413
56.220 12.577929
56.225 12.938888
56.230 12.836338
56.235 12.702651
56.240 13.096411
56.245 13.224462
56.250 14.020993
56.255 13.874559
56.260 13.58943
56.265 13.844855
56.270 13.649467
56.275 13.229752
56.280 12.990262
56.285 12.198909
56.290 12.160644
56.295 12.204596
56.300 12.59592
56.305 12.83197
56.310 13.082065
56.315 12.889069
56.320 13.419109
56.325 13.788653
56.330 13.403137
56.335 13.326303
56.340 13.432085
56.345 13.309279
56.350 13.200747
56.355 12.693752
56.360 12.054605
56.365 12.408065
56.370 12.494993
56.375 12.460656
56.380 12.856508
56.385 12.860926
56.390 13.107071
56.395 13.2789
56.400 13.084829
56.405 12.314071
56.410 12.327821
56.415 12.045594
56.420 11.891109
56.425 12.361248
56.430 13.191935
56.435 13.647071
56.440 13.955055
56.445 13.465298
56.450 13.688293
56.455 14.084169
56.460 13.901505
56.465 13.25342
56.470 12.547489
56.475 12.575637
56.480 12.927494
56.485 12.905195
56.490 13.157132
56.495 13.010105
56.500 12.923482
56.505 13.431316
56.510 13.375979
56.515 13.053
56.520 12.824864
56.525 12.444042
56.530 12.241667
56.535 12.310234
56.540 12.276979
56.545 12.85897
56.550 13.212127
56.555 13.724257
56.560 14.092203
56.565 14.470689
56.570 14.248156
56.575 13.809765
56.580 13.824578
56.585 13.984661
56.590 13.631004
56.595 14.124023
56.600 14.943785
56.605 15.252264
56.610 15.044551
56.615 14.639279
56.620 14.209411
56.625 13.962348
56.630 12.827032
56.635 12.310705
56.640 12.383052
56.645 12.868883
56.650 12.993408
56.655 13.074532
56.660 13.227695
56.665 13.71424
56.670 13.723671
56.675 13.873778
56.680 13.476329
56.685 13.548159
56.690 13.63684
56.695 13.30302
56.700 13.048788
56.705 12.746636
56.710 12.00637
56.715 12.195794
56.720 12.30327
56.725 12.001813
56.730 11.994018
56.735 12.210904
56.740 12.718851
56.745 13.259481
56.750 13.217619
56.755 13.17252
56.760 13.703077
56.765 14.154537
56.770 14.437211
56.775 14.330681
56.780 14.328194
56.785 14.760812
56.790 14.51735
56.795 14.636921
56.800 14.338564
56.805 13.463787
56.810 13.392061
56.815 13.17378
56.820 12.959402
56.825 13.315855
56.830 12.97236
56.835 12.975211
56.840 13.152928
56.845 13.156936
56.850 12.90522
56.855 12.41964
56.860 12.338198
56.865 12.590067
56.870 12.908299
56.875 13.00862
56.880 13.248736
56.885 13.839481
56.890 14.470176
56.895 14.399414
56.900 13.764876
56.905 13.74624
56.910 14.223559
56.915 14.377179
56.920 14.070767
56.925 13.970776
56.930 13.747289
56.935 14.092348
56.940 14.210536
56.945 13.996272
56.950 14.137487
56.955 14.296515
56.960 14.238709
56.965 14.569336
56.970 14.584496
56.975 14.506545
56.980 14.33956
56.985 14.186489
56.990 13.880699
56.995 13.489862
57.000 13.341312
57.005 12.915432
57.010 12.721864
57.015 12.881463
57.020 13.270234
57.025 13.896691
57.030 14.339494
57.035 14.827172
57.040 15.068305
57.045 15.17725
57.050 15.301958
57.055 14.736062
57.060 14.688344
57.065 14.54753
57.070 14.458547
57.075 15.193485
57.080 15.569008
57.085 15.514177
57.090 15.490617
57.095 14.891746
57.100 14.924743
57.105 15.087831
57.110 14.840071
57.115 14.304749
57.120 13.836118
57.125 14.072458
57.130 14.312696
57.135 14.48241
57.140 14.102891
57.145 13.83099
57.150 13.778356
57.155 14.092752
57.160 14.084254
57.165 13.740849
57.170 13.598574
57.175 13.33322
57.180 12.973927
57.185 13.36539
57.190 13.25171
57.195 13.294833
57.200 13.236197
57.205 13.304596
57.210 13.559824
57.215 13.221901
57.220 12.982649
57.225 13.261347
57.230 13.480392
57.235 13.433077
57.240 12.88754
57.245 12.781173
57.250 13.324692
57.255 13.136812
57.260 13.399766
57.265 13.797742
57.270 14.691338
57.275 15.471987
57.280 15.75107
57.285 15.533506
57.290 15.958639
57.295 15.888321
57.300 15.903094
57.305 16.000141
57.310 15.744904
57.315 16.253908
57.320 16.592396
57.325 16.292242
57.330 15.586622
57.335 15.155122
57.340 14.582296
57.345 14.658686
57.350 14.886147
57.355 15.056372
57.360 14.805244
57.365 14.989996
57.370 15.000392
57.375 15.15345
57.380 15.174645
57.385 14.810119
57.390 14.276942
57.395 14.315984
57.400 14.353207
57.405 13.995483
57.410 14.192787
57.415 14.013617
57.420 13.862867
57.425 13.933218
57.430 14.182668
57.435 14.186221
57.440 14.017332
57.445 14.100424
57.450 14.009792
57.455 14.317437
57.460 14.525998
57.465 14.450064
57.470 14.59611
57.475 15.052651
57.480 15.048888
57.485 15.195977
57.490 14.952573
57.495 15.245373
57.500 15.799308
57.505 16.127302
57.510 16.113644
57.515 16.085497
57.520 16.226757
57.525 16.132975
57.530 15.675278
57.535 15.425261
57.540 14.907742
57.545 14.386858
57.550 13.926362
57.555 13.999466
57.560 14.213924
57.565 13.884549
57.570 13.99713
57.575 14.171324
57.580 14.634993
57.585 14.961093
57.590 14.386335
57.595 14.487071
57.600 14.277832
57.605 13.433471
57.610 13.611667
57.615 13.491753
57.620 13.505548
57.625 13.973688
57.630 14.19571
57.635 15.014452
57.640 15.450422
57.645 15.526587
57.650 15.092767
57.655 15.079475
57.660 14.229622
57.665 13.776317
57.670 13.592674
57.675 14.277482
57.680 14.420364
57.685 14.487644
57.690 14.309291
57.695 14.921286
57.700 14.814828
57.705 14.407335
57.710 13.791014
57.715 13.78636
57.720 14.392979
57.725 15.00599
57.730 14.392685
57.735 14.290816
57.740 14.610661
57.745 14.773714
57.750 14.615658
57.755 14.553424
57.760 14.031936
57.765 14.386194
57.770 14.769692
57.775 14.819949
57.780 14.596873
57.785 14.551056
57.790 14.307408
57.795 14.713896
57.800 14.532427
57.805 14.479801
57.810 14.193273
57.815 14.135139
57.820 14.246364
57.825 14.329347
57.830 13.989878
57.835 13.332005
57.840 12.497499
57.845 12.140937
57.850 11.988454
57.855 11.605336
57.860 11.730131
57.865 12.246293
57.870 13.163152
57.875 13.591167
57.880 13.760266
57.885 13.80267
57.890 13.89965
57.895 13.961557
57.900 14.271832
57.905 13.857504
57.910 13.623946
57.915 13.721009
57.920 14.425819
57.925 14.911803
57.930 14.795258
57.935 14.320207
57.940 14.752893
57.945 14.998655
57.950 15.293485
57.955 14.594178
57.960 13.980309
57.965 13.548381
57.970 13.656211
57.975 13.58634
57.980 13.590221
57.985 13.215955
57.990 13.753031
57.995 13.995174
58.000 14.101535
58.005 14.009424
58.010 14.071823
58.015 14.344778
58.020 14.10182
58.025 13.922239
58.030 13.774462
58.035 13.998265
58.040 14.15668
58.045 14.371547
58.050 14.176101
58.055 14.64844
58.060 14.622985
58.065 14.888616
58.070 14.819973
58.075 14.564488
58.080 14.59229
58.085 15.270653
58.090 15.410755
58.095 15.204571
58.100 14.798555
58.105 14.872709
58.110 15.081003
58.115 14.858904
58.120 14.453279
58.125 14.366798
58.130 14.58742
58.135 14.902938
58.140 14.84593
58.145 14.614866
58.150 14.3342
58.155 14.07375
58.160 14.100883
58.165 13.831019
58.170 13.73368
58.175 13.706231
58.180 13.705667
58.185 13.928923
58.190 13.650165
58.195 13.427514
58.200 13.914066
58.205 14.179846
58.210 14.333493
58.215 14.446231
58.220 14.505336
58.225 14.36622
58.230 14.479589
58.235 14.151253
58.240 14.093236
58.245 13.664748
58.250 13.366169
58.255 13.276892
58.260 13.950539
58.265 13.994802
58.270 13.567437
58.275 13.190327
58.280 13.400721
58.285 13.786733
58.290 13.983983
58.295 13.78707
58.300 13.81637
58.305 14.298818
58.310 14.540484
58.315 14.855365
58.320 14.912248
58.325 14.739453
58.330 14.931067
58.335 15.608162
58.340 15.737002
58.345 16.073011
58.350 16.153198
58.355 16.282131
58.360 16.054115
58.365 16.293976
58.370 15.905862
58.375 15.707062
58.380 15.515165
58.385 14.920841
58.390 14.968251
58.395 15.183531
58.400 14.990205
58.405 14.539896
58.410 14.300174
58.415 14.154245
58.420 14.359082
58.425 13.965924
58.430 14.205099
58.435 14.536823
58.440 15.16775
58.445 15.761704
58.450 15.835352
58.455 16.43223
58.460 16.221313
58.465 16.051678
58.470 15.918223
58.475 15.806344
58.480 15.79044
58.485 15.857917
58.490 15.823957
58.495 16.109838
58.500 15.815903
