!@!!GADDS PLOTSO FILE: Chi integration type
!@!!Title/SampleName: map-154
!@!!Comment: ?
!@!!User: Bruker Instrument Administrator
!@!!Site: University of Illinois Chicago
!@!!Frame: map-154_01_000.gfrm
!@!!Wavelengths    1.54184   1.54056   1.54439
!@!!Frame angles: 2Theta: 63.000 Omega: 50.000 Phi: 0.000 Chi: 90.000
!@!!Integration range: 2Theta: 53.000 to 73.000  Gamma: -105.000 to -75.000
!@!!Integration method: bin normalized
!@!N
!@!SS
!@!M
!@!L 0.0 0.0 0.0 0.0
!@!XDegrees
!@!YCounts
53.000 6.436666
53.005 6.304229
53.010 6.587163
53.015 6.780143
53.020 7.201729
53.025 7.560058
53.030 7.829888
53.035 8.078523
53.040 8.147433
53.045 8.027143
53.050 8.116222
53.055 8.116563
53.060 8.135302
53.065 8.09164
53.070 8.035535
53.075 8.023295
53.080 8.147549
53.085 8.189911
53.090 7.941798
53.095 7.897182
53.100 7.754266
53.105 7.697574
53.110 7.817448
53.115 7.54684
53.120 7.103941
53.125 7.20918
53.130 7.42031
53.135 7.696477
53.140 7.687257
53.145 7.401123
53.150 7.341725
53.155 7.441844
53.160 7.204745
53.165 6.878302
53.170 6.616666
53.175 6.558603
53.180 6.984028
53.185 7.483656
53.190 7.361911
53.195 7.395461
53.200 7.234247
53.205 7.255521
53.210 7.231352
53.215 7.035034
53.220 6.453332
53.225 6.591383
53.230 6.495081
53.235 6.698363
53.240 6.841229
53.245 6.508574
53.250 6.414067
53.255 6.723713
53.260 7.084261
53.265 7.230274
53.270 7.204813
53.275 7.133421
53.280 7.50513
53.285 7.696356
53.290 7.282856
53.295 7.035216
53.300 6.873817
53.305 6.691111
53.310 6.879978
53.315 6.475722
53.320 6.245468
53.325 6.262538
53.330 6.384318
53.335 6.52866
53.340 6.782617
53.345 6.621678
53.350 6.944846
53.355 6.826751
53.360 6.897393
53.365 6.908966
53.370 6.616398
53.375 6.719125
53.380 6.933294
53.385 7.231214
53.390 8.042087
53.395 8.084914
53.400 8.414288
53.405 8.773355
53.410 8.6296
53.415 8.479344
53.420 8.157512
53.425 7.751761
53.430 7.529549
53.435 7.139536
53.440 7.100719
53.445 6.759429
53.450 6.96821
53.455 7.252271
53.460 6.770334
53.465 6.655933
53.470 6.53844
53.475 7.087788
53.480 7.15433
53.485 7.004194
53.490 7.094118
53.495 7.952264
53.500 8.191399
53.505 8.394418
53.510 8.041838
53.515 8.221414
53.520 7.986355
53.525 7.622724
53.530 7.402926
53.535 7.35475
53.540 6.846603
53.545 6.72551
53.550 6.683383
53.555 7.393869
53.560 7.690183
53.565 7.857413
53.570 8.080858
53.575 8.286988
53.580 8.071909
53.585 8.124421
53.590 7.62683
53.595 7.682674
53.600 7.500347
53.605 7.52011
53.610 7.496882
53.615 7.935129
53.620 7.98741
53.625 8.044435
53.630 8.151223
53.635 8.325667
53.640 8.471678
53.645 8.426987
53.650 8.450908
53.655 8.915112
53.660 8.915913
53.665 8.726639
53.670 8.707938
53.675 8.386331
53.680 8.573005
53.685 8.404349
53.690 7.744098
53.695 7.451442
53.700 7.622359
53.705 7.266335
53.710 7.071661
53.715 6.869123
53.720 6.891582
53.725 7.087341
53.730 7.650589
53.735 8.053835
53.740 8.194306
53.745 8.41469
53.750 8.320907
53.755 8.392431
53.760 8.601815
53.765 8.022788
53.770 7.743048
53.775 8.129659
53.780 8.562398
53.785 8.867063
53.790 8.970592
53.795 8.38877
53.800 8.3398
53.805 8.41745
53.810 8.382602
53.815 8.383349
53.820 8.200604
53.825 8.247746
53.830 8.670466
53.835 8.433167
53.840 8.483599
53.845 7.929925
53.850 7.68137
53.855 7.550456
53.860 7.036121
53.865 7.210958
53.870 7.351193
53.875 7.323125
53.880 8.235524
53.885 8.320134
53.890 8.123644
53.895 8.263299
53.900 8.093319
53.905 8.271918
53.910 8.280028
53.915 7.599156
53.920 7.718908
53.925 7.702842
53.930 7.790126
53.935 7.93508
53.940 7.820644
53.945 7.688814
53.950 7.669129
53.955 7.473375
53.960 7.95785
53.965 7.976288
53.970 7.906171
53.975 8.171798
53.980 8.105293
53.985 8.257279
53.990 8.45754
53.995 8.207819
54.000 8.270027
54.005 8.557244
54.010 8.310634
54.015 8.647507
54.020 8.705613
54.025 8.422224
54.030 8.519614
54.035 8.275192
54.040 8.045955
54.045 7.877379
54.050 7.87624
54.055 8.002066
54.060 8.231793
54.065 8.127568
54.070 7.838389
54.075 8.13389
54.080 8.077434
54.085 7.890121
54.090 7.62534
54.095 7.696103
54.100 7.735788
54.105 7.917708
54.110 7.609415
54.115 7.558794
54.120 7.43237
54.125 7.334599
54.130 7.414471
54.135 7.525692
54.140 7.808115
54.145 8.024873
54.150 7.806217
54.155 7.971956
54.160 8.046904
54.165 7.825235
54.170 7.861862
54.175 7.654377
54.180 7.610134
54.185 7.871779
54.190 7.795667
54.195 7.592338
54.200 7.73822
54.205 7.271076
54.210 7.479405
54.215 7.272209
54.220 7.106081
54.225 7.253592
54.230 7.292012
54.235 7.380131
54.240 7.318614
54.245 7.359947
54.250 7.905187
54.255 8.05231
54.260 8.119525
54.265 8.275963
54.270 8.233512
54.275 8.729857
54.280 8.353234
54.285 7.839463
54.290 7.723142
54.295 7.82236
54.300 8.109006
54.305 8.207431
54.310 7.970147
54.315 8.560278
54.320 8.985301
54.325 8.845937
54.330 8.720972
54.335 8.530144
54.340 8.674858
54.345 8.711496
54.350 8.590679
54.355 8.636847
54.360 8.480634
54.365 8.069368
54.370 8.147083
54.375 7.858515
54.380 7.914064
54.385 7.489437
54.390 7.267186
54.395 7.199841
54.400 7.296369
54.405 7.054145
54.410 7.015777
54.415 7.206824
54.420 7.312303
54.425 7.571186
54.430 7.463289
54.435 7.006815
54.440 7.377801
54.445 7.491738
54.450 7.250584
54.455 7.065277
54.460 6.96957
54.465 7.257997
54.470 7.588004
54.475 7.507731
54.480 7.614309
54.485 7.484741
54.490 7.715858
54.495 7.751173
54.500 7.791572
54.505 7.762566
54.510 7.560311
54.515 7.543822
54.520 7.740878
54.525 7.815506
54.530 8.137918
54.535 8.257765
54.540 7.967674
54.545 7.916617
54.550 7.810183
54.555 7.492296
54.560 7.45946
54.565 7.670864
54.570 7.747519
54.575 7.922901
54.580 8.232576
54.585 8.444628
54.590 8.746939
54.595 8.24476
54.600 7.880337
54.605 7.92202
54.610 7.763796
54.615 7.803844
54.620 8.274531
54.625 8.516585
54.630 8.684314
54.635 8.652476
54.640 8.432897
54.645 8.510774
54.650 8.0832
54.655 7.582881
54.660 7.549858
54.665 7.637767
54.670 7.877579
54.675 7.83217
54.680 7.549367
54.685 7.587653
54.690 7.594873
54.695 7.673335
54.700 7.451755
54.705 7.364581
54.710 7.433283
54.715 7.8873
54.720 7.583378
54.725 7.449229
54.730 7.639119
54.735 7.823782
54.740 7.908788
54.745 7.77477
54.750 7.493598
54.755 7.359014
54.760 7.284003
54.765 7.34276
54.770 7.534025
54.775 7.32506
54.780 7.453382
54.785 7.864942
54.790 8.071464
54.795 8.314775
54.800 7.779568
54.805 7.650523
54.810 7.652643
54.815 7.165982
54.820 7.161346
54.825 6.910742
54.830 6.677989
54.835 6.877994
54.840 7.048631
54.845 7.40293
54.850 7.628653
54.855 7.752881
54.860 8.122269
54.865 8.021403
54.870 7.907954
54.875 7.824171
54.880 8.17941
54.885 8.844177
54.890 9.283813
54.895 9.342933
54.900 9.661697
54.905 10.032385
54.910 10.002466
54.915 9.771707
54.920 8.962704
54.925 8.374916
54.930 8.450578
54.935 8.248678
54.940 8.304138
54.945 8.487421
54.950 8.638259
54.955 8.863849
54.960 9.4448
54.965 9.416017
54.970 9.371897
54.975 9.136344
54.980 9.118211
54.985 9.011761
54.990 9.491914
54.995 9.286063
55.000 9.731484
55.005 10.197102
55.010 9.815806
55.015 9.606873
55.020 9.177147
55.025 8.806143
55.030 8.830606
55.035 8.335276
55.040 8.407488
55.045 8.934878
55.050 9.260276
55.055 9.964596
55.060 9.894655
55.065 10.135065
55.070 10.349452
55.075 10.001346
55.080 9.801728
55.085 9.352408
55.090 8.572641
55.095 8.658386
55.100 8.885326
55.105 9.00321
55.110 8.843217
55.115 8.673861
55.120 8.461985
55.125 9.188878
55.130 9.223203
55.135 8.492323
55.140 8.365087
55.145 8.282864
55.150 8.314025
55.155 8.423319
55.160 8.078387
55.165 8.249385
55.170 8.19806
55.175 8.337875
55.180 8.807369
55.185 8.988924
55.190 9.443177
55.195 8.783257
55.200 8.363785
55.205 8.801992
55.210 8.718146
55.215 8.783179
55.220 8.516831
55.225 8.133558
55.230 8.745681
55.235 8.777024
55.240 8.550214
55.245 8.715329
55.250 8.71246
55.255 8.86067
55.260 8.999637
55.265 8.549181
55.270 8.2797
55.275 8.129451
55.280 7.841859
55.285 7.591296
55.290 7.233294
55.295 7.358894
55.300 7.804298
55.305 7.938472
55.310 7.919707
55.315 8.069654
55.320 8.514726
55.325 9.204341
55.330 8.809924
55.335 8.580143
55.340 8.835526
55.345 9.201584
55.350 9.500395
55.355 9.374838
55.360 9.153012
55.365 9.176917
55.370 8.620587
55.375 8.462539
55.380 8.267338
55.385 8.102205
55.390 8.222113
55.395 8.378913
55.400 9.012496
55.405 9.297557
55.410 9.228601
55.415 9.079868
55.420 8.996703
55.425 8.732223
55.430 8.681575
55.435 8.430762
55.440 8.429487
55.445 8.027615
55.450 7.749087
55.455 7.758191
55.460 7.883976
55.465 7.611908
55.470 7.757364
55.475 7.99211
55.480 8.297538
55.485 8.384031
55.490 8.985298
55.495 9.078747
55.500 9.495553
55.505 9.447107
55.510 9.595736
55.515 9.955523
55.520 10.032678
55.525 9.361781
55.530 9.127702
55.535 8.725987
55.540 8.332638
55.545 7.977764
55.550 8.034119
55.555 7.772034
55.560 7.533616
55.565 7.68284
55.570 8.013031
55.575 8.500257
55.580 8.237198
55.585 7.996677
55.590 8.171835
55.595 8.382582
55.600 7.908879
55.605 7.454468
55.610 7.481033
55.615 7.673374
55.620 7.915425
55.625 7.952646
55.630 7.959534
55.635 8.1471
55.640 8.050797
55.645 7.888124
55.650 7.650631
55.655 7.521758
55.660 7.639442
55.665 7.778578
55.670 7.756089
55.675 8.001617
55.680 8.284163
55.685 8.541433
55.690 8.492344
55.695 8.450528
55.700 8.214681
55.705 8.405798
55.710 8.407146
55.715 8.126099
55.720 8.043706
55.725 7.949171
55.730 7.748651
55.735 7.527585
55.740 7.611501
55.745 7.378695
55.750 7.347332
55.755 7.293286
55.760 7.136475
55.765 7.439838
55.770 7.471863
55.775 7.674501
55.780 7.993726
55.785 8.132668
55.790 8.248743
55.795 8.307585
55.800 8.355468
55.805 8.410182
55.810 8.289738
55.815 8.113034
55.820 8.146399
55.825 8.132607
55.830 8.451004
55.835 9.100251
55.840 9.556743
55.845 9.701381
55.850 9.740307
55.855 9.456971
55.860 9.648122
55.865 9.192003
55.870 8.72706
55.875 8.061647
55.880 7.840059
55.885 7.711742
55.890 7.53802
55.895 7.314751
55.900 7.610125
55.905 7.737919
55.910 8.024302
55.915 7.997541
55.920 8.2492
55.925 9.190089
55.930 9.26333
55.935 9.55885
55.940 9.192303
55.945 9.227877
55.950 9.428807
55.955 9.193597
55.960 8.603461
55.965 8.140555
55.970 7.553714
55.975 7.499152
55.980 7.195423
55.985 7.389942
55.990 7.247854
55.995 7.179047
56.000 7.387672
56.005 7.617405
56.010 8.081657
56.015 8.418454
56.020 8.58886
56.025 8.529478
56.030 8.380282
56.035 8.2461
56.040 7.901835
56.045 7.499743
56.050 7.21671
56.055 7.364865
56.060 7.871283
56.065 8.229095
56.070 8.285964
56.075 8.291477
56.080 8.45039
56.085 8.408551
56.090 7.940547
56.095 7.609754
56.100 7.479487
56.105 7.68535
56.110 7.809888
56.115 8.13413
56.120 8.17297
56.125 8.140554
56.130 8.426686
56.135 8.802403
56.140 8.763191
56.145 8.469921
56.150 8.145308
56.155 8.367696
56.160 8.415792
56.165 8.405078
56.170 8.478025
56.175 8.382228
56.180 8.433175
56.185 8.193387
56.190 8.209354
56.195 8.111034
56.200 7.722448
56.205 7.526762
56.210 7.606507
56.215 8.090801
56.220 7.987669
56.225 8.023796
56.230 8.34581
56.235 8.933998
56.240 8.94522
56.245 9.078691
56.250 8.610044
56.255 8.727163
56.260 9.098806
56.265 9.334169
56.270 9.156236
56.275 9.14934
56.280 8.989014
56.285 9.178427
56.290 9.361274
56.295 8.859136
56.300 8.178842
56.305 8.17613
56.310 8.429806
56.315 8.463353
56.320 8.348212
56.325 8.295214
56.330 8.612423
56.335 8.849506
56.340 8.861527
56.345 8.923101
56.350 9.181674
56.355 9.520152
56.360 9.41942
56.365 9.47038
56.370 9.584499
56.375 9.497041
56.380 9.225801
56.385 9.241314
56.390 9.034656
56.395 8.956532
56.400 8.822716
56.405 8.469504
56.410 8.202906
56.415 8.372642
56.420 8.222496
56.425 8.640064
56.430 8.510211
56.435 8.712646
56.440 9.149213
56.445 9.426343
56.450 9.707012
56.455 9.990559
56.460 9.782205
56.465 10.341163
56.470 10.037267
56.475 10.188622
56.480 10.117682
56.485 9.806132
56.490 9.69127
56.495 9.749343
56.500 9.54208
56.505 9.357905
56.510 9.133386
56.515 8.966208
56.520 9.098649
56.525 9.442001
56.530 9.414829
56.535 9.635445
56.540 10.21229
56.545 10.348958
56.550 10.718343
56.555 10.214543
56.560 10.023695
56.565 9.708767
56.570 9.70372
56.575 9.595028
56.580 9.601767
56.585 9.846437
56.590 10.420752
56.595 10.550795
56.600 10.87292
56.605 10.531981
56.610 10.651461
56.615 10.624143
56.620 10.639322
56.625 10.31881
56.630 10.267171
56.635 9.702195
56.640 9.612859
56.645 9.330429
56.650 9.177152
56.655 8.9489
56.660 8.933388
56.665 8.931654
56.670 8.857241
56.675 8.561153
56.680 8.510144
56.685 8.589973
56.690 8.952088
56.695 9.441585
56.700 9.769608
56.705 10.256326
56.710 10.67232
56.715 11.131683
56.720 11.351835
56.725 10.97306
56.730 10.666164
56.735 10.508429
56.740 10.503242
56.745 10.071794
56.750 9.51132
56.755 9.658039
56.760 9.736302
56.765 9.476966
56.770 9.612676
56.775 9.615559
56.780 9.886184
56.785 10.068894
56.790 9.986347
56.795 9.734834
56.800 9.919182
56.805 9.727217
56.810 10.06493
56.815 9.90196
56.820 9.324138
56.825 8.814482
56.830 8.575116
56.835 8.188593
56.840 8.046196
56.845 7.686222
56.850 7.923042
56.855 8.296595
56.860 8.620519
56.865 9.008294
56.870 9.369851
56.875 9.674996
56.880 9.572166
56.885 9.430234
56.890 9.08314
56.895 8.694501
56.900 8.543796
56.905 8.179507
56.910 7.824356
56.915 7.667086
56.920 7.395091
56.925 7.675885
56.930 7.708457
56.935 7.818332
56.940 7.467291
56.945 7.560768
56.950 7.596721
56.955 7.916981
56.960 7.659436
56.965 7.352599
56.970 7.798505
56.975 8.317904
56.980 8.731977
56.985 8.826737
56.990 8.726825
56.995 9.017201
57.000 9.503514
57.005 9.084932
57.010 9.253072
57.015 9.132039
57.020 9.270695
57.025 9.476774
57.030 9.368822
57.035 9.271399
57.040 8.961329
57.045 8.235208
57.050 8.337009
57.055 7.867599
57.060 7.525928
57.065 7.659045
57.070 7.666479
57.075 7.890323
57.080 8.152476
57.085 7.986314
57.090 8.153996
57.095 8.177593
57.100 8.236762
57.105 7.942073
57.110 7.864781
57.115 8.104205
57.120 8.012626
57.125 8.007458
57.130 7.867619
57.135 7.343451
57.140 7.430538
57.145 7.607492
57.150 7.505466
57.155 7.34938
57.160 7.33614
57.165 7.768428
57.170 8.063335
57.175 8.005567
57.180 7.701504
57.185 7.664349
57.190 7.77717
57.195 7.428045
57.200 7.011504
57.205 7.075434
57.210 7.123121
57.215 7.202032
57.220 7.424211
57.225 7.606672
57.230 7.837844
57.235 8.011182
57.240 8.224884
57.245 8.03239
57.250 8.113134
57.255 8.147757
57.260 8.394902
57.265 8.412125
57.270 8.183335
57.275 7.871499
57.280 7.677436
57.285 7.159864
57.290 7.045613
57.295 7.150517
57.300 7.003312
57.305 6.828453
57.310 7.105319
57.315 7.401021
57.320 7.453792
57.325 7.411582
57.330 7.304255
57.335 8.005496
57.340 8.806107
57.345 8.871819
57.350 9.277162
57.355 9.367733
57.360 9.326283
57.365 9.362489
57.370 9.043971
57.375 9.016353
57.380 9.287815
57.385 9.378021
57.390 9.548848
57.395 9.83028
57.400 9.947854
57.405 9.706242
57.410 9.197768
57.415 9.130161
57.420 9.233259
57.425 9.442077
57.430 9.35795
57.435 9.650607
57.440 9.650711
57.445 9.786667
57.450 9.222371
57.455 9.022901
57.460 8.799272
57.465 8.656605
57.470 8.39143
57.475 8.248023
57.480 8.103027
57.485 8.393015
57.490 8.204578
57.495 7.932355
57.500 7.862013
57.505 8.173996
57.510 8.495927
57.515 8.277161
57.520 8.034229
57.525 8.19766
57.530 8.170858
57.535 7.706012
57.540 7.247964
57.545 7.156137
57.550 7.135845
57.555 6.932717
57.560 6.755727
57.565 6.880716
57.570 7.364226
57.575 7.574064
57.580 7.775153
57.585 8.220716
57.590 8.738469
57.595 8.885766
57.600 8.834214
57.605 8.40974
57.610 8.304181
57.615 8.082797
57.620 7.967904
57.625 7.694393
57.630 7.816726
57.635 7.860872
57.640 7.934777
57.645 7.696557
57.650 7.770245
57.655 7.932478
57.660 7.932762
57.665 7.580853
57.670 7.35714
57.675 7.645176
57.680 8.310964
57.685 8.663642
57.690 8.497645
57.695 8.036854
57.700 8.13016
57.705 8.386638
57.710 8.586962
57.715 8.175147
57.720 7.568595
57.725 7.691009
57.730 8.218209
57.735 8.571376
57.740 8.292562
57.745 8.15855
57.750 8.18112
57.755 7.934643
57.760 7.448125
57.765 6.96205
57.770 6.655119
57.775 6.950603
57.780 7.009399
57.785 7.378542
57.790 8.03493
57.795 8.531544
57.800 8.815782
57.805 8.911563
57.810 8.723377
57.815 8.322899
57.820 8.126599
57.825 7.907931
57.830 7.718241
57.835 7.630794
57.840 7.420976
57.845 7.589677
57.850 7.452398
57.855 7.150983
57.860 6.972069
57.865 7.23172
57.870 7.551007
57.875 7.773594
57.880 7.629524
57.885 7.776393
57.890 7.848534
57.895 8.3523
57.900 7.968796
57.905 8.126655
57.910 8.238253
57.915 8.200315
57.920 8.119081
57.925 8.055806
57.930 7.860813
57.935 8.259669
57.940 8.020792
57.945 7.706698
57.950 7.858963
57.955 8.315858
57.960 8.585709
57.965 8.813957
57.970 8.65087
57.975 8.646484
57.980 8.809145
57.985 8.969042
57.990 8.581632
57.995 8.300567
58.000 7.978861
58.005 7.824591
58.010 8.122956
58.015 8.423938
58.020 8.300272
58.025 8.434445
58.030 8.323344
58.035 8.469146
58.040 8.675949
58.045 8.3286
58.050 8.228912
58.055 8.152767
58.060 8.155354
58.065 8.561337
58.070 8.597199
58.075 8.251338
58.080 8.493105
58.085 8.142304
58.090 8.015285
58.095 7.770123
58.100 7.565266
58.105 8.026422
58.110 8.371261
58.115 8.272974
58.120 8.617611
58.125 8.663889
58.130 9.043384
58.135 8.839487
58.140 8.858124
58.145 9.46031
58.150 9.650084
58.155 9.95995
58.160 10.331862
58.165 10.340887
58.170 10.372789
58.175 9.982516
58.180 9.206091
58.185 8.929324
58.190 8.581464
58.195 8.359202
58.200 8.166487
58.205 7.861543
58.210 7.815387
58.215 7.822468
58.220 7.572195
58.225 7.458694
58.230 7.429472
58.235 7.8729
58.240 8.175237
58.245 7.91754
58.250 7.777851
58.255 7.971095
58.260 8.072321
58.265 7.856861
58.270 7.768837
58.275 7.899599
58.280 8.398454
58.285 8.618549
58.290 8.89051
58.295 9.356828
58.300 9.727646
58.305 9.521501
58.310 9.248243
58.315 9.491038
58.320 9.906602
58.325 9.76924
58.330 9.502682
58.335 9.191118
58.340 9.160186
58.345 9.165586
58.350 8.562727
58.355 7.915469
58.360 8.086229
58.365 8.099959
58.370 8.557549
58.375 8.760378
58.380 8.633418
58.385 8.472332
58.390 8.501902
58.395 8.187843
58.400 7.983382
58.405 7.631941
58.410 7.551301
58.415 7.976316
58.420 8.365215
58.425 8.197036
58.430 7.803463
58.435 7.408261
58.440 7.616977
58.445 7.71352
58.450 7.550764
58.455 8.160666
58.460 8.59734
58.465 9.067083
58.470 9.086214
58.475 8.757395
58.480 8.753136
58.485 8.601776
58.490 7.861258
58.495 7.475121
58.500 7.344545
58.505 7.319721
58.510 7.523576
58.515 7.063164
58.520 6.827412
58.525 6.906963
58.530 6.771068
58.535 7.099435
58.540 7.5334
58.545 7.27418
58.550 7.509875
58.555 7.764764
58.560 7.857453
58.565 7.989955
58.570 7.759538
58.575 7.791778
58.580 7.752784
58.585 7.934305
58.590 7.991799
58.595 7.935879
58.600 7.75806
58.605 7.714841
58.610 7.700664
58.615 7.982926
58.620 7.763412
58.625 7.735082
58.630 8.275855
58.635 8.399038
58.640 7.997973
58.645 7.889455
58.650 7.809755
58.655 7.934332
58.660 8.276006
58.665 8.187379
58.670 8.339827
58.675 8.709848
58.680 9.030549
58.685 9.186246
58.690 9.069722
58.695 9.187319
58.700 9.322186
58.705 9.344099
58.710 9.0843
58.715 8.915675
58.720 8.949274
58.725 8.735073
58.730 8.09644
58.735 8.096739
58.740 8.292241
58.745 8.924617
58.750 9.246204
