!@!!GADDS PLOTSO FILE: Chi integration type
!@!!Title/SampleName: map-182
!@!!Comment: ?
!@!!User: Bruker Instrument Administrator
!@!!Site: University of Illinois Chicago
!@!!Frame: map-182_01_000.gfrm
!@!!Wavelengths    1.54184   1.54056   1.54439
!@!!Frame angles: 2Theta: 63.000 Omega: 50.000 Phi: 0.000 Chi: 90.000
!@!!Integration range: 2Theta: 53.000 to 73.000  Gamma: -105.000 to -75.000
!@!!Integration method: bin normalized
!@!N
!@!SS
!@!M
!@!L 0.0 0.0 0.0 0.0
!@!XDegrees
!@!YCounts
53.000 8.033829
53.005 8.229805
53.010 8.748953
53.015 9.103942
53.020 8.856477
53.025 9.379475
53.030 9.253604
53.035 9.43002
53.040 9.273705
53.045 8.597192
53.050 8.290501
53.055 8.152308
53.060 7.834884
53.065 7.669889
53.070 7.43448
53.075 7.727612
53.080 8.227734
53.085 8.779234
53.090 8.839307
53.095 9.020848
53.100 9.294887
53.105 9.497206
53.110 9.846121
53.115 9.34744
53.120 9.195112
53.125 9.279911
53.130 8.993236
53.135 8.966152
53.140 8.27769
53.145 8.213364
53.150 8.043306
53.155 8.122203
53.160 8.325131
53.165 7.880537
53.170 8.096929
53.175 8.257256
53.180 8.410695
53.185 8.803552
53.190 8.747087
53.195 8.776212
53.200 9.010858
53.205 9.070112
53.210 9.184524
53.215 9.184422
53.220 9.128022
53.225 9.130289
53.230 9.319534
53.235 9.034337
53.240 8.540196
53.245 8.306248
53.250 8.55163
53.255 8.677222
53.260 8.448013
53.265 8.168161
53.270 8.286618
53.275 8.364612
53.280 8.380233
53.285 8.22179
53.290 8.090536
53.295 8.207741
53.300 8.490499
53.305 8.696247
53.310 8.876692
53.315 8.682663
53.320 8.242062
53.325 8.388979
53.330 8.470639
53.335 8.556273
53.340 8.36492
53.345 8.097141
53.350 8.338111
53.355 8.607871
53.360 8.609932
53.365 8.823361
53.370 9.319428
53.375 9.609174
53.380 9.978422
53.385 10.705104
53.390 10.638739
53.395 10.381876
53.400 9.993353
53.405 9.523459
53.410 9.279374
53.415 8.801354
53.420 8.485404
53.425 8.692163
53.430 8.864851
53.435 8.832549
53.440 9.151423
53.445 9.352252
53.450 9.676261
53.455 9.668611
53.460 9.59734
53.465 9.384747
53.470 9.030006
53.475 8.561937
53.480 8.294986
53.485 7.943168
53.490 7.634185
53.495 7.999356
53.500 7.945957
53.505 8.608349
53.510 9.32468
53.515 9.468825
53.520 9.62718
53.525 9.716317
53.530 9.536929
53.535 9.730988
53.540 9.271736
53.545 8.825393
53.550 8.568282
53.555 8.445009
53.560 8.360664
53.565 8.338476
53.570 8.428309
53.575 8.540772
53.580 8.654929
53.585 8.847226
53.590 8.551126
53.595 8.416822
53.600 8.429891
53.605 8.336455
53.610 8.589124
53.615 9.124332
53.620 9.420608
53.625 9.944849
53.630 10.002878
53.635 9.733854
53.640 10.198445
53.645 9.790848
53.650 9.363555
53.655 9.400891
53.660 9.558147
53.665 9.971085
53.670 10.066401
53.675 10.000745
53.680 10.329465
53.685 10.753277
53.690 10.969722
53.695 10.858881
53.700 10.519592
53.705 10.465447
53.710 10.311156
53.715 9.996833
53.720 9.042245
53.725 8.140795
53.730 8.472666
53.735 8.616466
53.740 8.361764
53.745 8.34007
53.750 8.307406
53.755 9.141848
53.760 9.130273
53.765 8.796852
53.770 8.903419
53.775 9.343089
53.780 9.625037
53.785 9.836466
53.790 10.007383
53.795 10.649324
53.800 10.568086
53.805 10.836782
53.810 10.792113
53.815 10.532274
53.820 10.353015
53.825 10.091084
53.830 9.909207
53.835 9.927526
53.840 9.388243
53.845 9.295441
53.850 9.310843
53.855 8.84961
53.860 8.265256
53.865 7.956921
53.870 7.699888
53.875 8.075426
53.880 8.118864
53.885 8.742007
53.890 9.84869
53.895 10.44386
53.900 10.429894
53.905 10.294088
53.910 10.224793
53.915 10.180464
53.920 9.664264
53.925 9.312941
53.930 9.215515
53.935 9.492682
53.940 10.041063
53.945 10.198312
53.950 10.060141
53.955 10.033434
53.960 9.937429
53.965 10.052834
53.970 9.813549
53.975 9.347359
53.980 9.050799
53.985 8.851378
53.990 8.541524
53.995 8.010511
54.000 7.916848
54.005 7.936294
54.010 8.410143
54.015 8.956432
54.020 9.232704
54.025 9.34749
54.030 9.995672
54.035 10.684729
54.040 11.004181
54.045 10.190562
54.050 9.442652
54.055 9.337291
54.060 9.264096
54.065 8.745244
54.070 8.366043
54.075 8.278895
54.080 8.746991
54.085 9.116069
54.090 8.983204
54.095 9.374252
54.100 9.535711
54.105 9.557826
54.110 9.483199
54.115 9.265429
54.120 9.459867
54.125 9.579007
54.130 9.272276
54.135 9.025519
54.140 8.647405
54.145 8.287671
54.150 8.391833
54.155 8.302516
54.160 8.433577
54.165 8.763651
54.170 9.074916
54.175 9.470588
54.180 9.737947
54.185 9.588907
54.190 9.140705
54.195 8.645852
54.200 7.828944
54.205 7.5053
54.210 7.355801
54.215 7.134358
54.220 7.029962
54.225 7.706737
54.230 7.983062
54.235 8.502321
54.240 8.737683
54.245 8.919592
54.250 9.345071
54.255 9.619302
54.260 9.740639
54.265 10.513903
54.270 10.163738
54.275 9.949073
54.280 9.755116
54.285 9.92673
54.290 9.738479
54.295 9.308999
54.300 8.84999
54.305 8.91083
54.310 8.822004
54.315 8.864596
54.320 8.525098
54.325 8.668286
54.330 8.797515
54.335 8.993321
54.340 9.075563
54.345 9.223397
54.350 9.214298
54.355 9.322518
54.360 9.302378
54.365 9.216718
54.370 9.224809
54.375 8.899886
54.380 8.499586
54.385 8.216885
54.390 8.326757
54.395 8.368596
54.400 8.178544
54.405 8.611127
54.410 9.424289
54.415 9.856756
54.420 9.97172
54.425 10.018269
54.430 9.835459
54.435 9.654856
54.440 8.75499
54.445 8.265018
54.450 8.116024
54.455 8.291762
54.460 8.384132
54.465 8.71551
54.470 9.145984
54.475 9.673185
54.480 9.608587
54.485 9.524365
54.490 9.1022
54.495 8.760968
54.500 8.087081
54.505 7.616405
54.510 7.857453
54.515 8.065974
54.520 8.834576
54.525 8.94899
54.530 9.189676
54.535 9.922215
54.540 10.44103
54.545 10.226663
54.550 10.209661
54.555 10.045851
54.560 9.795638
54.565 9.745739
54.570 9.513849
54.575 9.288668
54.580 9.318155
54.585 9.209831
54.590 9.147672
54.595 9.357914
54.600 9.466279
54.605 9.23886
54.610 8.975855
54.615 8.597941
54.620 8.446437
54.625 8.283441
54.630 8.350593
54.635 8.10611
54.640 8.356079
54.645 8.753434
54.650 8.818288
54.655 9.069436
54.660 8.998798
54.665 9.31854
54.670 9.545659
54.675 8.851437
54.680 8.534183
54.685 8.835359
54.690 8.812716
54.695 9.249226
54.700 9.087427
54.705 9.198915
54.710 9.675967
54.715 9.759842
54.720 9.496652
54.725 9.262353
54.730 8.621509
54.735 8.283096
54.740 8.302907
54.745 8.434345
54.750 8.690548
54.755 8.410493
54.760 8.476696
54.765 8.837811
54.770 9.007874
54.775 9.194417
54.780 9.27023
54.785 9.126343
54.790 9.747074
54.795 9.630739
54.800 9.852655
54.805 9.978674
54.810 9.509647
54.815 9.942088
54.820 10.100359
54.825 10.266014
54.830 10.213208
54.835 9.908591
54.840 9.808336
54.845 10.000666
54.850 9.732742
54.855 9.374918
54.860 9.079638
54.865 9.357449
54.870 9.765564
54.875 9.887694
54.880 9.644817
54.885 9.260106
54.890 9.567992
54.895 10.05517
54.900 10.196233
54.905 9.877718
54.910 9.796813
54.915 9.690073
54.920 9.815814
54.925 9.364994
54.930 9.472328
54.935 9.292964
54.940 9.109735
54.945 9.309187
54.950 10.133738
54.955 10.556281
54.960 10.773342
54.965 10.548308
54.970 11.015492
54.975 11.693682
54.980 11.570662
54.985 11.326668
54.990 11.336891
54.995 11.071326
55.000 10.893207
55.005 11.064793
55.010 10.999286
55.015 11.016834
55.020 10.530695
55.025 10.214503
55.030 10.492578
55.035 10.33678
55.040 9.983332
55.045 9.810174
55.050 9.415271
55.055 9.494683
55.060 9.675591
55.065 9.523817
55.070 9.997752
55.075 10.292168
55.080 10.286713
55.085 10.588572
55.090 10.954697
55.095 11.003839
55.100 10.792762
55.105 10.258347
55.110 9.607537
55.115 9.819294
55.120 9.784619
55.125 9.325845
55.130 9.288452
55.135 9.37606
55.140 9.693293
55.145 9.898085
55.150 9.60755
55.155 9.330416
55.160 9.23125
55.165 9.228008
55.170 9.271838
55.175 9.343549
55.180 9.168298
55.185 9.562456
55.190 10.333487
55.195 10.293002
55.200 9.741425
55.205 9.597945
55.210 9.896955
55.215 10.596498
55.220 10.586889
55.225 10.24647
55.230 10.422931
55.235 10.551158
55.240 10.350824
55.245 9.954033
55.250 9.231347
55.255 8.750641
55.260 8.729391
55.265 9.285348
55.270 9.508162
55.275 9.226213
55.280 8.844271
55.285 9.322167
55.290 9.895868
55.295 9.918365
55.300 9.418449
55.305 9.59178
55.310 10.248248
55.315 10.582436
55.320 10.600493
55.325 10.500396
55.330 10.133589
55.335 9.890121
55.340 9.916988
55.345 9.674477
55.350 9.546405
55.355 9.158485
55.360 8.835796
55.365 8.791306
55.370 8.601922
55.375 8.167045
55.380 7.844134
55.385 7.791008
55.390 8.027527
55.395 8.383459
55.400 8.654589
55.405 8.589813
55.410 8.768299
55.415 8.764569
55.420 8.576886
55.425 8.021453
55.430 7.945596
55.435 8.098854
55.440 8.589877
55.445 8.792139
55.450 9.080818
55.455 9.11429
55.460 9.688389
55.465 10.262532
55.470 10.858664
55.475 10.769581
55.480 10.508524
55.485 10.2237
55.490 10.494682
55.495 9.772524
55.500 9.229855
55.505 8.741931
55.510 8.661348
55.515 9.177254
55.520 9.16597
55.525 9.129824
55.530 9.401034
55.535 9.63247
55.540 9.677827
55.545 9.47376
55.550 9.177512
55.555 9.338916
55.560 9.346071
55.565 9.152904
55.570 8.594417
55.575 8.716821
55.580 9.066082
55.585 9.472613
55.590 9.81615
55.595 9.902245
55.600 10.125334
55.605 10.28458
55.610 10.917926
55.615 10.825694
55.620 10.669197
55.625 10.485419
55.630 10.349315
55.635 10.088498
55.640 9.85802
55.645 9.111523
55.650 8.975995
55.655 8.87886
55.660 8.727407
55.665 8.660686
55.670 8.681807
55.675 8.520907
55.680 8.479331
55.685 8.535323
55.690 8.590874
55.695 9.120536
55.700 8.95953
55.705 8.816093
55.710 8.843045
55.715 9.128285
55.720 9.278543
55.725 9.021621
55.730 8.640897
55.735 8.944853
55.740 9.202111
55.745 9.369122
55.750 9.365434
55.755 9.462405
55.760 9.451136
55.765 9.350672
55.770 9.160496
55.775 9.095021
55.780 9.265405
55.785 9.135221
55.790 8.459267
55.795 8.701485
55.800 8.831244
55.805 8.803451
55.810 8.554748
55.815 7.874592
55.820 8.270028
55.825 8.731281
55.830 8.780882
55.835 9.542185
55.840 10.054606
55.845 10.74197
55.850 11.48971
55.855 11.616575
55.860 11.81846
55.865 11.465929
55.870 10.746778
55.875 10.567552
55.880 10.464233
55.885 9.989439
55.890 9.908456
55.895 9.776753
55.900 9.84363
55.905 10.11328
55.910 9.832577
55.915 9.870209
55.920 9.811491
55.925 9.324503
55.930 9.740228
55.935 9.988364
55.940 10.060298
55.945 10.480745
55.950 10.730236
55.955 10.914005
55.960 10.902685
55.965 10.361654
55.970 9.654638
55.975 9.320769
55.980 8.911594
55.985 8.24716
55.990 8.373852
55.995 8.491008
56.000 8.503473
56.005 8.993073
56.010 9.513034
56.015 9.73634
56.020 9.700172
56.025 9.538564
56.030 9.651274
56.035 9.790526
56.040 9.568455
56.045 8.636998
56.050 8.202978
56.055 8.01855
56.060 7.695966
56.065 7.566338
56.070 7.811735
56.075 8.093583
56.080 8.17944
56.085 8.649465
56.090 9.191938
56.095 9.481608
56.100 9.365266
56.105 9.347315
56.110 9.253408
56.115 9.705356
56.120 9.594895
56.125 9.544918
56.130 9.722604
56.135 9.965757
56.140 9.98565
56.145 10.03336
56.150 9.671794
56.155 9.829515
56.160 9.982511
56.165 10.370589
56.170 10.533389
56.175 10.541617
56.180 10.818495
56.185 11.081544
56.190 11.045733
56.195 10.858652
56.200 10.58891
56.205 10.316908
56.210 10.24591
56.215 9.935438
56.220 9.778996
56.225 9.71267
56.230 9.667815
56.235 9.840175
56.240 9.919209
56.245 10.068196
56.250 10.354404
56.255 10.681319
56.260 10.516457
56.265 10.22798
56.270 9.967024
56.275 9.795429
56.280 9.429405
56.285 9.136168
56.290 9.048828
56.295 9.303405
56.300 9.599689
56.305 9.720504
56.310 9.695327
56.315 9.930947
56.320 10.091987
56.325 9.651427
56.330 9.543355
56.335 9.263351
56.340 8.81831
56.345 8.486737
56.350 8.576674
56.355 8.959835
56.360 9.362288
56.365 9.396961
56.370 9.467398
56.375 10.439251
56.380 10.859379
56.385 10.574982
56.390 10.547522
56.395 10.528217
56.400 10.704776
56.405 10.390063
56.410 9.921662
56.415 10.011459
56.420 10.031436
56.425 9.872115
56.430 10.123234
56.435 10.331422
56.440 10.772389
56.445 10.886292
56.450 10.884611
56.455 11.178955
56.460 10.948195
56.465 10.73019
56.470 10.537725
56.475 10.256361
56.480 10.361173
56.485 10.330313
56.490 10.477456
56.495 10.899232
56.500 11.368701
56.505 11.607746
56.510 12.02788
56.515 12.13683
56.520 12.609725
56.525 12.282616
56.530 12.18147
56.535 11.859394
56.540 11.870116
56.545 11.977679
56.550 12.356277
56.555 11.949719
56.560 12.269386
56.565 12.139878
56.570 12.168615
56.575 11.909183
56.580 11.427011
56.585 11.099361
56.590 10.942872
56.595 10.835819
56.600 11.168845
56.605 10.932511
56.610 11.076267
56.615 11.104573
56.620 11.202255
56.625 11.426205
56.630 11.475547
56.635 11.354613
56.640 11.710991
56.645 11.791221
56.650 11.540328
56.655 11.299614
56.660 11.36449
56.665 11.014338
56.670 11.030465
56.675 11.000298
56.680 11.002436
56.685 11.072618
56.690 10.770321
56.695 10.764159
56.700 10.64086
56.705 10.659831
56.710 10.641269
56.715 10.625597
56.720 10.830478
56.725 11.044426
56.730 10.658887
56.735 10.656533
56.740 9.968934
56.745 9.910691
56.750 10.118494
56.755 10.010438
56.760 10.227201
56.765 10.272083
56.770 10.580693
56.775 10.836014
56.780 10.644977
56.785 10.602257
56.790 10.401869
56.795 10.15449
56.800 10.056001
56.805 9.793295
56.810 9.698345
56.815 9.337461
56.820 8.842505
56.825 8.676545
56.830 8.669174
56.835 8.508192
56.840 8.539401
56.845 8.632749
56.850 8.729261
56.855 9.205164
56.860 9.474718
56.865 9.692615
56.870 9.781379
56.875 9.458485
56.880 9.57654
56.885 9.823175
56.890 9.990442
56.895 9.794968
56.900 10.067628
56.905 10.288113
56.910 10.397603
56.915 10.113662
56.920 9.658332
56.925 9.18094
56.930 9.049652
56.935 8.615344
56.940 8.77489
56.945 9.137787
56.950 9.429608
56.955 9.552867
56.960 9.64448
56.965 9.716246
56.970 9.751966
56.975 9.250535
56.980 8.762597
56.985 8.591087
56.990 8.559093
56.995 9.020565
57.000 9.119127
57.005 9.101932
57.010 9.022269
57.015 9.045156
57.020 9.174151
57.025 9.177425
57.030 8.768712
57.035 8.432799
57.040 8.196795
57.045 8.746392
57.050 9.183606
57.055 9.591275
57.060 9.551468
57.065 9.81339
57.070 10.37452
57.075 10.814386
57.080 10.338874
57.085 9.932597
57.090 9.325457
57.095 9.335704
57.100 9.184446
57.105 9.112698
57.110 9.278808
57.115 9.713904
57.120 9.913205
57.125 9.665308
57.130 9.563391
57.135 9.231466
57.140 8.753017
57.145 8.431053
57.150 8.316475
57.155 8.341537
57.160 8.865565
57.165 8.954723
57.170 9.329977
57.175 9.426788
57.180 9.631637
57.185 9.555612
57.190 9.431635
57.195 9.665999
57.200 9.539661
57.205 9.494075
57.210 9.813654
57.215 10.016507
57.220 10.419155
57.225 10.267784
57.230 9.839395
57.235 10.209291
57.240 10.186384
57.245 9.987485
57.250 9.500333
57.255 9.178944
57.260 9.46278
57.265 9.620874
57.270 9.66177
57.275 9.817096
57.280 9.535637
57.285 9.577952
57.290 9.581843
57.295 9.715542
57.300 9.541907
57.305 9.217877
57.310 8.898159
57.315 9.474228
57.320 9.74369
57.325 9.702128
57.330 9.576095
57.335 9.986771
57.340 9.971382
57.345 9.99397
57.350 9.319736
57.355 8.842624
57.360 8.764834
57.365 8.551179
57.370 8.01334
57.375 8.360866
57.380 8.759989
57.385 9.359466
57.390 9.984259
57.395 9.932868
57.400 9.807318
57.405 9.852834
57.410 9.595449
57.415 9.153308
57.420 8.764793
57.425 8.07902
57.430 8.235352
57.435 8.561292
57.440 8.585049
57.445 8.502259
57.450 8.690214
57.455 8.81687
57.460 9.235863
57.465 9.089222
57.470 9.220557
57.475 9.710969
57.480 9.861175
57.485 9.951365
57.490 9.844724
57.495 9.827018
57.500 10.407509
57.505 10.65395
57.510 10.553321
57.515 10.582022
57.520 10.832612
57.525 11.090614
57.530 11.960348
57.535 11.730122
57.540 11.359881
57.545 11.748797
57.550 11.69413
57.555 11.336544
57.560 11.617369
57.565 10.998635
57.570 10.705227
57.575 10.653726
57.580 10.539268
57.585 10.278293
57.590 9.748676
57.595 9.187861
57.600 9.249142
57.605 9.223907
57.610 9.005287
57.615 9.256
57.620 9.72676
57.625 10.310933
57.630 10.488056
57.635 10.451339
57.640 10.588055
57.645 10.365085
57.650 9.729139
57.655 9.561883
57.660 9.42637
57.665 8.908914
57.670 9.043703
57.675 9.412724
57.680 9.647712
57.685 9.813178
57.690 9.72093
57.695 9.508006
57.700 9.864514
57.705 9.437082
57.710 9.345576
57.715 9.045185
57.720 8.793112
57.725 8.915789
57.730 9.166915
57.735 9.306864
57.740 9.221048
57.745 9.183218
57.750 9.16833
57.755 9.34454
57.760 9.572145
57.765 9.454014
57.770 9.358846
57.775 9.6707
57.780 9.773504
57.785 10.189409
57.790 9.978862
57.795 9.820862
57.800 9.681279
57.805 9.965405
57.810 9.91475
57.815 9.870463
57.820 9.814049
57.825 9.817929
57.830 9.914484
57.835 9.826302
57.840 9.898405
57.845 9.591032
57.850 9.581043
57.855 9.276732
57.860 8.838218
57.865 8.567796
57.870 8.801865
57.875 8.430962
57.880 8.165895
57.885 8.438643
57.890 8.83462
57.895 9.346107
57.900 9.423767
57.905 8.838638
57.910 9.01155
57.915 9.112374
57.920 8.944291
57.925 8.923349
57.930 8.851974
57.935 9.341578
57.940 9.4606
57.945 9.423427
57.950 9.509227
57.955 9.62688
57.960 9.943503
57.965 10.018915
57.970 9.338189
57.975 9.45234
57.980 9.240257
57.985 9.391106
57.990 9.130231
57.995 8.715963
58.000 8.498306
58.005 9.07639
58.010 9.445749
58.015 9.737645
58.020 10.014034
58.025 10.124325
58.030 10.032372
58.035 10.175363
58.040 9.758657
58.045 9.444097
58.050 9.290288
58.055 9.200214
58.060 9.265987
58.065 9.449527
58.070 9.393524
58.075 9.539755
58.080 9.94302
58.085 10.037477
58.090 9.621758
58.095 9.607629
58.100 9.350292
58.105 9.589468
58.110 9.807302
58.115 9.361599
58.120 9.532445
58.125 9.860901
58.130 9.968066
58.135 9.88654
58.140 9.513371
58.145 9.265174
58.150 9.338677
58.155 8.732777
58.160 8.530057
58.165 8.543697
58.170 8.56852
58.175 8.772088
58.180 9.354559
58.185 9.47368
58.190 9.669602
58.195 9.394867
58.200 9.633437
58.205 9.848062
58.210 9.7899
58.215 9.380716
58.220 9.16253
58.225 8.704604
58.230 8.843256
58.235 8.552387
58.240 8.500299
58.245 8.070147
58.250 8.25369
58.255 8.474986
58.260 8.608462
58.265 8.542785
58.270 8.498524
58.275 8.474372
58.280 9.12044
58.285 9.312404
58.290 10.087499
58.295 10.622957
58.300 10.800611
58.305 11.197522
58.310 11.343351
58.315 11.177839
58.320 10.792855
58.325 10.238339
58.330 9.991918
58.335 9.735641
58.340 9.569258
58.345 9.30884
58.350 9.038526
58.355 9.297638
58.360 9.462912
58.365 9.913583
58.370 10.330462
58.375 10.339087
58.380 10.599183
58.385 11.314307
58.390 11.169642
58.395 10.826212
58.400 10.554272
58.405 10.637573
58.410 10.59514
58.415 10.730554
58.420 9.876255
58.425 9.468502
58.430 9.172112
58.435 9.148479
58.440 8.888787
58.445 8.856503
58.450 8.768696
58.455 9.052876
58.460 9.96009
58.465 10.466339
58.470 10.484
58.475 10.649209
58.480 10.6889
58.485 10.613157
58.490 10.232352
58.495 9.957729
58.500 10.169957
58.505 10.611032
58.510 10.331676
58.515 10.496787
58.520 10.483097
58.525 10.588661
58.530 10.408799
58.535 9.83227
58.540 9.388382
58.545 9.776045
58.550 9.774029
58.555 9.806706
58.560 10.059975
58.565 10.396732
58.570 10.158857
58.575 9.945906
58.580 9.993434
58.585 9.913074
58.590 9.695951
58.595 9.421231
58.600 9.13824
58.605 9.722559
58.610 9.718595
58.615 9.249291
58.620 9.342736
58.625 9.617079
58.630 10.153738
58.635 10.348111
58.640 10.074821
58.645 10.119158
58.650 10.390111
58.655 10.135634
58.660 10.203893
58.665 10.227928
58.670 10.16046
58.675 10.036585
