!@!!GADDS PLOTSO FILE: Chi integration type
!@!!Title/SampleName: map-176
!@!!Comment: ?
!@!!User: Bruker Instrument Administrator
!@!!Site: University of Illinois Chicago
!@!!Frame: map-176_01_000.gfrm
!@!!Wavelengths    1.54184   1.54056   1.54439
!@!!Frame angles: 2Theta: 63.000 Omega: 50.000 Phi: 0.000 Chi: 90.000
!@!!Integration range: 2Theta: 53.000 to 73.000  Gamma: -105.000 to -75.000
!@!!Integration method: bin normalized
!@!N
!@!SS
!@!M
!@!L 0.0 0.0 0.0 0.0
!@!XDegrees
!@!YCounts
53.000 5.868818
53.005 6.028294
53.010 5.956438
53.015 5.752488
53.020 6.193295
53.025 6.060477
53.030 5.840635
53.035 6.091098
53.040 6.145758
53.045 6.1812
53.050 6.221771
53.055 6.254651
53.060 6.60036
53.065 6.531483
53.070 6.430259
53.075 6.872763
53.080 7.48325
53.085 7.637897
53.090 7.598919
53.095 7.621682
53.100 7.412434
53.105 6.984517
53.110 6.78943
53.115 6.226139
53.120 6.000363
53.125 5.888876
53.130 6.16481
53.135 6.322776
53.140 6.497759
53.145 6.522886
53.150 6.595261
53.155 6.622537
53.160 6.433137
53.165 6.013217
53.170 5.97029
53.175 5.881266
53.180 6.201344
53.185 6.010785
53.190 6.183307
53.195 6.48398
53.200 6.84373
53.205 6.795913
53.210 6.827787
53.215 6.691031
53.220 6.854413
53.225 6.881449
53.230 6.385874
53.235 6.475233
53.240 6.846674
53.245 7.005863
53.250 7.29209
53.255 7.54981
53.260 7.723387
53.265 7.93395
53.270 7.47243
53.275 6.9177
53.280 6.558276
53.285 5.93061
53.290 5.233494
53.295 4.894725
53.300 4.875051
53.305 5.243753
53.310 5.486452
53.315 5.609406
53.320 5.938751
53.325 6.270207
53.330 6.775976
53.335 6.795698
53.340 6.869019
53.345 6.70067
53.350 6.93196
53.355 6.99689
53.360 6.927331
53.365 7.008541
53.370 6.961734
53.375 6.713568
53.380 6.606292
53.385 6.328421
53.390 6.245949
53.395 6.034302
53.400 5.604614
53.405 5.547906
53.410 5.799098
53.415 6.209366
53.420 6.153497
53.425 6.401208
53.430 6.351008
53.435 6.642256
53.440 7.038368
53.445 7.143786
53.450 6.992463
53.455 7.302023
53.460 7.127957
53.465 7.205317
53.470 6.947436
53.475 6.363494
53.480 6.093146
53.485 5.915854
53.490 6.032524
53.495 5.972092
53.500 6.068364
53.505 6.332602
53.510 6.514265
53.515 6.538621
53.520 6.56496
53.525 6.528648
53.530 6.578415
53.535 6.686053
53.540 6.554724
53.545 6.383026
53.550 6.397988
53.555 6.257624
53.560 5.985389
53.565 5.889458
53.570 5.929698
53.575 6.234967
53.580 6.131591
53.585 6.030872
53.590 6.010562
53.595 6.564703
53.600 6.496423
53.605 6.250494
53.610 6.334329
53.615 6.291994
53.620 6.393065
53.625 6.486416
53.630 6.09755
53.635 6.102232
53.640 5.573499
53.645 5.601031
53.650 5.917211
53.655 5.993538
53.660 6.188797
53.665 6.182062
53.670 6.648008
53.675 7.07919
53.680 6.991867
53.685 6.875858
53.690 6.785484
53.695 6.454657
53.700 6.25623
53.705 5.942743
53.710 5.788863
53.715 6.039557
53.720 6.099786
53.725 6.1024
53.730 6.579342
53.735 6.643622
53.740 6.933308
53.745 7.188773
53.750 7.394797
53.755 7.138465
53.760 7.254253
53.765 7.193727
53.770 7.502639
53.775 7.167689
53.780 6.740728
53.785 6.687232
53.790 6.676876
53.795 6.665359
53.800 6.607247
53.805 6.335207
53.810 6.659351
53.815 6.571488
53.820 6.437853
53.825 6.531086
53.830 6.481592
53.835 6.652278
53.840 6.712391
53.845 6.619858
53.850 7.052702
53.855 7.496019
53.860 7.798989
53.865 7.71464
53.870 7.350417
53.875 7.444002
53.880 7.248168
53.885 6.975304
53.890 7.004024
53.895 6.760367
53.900 6.583707
53.905 6.726298
53.910 7.031353
53.915 7.102678
53.920 7.085336
53.925 6.727024
53.930 6.62421
53.935 6.916779
53.940 6.975944
53.945 6.756998
53.950 6.606714
53.955 6.326359
53.960 6.504108
53.965 6.718166
53.970 6.649198
53.975 6.422941
53.980 6.412907
53.985 6.303105
53.990 6.217194
53.995 6.026822
54.000 6.221075
54.005 6.59517
54.010 6.581254
54.015 6.705006
54.020 7.056857
54.025 7.201021
54.030 7.172534
54.035 6.701375
54.040 6.611809
54.045 6.86142
54.050 7.024937
54.055 6.633333
54.060 6.588149
54.065 6.648359
54.070 6.905559
54.075 6.668911
54.080 6.401313
54.085 6.444438
54.090 6.36101
54.095 6.311003
54.100 6.037709
54.105 6.071129
54.110 6.235005
54.115 6.32643
54.120 6.174621
54.125 6.462595
54.130 6.943882
54.135 6.747833
54.140 6.643193
54.145 6.811681
54.150 7.052344
54.155 7.593618
54.160 7.81214
54.165 7.688278
54.170 7.433223
54.175 7.180314
54.180 6.916716
54.185 6.586096
54.190 6.035131
54.195 5.822258
54.200 6.030455
54.205 6.655446
54.210 7.214574
54.215 7.369554
54.220 7.407571
54.225 7.455114
54.230 7.683566
54.235 7.851855
54.240 7.552792
54.245 7.423672
54.250 7.430218
54.255 7.363198
54.260 7.380555
54.265 7.231095
54.270 7.027969
54.275 7.329665
54.280 7.155709
54.285 7.289342
54.290 7.121617
54.295 6.940798
54.300 6.791523
54.305 7.059513
54.310 6.592916
54.315 6.531821
54.320 6.734879
54.325 6.905526
54.330 7.169122
54.335 7.201855
54.340 7.297108
54.345 7.552643
54.350 7.596101
54.355 7.606637
54.360 7.96119
54.365 8.189611
54.370 7.652007
54.375 7.66767
54.380 7.620523
54.385 7.505483
54.390 7.154909
54.395 6.691471
54.400 6.588278
54.405 7.023906
54.410 7.059171
54.415 7.203899
54.420 7.054671
54.425 6.996195
54.430 6.718748
54.435 6.561104
54.440 6.498171
54.445 6.219314
54.450 6.334144
54.455 6.302983
54.460 6.7295
54.465 6.909718
54.470 6.926733
54.475 7.176117
54.480 7.069631
54.485 7.124316
54.490 7.486347
54.495 7.653675
54.500 7.942953
54.505 7.557308
54.510 7.009053
54.515 6.918314
54.520 6.871542
54.525 7.223952
54.530 6.668458
54.535 6.364984
54.540 6.580972
54.545 7.044701
54.550 6.844674
54.555 6.724663
54.560 6.301727
54.565 6.460437
54.570 6.524015
54.575 6.423913
54.580 6.526628
54.585 6.453222
54.590 6.111441
54.595 6.041062
54.600 5.956233
54.605 6.402687
54.610 6.895865
54.615 7.144448
54.620 7.140863
54.625 7.332672
54.630 7.400705
54.635 7.47965
54.640 6.79646
54.645 6.039559
54.650 5.855608
54.655 6.020585
54.660 5.991852
54.665 5.791627
54.670 5.886184
54.675 6.072722
54.680 6.061026
54.685 5.966245
54.690 6.140591
54.695 6.211705
54.700 6.374273
54.705 6.162146
54.710 6.465742
54.715 6.9076
54.720 7.288812
54.725 7.16911
54.730 7.339169
54.735 7.448956
54.740 7.531016
54.745 7.466781
54.750 7.325799
54.755 7.447684
54.760 7.476373
54.765 7.125542
54.770 7.261767
54.775 7.236796
54.780 7.047148
54.785 6.85459
54.790 6.282279
54.795 6.367537
54.800 6.45154
54.805 6.70487
54.810 6.795364
54.815 6.561533
54.820 6.82296
54.825 6.89399
54.830 7.175842
54.835 7.38618
54.840 7.263228
54.845 7.404334
54.850 7.581007
54.855 7.297793
54.860 7.395673
54.865 7.012955
54.870 6.878074
54.875 6.975688
54.880 7.229238
54.885 7.554846
54.890 8.075403
54.895 8.278869
54.900 8.172693
54.905 7.879064
54.910 7.694984
54.915 7.809782
54.920 7.135672
54.925 6.748683
54.930 6.67612
54.935 6.716465
54.940 6.734468
54.945 6.342669
54.950 6.288373
54.955 6.643747
54.960 6.699586
54.965 6.658933
54.970 6.546028
54.975 6.839597
54.980 6.923275
54.985 7.020344
54.990 7.049063
54.995 7.278547
55.000 7.730629
55.005 7.786194
55.010 7.674403
55.015 7.500998
55.020 7.011459
55.025 7.079925
55.030 7.09392
55.035 6.826688
55.040 6.651597
55.045 6.541207
55.050 6.828487
55.055 7.143039
55.060 7.221979
55.065 7.008612
55.070 7.118161
55.075 7.44838
55.080 7.582031
55.085 7.764387
55.090 7.806169
55.095 7.940903
55.100 8.191653
55.105 8.271677
55.110 8.135136
55.115 8.046002
55.120 7.854655
55.125 7.638034
55.130 7.534741
55.135 7.855726
55.140 8.08944
55.145 8.249195
55.150 8.223144
55.155 8.350911
55.160 8.626605
55.165 8.21475
55.170 7.461683
55.175 7.340826
55.180 7.126072
55.185 6.978715
55.190 7.053394
55.195 6.910562
55.200 7.096895
55.205 7.072926
55.210 6.895586
55.215 7.092814
55.220 7.264347
55.225 7.310417
55.230 7.319168
55.235 7.47401
55.240 7.508102
55.245 7.753216
55.250 7.802701
55.255 7.227281
55.260 7.054101
55.265 7.08605
55.270 7.398207
55.275 7.737226
55.280 7.639602
55.285 7.819971
55.290 8.005099
55.295 8.324687
55.300 8.286369
55.305 8.150568
55.310 8.035455
55.315 7.853572
55.320 7.934203
55.325 8.470296
55.330 8.013051
55.335 8.010232
55.340 7.976403
55.345 7.922714
55.350 7.967546
55.355 7.747987
55.360 7.365339
55.365 7.590223
55.370 7.232163
55.375 6.845577
55.380 6.853126
55.385 6.474544
55.390 6.889546
55.395 7.067324
55.400 7.15589
55.405 7.291405
55.410 7.331771
55.415 7.553655
55.420 7.478072
55.425 6.696777
55.430 6.505142
55.435 6.228507
55.440 6.760373
55.445 7.094672
55.450 6.99041
55.455 7.287232
55.460 7.39767
55.465 6.933653
55.470 6.884541
55.475 6.65313
55.480 6.632725
55.485 6.714036
55.490 6.434422
55.495 6.747177
55.500 7.249603
55.505 7.707148
55.510 8.036568
55.515 7.785487
55.520 7.674096
55.525 7.915215
55.530 7.833596
55.535 7.347523
55.540 6.64612
55.545 6.16562
55.550 6.163264
55.555 6.685531
55.560 6.719993
55.565 6.642764
55.570 6.942453
55.575 7.072111
55.580 6.862354
55.585 7.511718
55.590 7.311256
55.595 7.367469
55.600 7.330346
55.605 7.213372
55.610 7.115065
55.615 7.029036
55.620 6.309937
55.625 6.171382
55.630 5.980417
55.635 5.929267
55.640 6.557902
55.645 6.775893
55.650 7.182919
55.655 7.391121
55.660 7.3838
55.665 7.605452
55.670 7.244504
55.675 7.029599
55.680 6.904238
55.685 6.416548
55.690 6.307404
55.695 5.991744
55.700 6.008441
55.705 6.107377
55.710 5.9726
55.715 6.070007
55.720 6.480411
55.725 6.418431
55.730 6.765816
55.735 7.024756
55.740 7.380535
55.745 7.302149
55.750 7.211953
55.755 7.350829
55.760 7.690958
55.765 7.462246
55.770 6.952001
55.775 6.766533
55.780 6.741117
55.785 6.652109
55.790 6.642908
55.795 6.680942
55.800 6.993943
55.805 7.167201
55.810 7.356353
55.815 7.414252
55.820 7.394768
55.825 7.099124
55.830 6.544917
55.835 6.667592
55.840 7.240561
55.845 6.936386
55.850 7.299313
55.855 7.449374
55.860 7.380569
55.865 7.646277
55.870 7.581904
55.875 7.757543
55.880 8.268621
55.885 8.129128
55.890 8.140089
55.895 8.232365
55.900 8.34628
55.905 8.356891
55.910 8.079782
55.915 7.872107
55.920 7.80938
55.925 7.967071
55.930 8.138506
55.935 7.914949
55.940 7.773797
55.945 8.19518
55.950 8.249229
55.955 7.95597
55.960 7.676394
55.965 7.593921
55.970 7.762197
55.975 7.392557
55.980 7.188323
55.985 7.431297
55.990 7.650455
55.995 7.561446
56.000 7.544561
56.005 7.178456
56.010 6.863984
56.015 6.446725
56.020 6.215906
56.025 6.450393
56.030 6.294326
56.035 6.230208
56.040 6.241171
56.045 6.25307
56.050 6.093688
56.055 6.475489
56.060 6.323376
56.065 6.504719
56.070 6.323121
56.075 6.711964
56.080 7.003239
56.085 6.868374
56.090 6.679327
56.095 6.489419
56.100 6.456725
56.105 6.395976
56.110 6.389791
56.115 6.372838
56.120 6.544103
56.125 6.420317
56.130 6.352248
56.135 6.337309
56.140 6.251919
56.145 6.123131
56.150 6.491766
56.155 6.483675
56.160 6.673861
56.165 6.993537
56.170 7.537907
56.175 7.935962
56.180 7.92995
56.185 7.700141
56.190 7.576097
56.195 7.77336
56.200 7.69933
56.205 7.177504
56.210 7.140557
56.215 7.831888
56.220 8.074065
56.225 8.44631
56.230 8.241294
56.235 8.351592
56.240 8.890005
56.245 8.792192
56.250 8.152534
56.255 8.173763
56.260 8.17546
56.265 8.301924
56.270 8.43952
56.275 7.999867
56.280 7.66324
56.285 7.175679
56.290 7.330695
56.295 7.338525
56.300 7.267604
56.305 7.34801
56.310 7.590032
56.315 7.838562
56.320 8.376318
56.325 8.1974
56.330 8.115096
56.335 7.904919
56.340 7.75181
56.345 7.806699
56.350 7.868632
56.355 7.692775
56.360 7.553436
56.365 7.418219
56.370 7.680144
56.375 7.948831
56.380 8.08107
56.385 8.05435
56.390 7.805393
56.395 7.773312
56.400 8.386817
56.405 8.568417
56.410 7.904688
56.415 8.009329
56.420 8.591963
56.425 9.027494
56.430 9.15911
56.435 8.625587
56.440 8.477262
56.445 8.960128
56.450 8.979067
56.455 8.574332
56.460 8.42983
56.465 8.072685
56.470 7.988281
56.475 7.99018
56.480 7.7518
56.485 7.639909
56.490 7.889274
56.495 8.391551
56.500 8.654316
56.505 8.70745
56.510 8.751756
56.515 8.863424
56.520 9.181775
56.525 9.013849
56.530 8.465931
56.535 8.317193
56.540 8.057558
56.545 7.892234
56.550 7.742194
56.555 7.663044
56.560 7.634051
56.565 8.069425
56.570 8.981817
56.575 9.724933
56.580 9.85871
56.585 9.8781
56.590 9.397791
56.595 8.998719
56.600 8.449591
56.605 7.725654
56.610 7.168056
56.615 7.385458
56.620 7.706752
56.625 7.996901
56.630 8.001805
56.635 7.960611
56.640 8.405987
56.645 8.423205
56.650 8.046528
56.655 7.7684
56.660 8.096515
56.665 8.042875
56.670 8.175786
56.675 8.067357
56.680 8.461099
56.685 8.470007
56.690 8.329064
56.695 8.178811
56.700 8.251657
56.705 8.380382
56.710 8.377473
56.715 8.047318
56.720 8.060011
56.725 8.125709
56.730 8.682076
56.735 8.712659
56.740 8.347421
56.745 8.210816
56.750 8.397827
56.755 8.359269
56.760 8.104438
56.765 7.566549
56.770 7.450194
56.775 7.184284
56.780 7.007423
56.785 6.841851
56.790 6.964455
56.795 7.068592
56.800 7.062992
56.805 7.622283
56.810 8.18915
56.815 8.175249
56.820 8.259592
56.825 8.364447
56.830 8.53054
56.835 8.424512
56.840 8.178329
56.845 8.085991
56.850 8.378735
56.855 8.085755
56.860 7.788182
56.865 7.498369
56.870 7.444883
56.875 7.169762
56.880 6.895133
56.885 6.897063
56.890 7.405182
56.895 7.722965
56.900 7.74287
56.905 8.052273
56.910 8.021909
56.915 7.977311
56.920 7.943154
56.925 7.522118
56.930 7.334821
56.935 7.163008
56.940 6.825588
56.945 7.089511
56.950 7.04283
56.955 6.963178
56.960 6.640616
56.965 6.92753
56.970 7.479246
56.975 7.603017
56.980 7.958607
56.985 8.20722
56.990 8.57444
56.995 8.851821
57.000 8.754623
57.005 8.252024
57.010 8.292727
57.015 7.986127
57.020 7.679496
57.025 7.670028
57.030 7.827453
57.035 7.791664
57.040 8.210407
57.045 8.216714
57.050 8.476216
57.055 8.623303
57.060 8.364473
57.065 8.257299
57.070 8.089828
57.075 7.844182
57.080 7.605893
57.085 7.362934
57.090 7.298067
57.095 7.29263
57.100 7.385883
57.105 7.699371
57.110 7.835679
57.115 8.03516
57.120 8.029976
57.125 8.105558
57.130 7.934347
57.135 7.391109
57.140 7.195305
57.145 7.12958
57.150 7.136357
57.155 7.282552
57.160 7.451658
57.165 7.791037
57.170 8.437851
57.175 9.240244
57.180 9.266128
57.185 9.660291
57.190 9.425338
57.195 9.357033
57.200 9.315373
57.205 8.919645
57.210 8.163404
57.215 8.130219
57.220 7.532106
57.225 7.667914
57.230 7.561095
57.235 7.252812
57.240 7.138281
57.245 7.052036
57.250 6.864459
57.255 7.047986
57.260 7.105742
57.265 7.199574
57.270 7.537904
57.275 8.180099
57.280 9.353101
57.285 9.916636
57.290 9.677242
57.295 9.609695
57.300 9.758646
57.305 9.051403
57.310 8.459374
57.315 8.127792
57.320 8.06817
57.325 8.304308
57.330 8.141253
57.335 8.003096
57.340 8.207028
57.345 7.930459
57.350 7.201056
57.355 7.001944
57.360 6.584204
57.365 6.640499
57.370 6.609703
57.375 6.705392
57.380 6.721058
57.385 6.812571
57.390 6.771755
57.395 7.050672
57.400 7.162938
57.405 7.650124
57.410 7.950537
57.415 8.063706
57.420 8.01431
57.425 8.227576
57.430 8.168877
57.435 8.108949
57.440 7.620244
57.445 7.431018
57.450 7.250778
57.455 7.476184
57.460 7.691967
57.465 7.830313
57.470 8.17596
57.475 8.150072
57.480 8.08157
57.485 8.491459
57.490 8.137678
57.495 7.941154
57.500 7.650909
57.505 7.206612
57.510 7.312502
57.515 7.29899
57.520 7.082219
57.525 7.092133
57.530 6.708667
57.535 6.858602
57.540 7.241329
57.545 7.282827
57.550 7.684225
57.555 7.957993
57.560 8.310737
57.565 8.622904
57.570 8.65463
57.575 8.425784
57.580 8.503677
57.585 8.043305
57.590 7.946975
57.595 7.771882
57.600 7.691248
57.605 7.985227
57.610 8.304844
57.615 8.492389
57.620 9.003457
57.625 8.952081
57.630 8.855701
57.635 8.760336
57.640 8.38155
57.645 8.047824
57.650 7.770556
57.655 7.695507
57.660 7.497741
57.665 7.613697
57.670 7.641011
57.675 7.678259
57.680 7.933571
57.685 7.76481
57.690 7.313479
57.695 7.307961
57.700 7.169141
57.705 7.056825
57.710 6.695916
57.715 6.422233
57.720 6.826325
57.725 7.175532
57.730 7.074028
57.735 7.049789
57.740 7.022171
57.745 7.27821
57.750 7.626317
57.755 7.253976
57.760 7.350096
57.765 7.251027
57.770 7.096351
57.775 7.317567
57.780 7.201605
57.785 6.850327
57.790 7.058301
57.795 6.980453
57.800 7.09123
57.805 7.274816
57.810 7.410698
57.815 7.510972
57.820 7.64561
57.825 7.431311
57.830 7.395014
57.835 7.542292
57.840 7.486608
57.845 7.253418
57.850 6.890999
57.855 6.769322
57.860 6.785385
57.865 7.260862
57.870 7.720799
57.875 7.639942
57.880 7.900949
57.885 8.178436
57.890 8.362896
57.895 8.268488
57.900 7.975502
57.905 7.523256
57.910 7.26366
57.915 7.058123
57.920 7.11109
57.925 7.145143
57.930 7.350285
57.935 7.417966
57.940 7.77436
57.945 8.193479
57.950 8.067925
57.955 8.030789
57.960 7.857728
57.965 7.541078
57.970 7.420977
57.975 7.154304
57.980 6.795193
57.985 6.619775
57.990 6.434994
57.995 6.824339
58.000 7.075212
58.005 7.179573
58.010 7.502785
58.015 7.969521
58.020 8.322983
58.025 8.511831
58.030 8.129759
58.035 7.982883
58.040 7.581197
58.045 7.022975
58.050 6.781513
58.055 7.316992
58.060 7.433963
58.065 7.809252
58.070 8.070711
58.075 8.143431
58.080 7.993965
58.085 7.695828
58.090 7.127986
58.095 7.035295
58.100 6.738259
58.105 6.496669
58.110 6.817968
58.115 7.155377
58.120 7.291685
58.125 7.083765
58.130 6.705985
58.135 6.827351
58.140 6.749326
58.145 6.446198
58.150 6.215817
58.155 6.412969
58.160 6.715594
58.165 6.731339
58.170 6.585594
58.175 6.886279
58.180 7.449647
58.185 7.898836
58.190 7.796386
58.195 7.322244
58.200 7.563593
58.205 7.68335
58.210 7.282642
58.215 7.132435
58.220 7.15104
58.225 7.387688
58.230 7.774366
58.235 7.827776
58.240 7.941679
58.245 8.114298
58.250 8.240858
58.255 8.266289
58.260 8.109566
58.265 8.213732
58.270 8.208103
58.275 8.591043
58.280 8.704427
58.285 8.361864
58.290 8.110926
58.295 8.373361
58.300 8.084351
58.305 7.931935
58.310 7.860672
58.315 7.940283
58.320 7.8929
58.325 7.978222
58.330 8.095151
58.335 8.403251
58.340 8.240145
58.345 7.992586
58.350 7.915144
58.355 7.848422
58.360 7.597345
58.365 7.44503
58.370 7.296919
58.375 7.684924
58.380 7.745295
58.385 7.632068
58.390 7.675796
58.395 7.694204
58.400 7.668417
58.405 7.963385
58.410 7.487556
58.415 7.297056
58.420 7.464621
58.425 7.392153
58.430 7.631993
58.435 7.726659
58.440 7.769776
58.445 8.227057
58.450 8.249979
58.455 8.209017
58.460 8.296477
58.465 8.241371
58.470 8.162832
58.475 8.160512
58.480 7.811705
58.485 7.743849
58.490 7.66656
58.495 7.749144
58.500 7.409986
58.505 7.323267
58.510 7.16858
58.515 7.578828
58.520 7.565476
58.525 7.481658
58.530 7.474242
58.535 7.814237
58.540 7.622878
58.545 7.365916
58.550 6.609526
58.555 6.745236
58.560 7.031501
58.565 7.38479
58.570 7.437545
58.575 7.622006
58.580 7.707516
58.585 7.97575
58.590 7.942673
58.595 7.583341
58.600 7.223348
58.605 6.863312
58.610 6.540747
58.615 6.512793
58.620 6.601934
58.625 7.113909
58.630 7.652581
58.635 7.896122
58.640 8.390192
58.645 8.757568
58.650 9.047935
58.655 9.083115
58.660 8.325274
58.665 7.736457
58.670 7.28511
58.675 6.864677
58.680 6.837467
58.685 6.861698
58.690 6.665131
58.695 7.304651
58.700 7.28056
58.705 7.057003
58.710 7.197948
58.715 7.564237
58.720 7.432155
58.725 7.612582
58.730 7.615954
58.735 8.108692
58.740 8.823592
58.745 8.872795
58.750 8.435834
58.755 8.523782
58.760 8.544152
58.765 8.44416
