!@!!GADDS PLOTSO FILE: Chi integration type
!@!!Title/SampleName: map-118
!@!!Comment: ?
!@!!User: Bruker Instrument Administrator
!@!!Site: University of Illinois Chicago
!@!!Frame: map-118_01_000.gfrm
!@!!Wavelengths    1.54184   1.54056   1.54439
!@!!Frame angles: 2Theta: 63.000 Omega: 50.000 Phi: 0.000 Chi: 90.000
!@!!Integration range: 2Theta: 53.000 to 73.000  Gamma: -105.000 to -75.000
!@!!Integration method: bin normalized
!@!N
!@!SS
!@!M
!@!L 0.0 0.0 0.0 0.0
!@!XDegrees
!@!YCounts
53.000 7.922877
53.005 7.731983
53.010 7.348463
53.015 6.840648
53.020 6.983587
53.025 7.12369
53.030 7.244741
53.035 7.059486
53.040 7.195763
53.045 7.635386
53.050 7.897387
53.055 7.412197
53.060 7.057038
53.065 7.095182
53.070 6.905626
53.075 6.788059
53.080 6.400177
53.085 6.642075
53.090 6.991415
53.095 7.174807
53.100 7.764739
53.105 7.993961
53.110 8.270222
53.115 8.376594
53.120 8.078289
53.125 8.479901
53.130 8.513518
53.135 8.467315
53.140 8.416608
53.145 8.179864
53.150 8.355662
53.155 8.557257
53.160 8.156147
53.165 7.793568
53.170 7.953698
53.175 8.01052
53.180 7.892864
53.185 7.50503
53.190 7.212395
53.195 7.477264
53.200 7.189938
53.205 6.857903
53.210 6.785582
53.215 7.264672
53.220 7.634699
53.225 7.87562
53.230 7.955979
53.235 7.999519
53.240 8.067097
53.245 8.111841
53.250 7.548111
53.255 7.424982
53.260 7.301689
53.265 6.971581
53.270 6.955675
53.275 6.899795
53.280 7.095331
53.285 7.436932
53.290 7.071664
53.295 6.905222
53.300 6.927085
53.305 7.489171
53.310 7.54153
53.315 7.717994
53.320 7.622002
53.325 7.452201
53.330 7.664029
53.335 7.530181
53.340 7.245613
53.345 7.40238
53.350 6.860221
53.355 7.066279
53.360 7.452425
53.365 7.270426
53.370 7.239776
53.375 6.891011
53.380 6.851825
53.385 7.448331
53.390 7.700392
53.395 7.717328
53.400 7.947122
53.405 8.122621
53.410 8.471666
53.415 8.404483
53.420 8.536464
53.425 8.459145
53.430 8.820396
53.435 9.005019
53.440 9.19589
53.445 9.068435
53.450 9.368094
53.455 9.223072
53.460 8.937434
53.465 8.646621
53.470 8.284232
53.475 7.688788
53.480 7.198516
53.485 6.443189
53.490 6.38761
53.495 6.413345
53.500 6.835029
53.505 6.844034
53.510 7.057384
53.515 7.612154
53.520 7.961903
53.525 8.157977
53.530 7.81425
53.535 7.87736
53.540 8.011436
53.545 8.016457
53.550 8.178316
53.555 8.133265
53.560 7.991487
53.565 8.067334
53.570 7.974241
53.575 7.868947
53.580 7.919158
53.585 8.051071
53.590 8.252328
53.595 8.297701
53.600 8.483135
53.605 8.875101
53.610 8.918658
53.615 8.406343
53.620 8.444078
53.625 8.673365
53.630 8.539173
53.635 8.410268
53.640 8.179655
53.645 8.421492
53.650 8.465399
53.655 7.615915
53.660 7.144695
53.665 7.210886
53.670 7.090937
53.675 6.98629
53.680 6.950117
53.685 6.967933
53.690 7.724677
53.695 8.047761
53.700 8.104911
53.705 8.158491
53.710 8.473803
53.715 8.690916
53.720 8.873391
53.725 8.833138
53.730 9.141432
53.735 9.202775
53.740 9.456903
53.745 9.467081
53.750 9.581248
53.755 9.755649
53.760 9.905404
53.765 9.764779
53.770 9.375162
53.775 9.108269
53.780 8.76356
53.785 8.514766
53.790 8.555921
53.795 7.986159
53.800 7.857351
53.805 8.267707
53.810 8.468421
53.815 8.661303
53.820 8.744321
53.825 8.803657
53.830 9.307911
53.835 9.48797
53.840 9.25569
53.845 9.273434
53.850 9.486909
53.855 9.277873
53.860 9.083101
53.865 9.184349
53.870 9.303686
53.875 10.018015
53.880 10.236296
53.885 10.163025
53.890 10.329498
53.895 10.29896
53.900 10.038835
53.905 9.786526
53.910 9.288359
53.915 8.97004
53.920 8.79123
53.925 8.333985
53.930 7.984138
53.935 8.144607
53.940 8.058837
53.945 8.162051
53.950 8.424217
53.955 8.778953
53.960 8.98197
53.965 9.189711
53.970 8.903237
53.975 8.825906
53.980 8.733541
53.985 8.397001
53.990 7.84525
53.995 8.556122
54.000 8.476002
54.005 8.343818
54.010 8.337254
54.015 8.509405
54.020 8.280511
54.025 8.53469
54.030 7.696753
54.035 7.219874
54.040 7.175057
54.045 7.202611
54.050 7.004574
54.055 7.1866
54.060 6.99258
54.065 7.053082
54.070 7.422072
54.075 7.262912
54.080 7.18999
54.085 7.225654
54.090 7.225231
54.095 7.443922
54.100 8.073405
54.105 8.262237
54.110 8.378626
54.115 8.399818
54.120 8.36388
54.125 8.338729
54.130 8.494348
54.135 7.977122
54.140 7.684858
54.145 7.673812
54.150 7.314043
54.155 7.303927
54.160 7.136742
54.165 6.979267
54.170 7.187968
54.175 7.606643
54.180 7.845244
54.185 8.015532
54.190 8.60719
54.195 8.844666
54.200 9.005736
54.205 9.132423
54.210 8.781268
54.215 8.864125
54.220 8.710204
54.225 8.401266
54.230 8.850039
54.235 8.805021
54.240 9.001881
54.245 8.791704
54.250 8.939124
54.255 8.718171
54.260 8.817101
54.265 8.315439
54.270 8.080966
54.275 7.785535
54.280 8.012352
54.285 8.446022
54.290 8.406078
54.295 8.078753
54.300 8.056517
54.305 8.246183
54.310 8.361477
54.315 7.82659
54.320 7.510661
54.325 7.423339
54.330 7.322395
54.335 7.394473
54.340 7.198866
54.345 7.387075
54.350 7.732937
54.355 7.628806
54.360 7.846115
54.365 8.180532
54.370 8.216456
54.375 8.690642
54.380 8.367517
54.385 8.106288
54.390 8.30453
54.395 8.250792
54.400 8.290337
54.405 8.140214
54.410 7.773874
54.415 8.210756
54.420 8.314585
54.425 8.577876
54.430 8.528165
54.435 8.503192
54.440 9.126376
54.445 9.290095
54.450 9.396746
54.455 9.496525
54.460 9.418054
54.465 9.681623
54.470 9.382338
54.475 9.286922
54.480 9.344634
54.485 9.215702
54.490 9.369383
54.495 9.2551
54.500 8.819699
54.505 8.709702
54.510 8.576777
54.515 8.412204
54.520 8.115008
54.525 7.630059
54.530 7.615283
54.535 7.863318
54.540 7.950437
54.545 7.681782
54.550 7.392881
54.555 7.174778
54.560 7.576122
54.565 7.413909
54.570 7.164737
54.575 7.243161
54.580 7.469877
54.585 8.024185
54.590 8.559361
54.595 8.723772
54.600 8.997381
54.605 9.287362
54.610 9.0365
54.615 8.712136
54.620 8.604713
54.625 8.232838
54.630 7.753261
54.635 7.405314
54.640 7.135067
54.645 6.654002
54.650 6.656414
54.655 6.378009
54.660 6.496688
54.665 6.673929
54.670 6.813713
54.675 6.608165
54.680 7.182387
54.685 7.410696
54.690 7.652781
54.695 7.9284
54.700 8.027577
54.705 8.422618
54.710 9.154964
54.715 9.205614
54.720 9.442453
54.725 8.998751
54.730 8.696321
54.735 8.735646
54.740 8.634898
54.745 8.585322
54.750 8.51686
54.755 8.531807
54.760 9.05907
54.765 8.895129
54.770 8.530863
54.775 8.211012
54.780 8.270496
54.785 8.696063
54.790 8.586513
54.795 8.569007
54.800 8.792264
54.805 8.866425
54.810 9.163457
54.815 9.014447
54.820 8.643013
54.825 8.943464
54.830 8.923244
54.835 8.794159
54.840 8.883943
54.845 8.630713
54.850 8.618021
54.855 8.563487
54.860 8.175104
54.865 8.124306
54.870 8.093431
54.875 8.327854
54.880 8.702827
54.885 8.726563
54.890 8.607077
54.895 9.004297
54.900 9.128143
54.905 8.968573
54.910 9.093096
54.915 8.860128
54.920 8.5407
54.925 8.91748
54.930 8.719964
54.935 8.852789
54.940 9.038755
54.945 8.909099
54.950 9.308645
54.955 9.700228
54.960 9.426702
54.965 9.526505
54.970 9.694164
54.975 9.984167
54.980 10.089432
54.985 9.664383
54.990 9.555173
54.995 9.501194
55.000 9.48002
55.005 9.078803
55.010 8.951328
55.015 9.031816
55.020 9.393661
55.025 9.428498
55.030 9.203701
55.035 9.306887
55.040 9.10584
55.045 8.895314
55.050 8.616869
55.055 8.451388
55.060 8.834431
55.065 9.497806
55.070 9.802459
55.075 9.876348
55.080 9.987954
55.085 10.313468
55.090 10.217782
55.095 10.037091
55.100 9.373311
55.105 9.350513
55.110 9.456894
55.115 8.872835
55.120 8.887502
55.125 8.760886
55.130 8.791427
55.135 9.053359
55.140 8.999825
55.145 8.81019
55.150 8.743711
55.155 8.471823
55.160 8.34305
55.165 8.05292
55.170 7.953126
55.175 7.836783
55.180 7.942341
55.185 8.015978
55.190 8.335281
55.195 8.723801
55.200 8.849287
55.205 8.819325
55.210 9.044557
55.215 9.483597
55.220 9.817429
55.225 9.713836
55.230 9.607466
55.235 9.394569
55.240 9.11392
55.245 9.336864
55.250 9.355842
55.255 9.1685
55.260 8.777061
55.265 8.525185
55.270 9.143861
55.275 9.266054
55.280 8.716327
55.285 8.396464
55.290 8.165042
55.295 8.109727
55.300 8.192227
55.305 8.238183
55.310 8.652902
55.315 8.786094
55.320 8.915467
55.325 9.429572
55.330 9.404622
55.335 9.399783
55.340 9.228703
55.345 9.14964
55.350 9.742474
55.355 10.378855
55.360 10.486228
55.365 10.903824
55.370 10.891177
55.375 10.903687
55.380 11.174548
55.385 10.630457
55.390 10.000998
55.395 9.720837
55.400 9.251801
55.405 8.819373
55.410 8.536432
55.415 7.948353
55.420 7.757534
55.425 7.650901
55.430 7.677378
55.435 8.055235
55.440 8.297422
55.445 8.467762
55.450 8.818846
55.455 9.023379
55.460 9.192446
55.465 9.005251
55.470 9.193212
55.475 9.292643
55.480 8.926526
55.485 8.945942
55.490 9.027112
55.495 8.997552
55.500 8.967431
55.505 8.975177
55.510 8.850984
55.515 9.070441
55.520 8.793033
55.525 8.832199
55.530 8.963367
55.535 9.093452
55.540 9.079218
55.545 9.086342
55.550 9.307335
55.555 9.346509
55.560 9.04721
55.565 8.963375
55.570 8.553885
55.575 8.156784
55.580 7.889467
55.585 7.887478
55.590 7.852414
55.595 7.674381
55.600 7.045008
55.605 7.191282
55.610 7.692554
55.615 7.717083
55.620 7.643003
55.625 7.409126
55.630 7.316865
55.635 7.678681
55.640 8.079971
55.645 7.60114
55.650 7.432014
55.655 7.206758
55.660 7.810272
55.665 8.278527
55.670 8.144103
55.675 8.126393
55.680 8.326451
55.685 8.473906
55.690 8.636782
55.695 8.149229
55.700 8.357968
55.705 8.419474
55.710 7.873834
55.715 7.997286
55.720 7.980563
55.725 8.089312
55.730 8.382252
55.735 8.362291
55.740 8.308577
55.745 8.469896
55.750 8.176914
55.755 8.276469
55.760 8.572371
55.765 8.341735
55.770 8.45054
55.775 8.545855
55.780 8.55813
55.785 8.375035
55.790 8.074708
55.795 7.744235
55.800 7.770043
55.805 7.937848
55.810 7.981551
55.815 8.434422
55.820 8.926517
55.825 8.891793
55.830 8.898679
55.835 9.126452
55.840 8.580718
55.845 8.416842
55.850 8.329155
55.855 8.316299
55.860 8.368201
55.865 8.47953
55.870 8.232889
55.875 8.628352
55.880 9.078329
55.885 9.083795
55.890 9.192739
55.895 9.096771
55.900 9.120628
55.905 9.203942
55.910 9.210148
55.915 8.91387
55.920 8.633789
55.925 8.57216
55.930 8.794264
55.935 9.058691
55.940 8.646691
55.945 8.398
55.950 8.132249
55.955 8.758331
55.960 8.83526
55.965 8.634316
55.970 8.34008
55.975 8.557715
55.980 8.731104
55.985 8.455851
55.990 7.713431
55.995 7.484525
56.000 7.464871
56.005 7.585664
56.010 7.918688
56.015 7.949819
56.020 8.536527
56.025 9.027355
56.030 9.368539
56.035 9.405333
56.040 9.09023
56.045 8.641199
56.050 8.726917
56.055 8.399469
56.060 8.203616
56.065 8.293767
56.070 8.140566
56.075 8.703686
56.080 9.315217
56.085 9.393188
56.090 9.144556
56.095 9.362527
56.100 9.259915
56.105 9.210459
56.110 8.690249
56.115 8.483495
56.120 8.709693
56.125 9.00561
56.130 8.655293
56.135 8.267977
56.140 8.274191
56.145 8.41855
56.150 8.232413
56.155 8.429735
56.160 8.529615
56.165 8.679834
56.170 9.153985
56.175 9.415602
56.180 9.056132
56.185 8.721664
56.190 8.007686
56.195 7.750409
56.200 8.146721
56.205 8.172393
56.210 8.20401
56.215 8.351686
56.220 8.75558
56.225 9.312042
56.230 9.438978
56.235 8.904483
56.240 9.036562
56.245 9.251942
56.250 9.616052
56.255 9.314095
56.260 9.010486
56.265 9.208541
56.270 9.681616
56.275 9.661461
56.280 9.365632
56.285 9.308135
56.290 9.95392
56.295 10.235999
56.300 10.008127
56.305 9.554983
56.310 9.473452
56.315 9.298668
56.320 9.188813
56.325 8.861344
56.330 8.759692
56.335 8.993841
56.340 9.284261
56.345 9.064658
56.350 9.249247
56.355 9.242458
56.360 9.149298
56.365 9.055659
56.370 8.929485
56.375 8.987318
56.380 9.327747
56.385 9.313441
56.390 9.526622
56.395 9.537991
56.400 9.49705
56.405 9.263467
56.410 9.213342
56.415 9.102345
56.420 9.165958
56.425 9.134871
56.430 9.439217
56.435 9.568489
56.440 9.607561
56.445 9.939103
56.450 10.343643
56.455 10.282886
56.460 10.703831
56.465 10.401632
56.470 10.450533
56.475 10.578094
56.480 10.454074
56.485 10.195995
56.490 10.727295
56.495 10.411694
56.500 10.632359
56.505 10.579533
56.510 10.471742
56.515 10.617099
56.520 10.799949
56.525 10.532569
56.530 10.54695
56.535 10.742656
56.540 11.075741
56.545 11.318885
56.550 11.186634
56.555 10.816643
56.560 10.566667
56.565 10.141865
56.570 9.686708
56.575 9.558678
56.580 9.830879
56.585 10.027687
56.590 9.978358
56.595 10.19577
56.600 10.494015
56.605 10.633703
56.610 10.088802
56.615 9.621032
56.620 9.444381
56.625 9.431603
56.630 9.319874
56.635 9.093173
56.640 9.182946
56.645 9.360037
56.650 9.667919
56.655 9.993786
56.660 9.722037
56.665 9.895947
56.670 10.081629
56.675 10.160782
56.680 10.05757
56.685 9.657263
56.690 9.693843
56.695 10.087193
56.700 10.225892
56.705 10.253709
56.710 10.236354
56.715 10.360804
56.720 10.30232
56.725 10.207138
56.730 10.189992
56.735 10.372725
56.740 10.622612
56.745 10.459477
56.750 10.386273
56.755 10.448657
56.760 10.06277
56.765 9.323199
56.770 9.205894
56.775 9.263721
56.780 9.393545
56.785 9.109324
56.790 8.958943
56.795 9.42192
56.800 9.90494
56.805 9.582942
56.810 9.227291
56.815 9.130644
56.820 9.316929
56.825 9.285922
56.830 9.036323
56.835 9.234641
56.840 9.569893
56.845 9.945006
56.850 10.048744
56.855 9.984365
56.860 10.239195
56.865 9.942053
56.870 9.74562
56.875 9.324424
56.880 9.403633
56.885 9.571411
56.890 9.84791
56.895 9.900743
56.900 9.813088
56.905 9.549011
56.910 9.58328
56.915 9.080839
56.920 8.673631
56.925 8.568278
56.930 8.82672
56.935 8.910378
56.940 8.948746
56.945 8.981067
56.950 9.062628
56.955 9.124338
56.960 8.810182
56.965 8.640333
56.970 8.739962
56.975 8.254474
56.980 8.080381
56.985 8.248889
56.990 7.972049
56.995 8.037951
57.000 7.915408
57.005 7.761549
57.010 8.102427
57.015 8.160671
57.020 8.08556
57.025 8.215517
57.030 8.254355
57.035 8.453932
57.040 8.815379
57.045 8.798563
57.050 8.526344
57.055 8.327505
57.060 8.330811
57.065 8.045665
57.070 7.833923
57.075 7.607215
57.080 7.454466
57.085 7.524737
57.090 7.472831
57.095 7.433824
57.100 7.716245
57.105 7.674591
57.110 7.677896
57.115 7.563004
57.120 7.693597
57.125 8.034216
57.130 8.056568
57.135 8.143497
57.140 8.345937
57.145 7.958753
57.150 8.448199
57.155 8.364404
57.160 8.010853
57.165 8.058931
57.170 8.18555
57.175 7.937157
57.180 8.031069
57.185 7.569135
57.190 7.361141
57.195 7.488553
57.200 7.011067
57.205 6.903488
57.210 7.432604
57.215 7.469175
57.220 7.483991
57.225 7.583995
57.230 7.855191
57.235 7.956483
57.240 8.086345
57.245 7.594724
57.250 7.842153
57.255 8.238501
57.260 8.139037
57.265 8.142602
57.270 8.301858
57.275 8.476063
57.280 8.782215
57.285 8.473926
57.290 8.545843
57.295 8.558558
57.300 8.29239
57.305 8.218796
57.310 8.077435
57.315 7.583456
57.320 8.027226
57.325 7.978538
57.330 8.344645
57.335 8.876587
57.340 8.830484
57.345 8.735558
57.350 8.764307
57.355 8.704052
57.360 8.854508
57.365 8.659288
57.370 8.354366
57.375 8.596253
57.380 9.095035
57.385 9.835546
57.390 10.122206
57.395 10.337736
57.400 10.571836
57.405 10.57041
57.410 10.20734
57.415 9.689409
57.420 9.525979
57.425 8.907338
57.430 8.329832
57.435 8.201999
57.440 8.49977
57.445 8.75388
57.450 8.802229
57.455 8.551073
57.460 8.900455
57.465 8.921719
57.470 8.742879
57.475 8.565702
57.480 8.635406
57.485 8.906931
57.490 9.020816
57.495 8.73396
57.500 8.821635
57.505 8.57807
57.510 8.359873
57.515 8.104353
57.520 7.938698
57.525 7.827244
57.530 7.964057
57.535 8.236074
57.540 8.576618
57.545 8.765552
57.550 8.99891
57.555 9.073772
57.560 8.904722
57.565 9.047011
57.570 8.81715
57.575 8.873124
57.580 8.908998
57.585 8.761079
57.590 9.078877
57.595 8.993992
57.600 8.99669
57.605 9.063943
57.610 8.731016
57.615 8.701542
57.620 8.916796
57.625 8.806111
57.630 9.014966
57.635 8.98061
57.640 8.748038
57.645 8.77631
57.650 8.659486
57.655 8.344017
57.660 8.107267
57.665 7.430207
57.670 7.262817
57.675 7.368794
57.680 7.454296
57.685 7.393092
57.690 7.358212
57.695 7.405661
57.700 7.594634
57.705 7.476368
57.710 7.415613
57.715 7.450051
57.720 7.471212
57.725 7.735888
57.730 7.973043
57.735 8.507591
57.740 9.219789
57.745 9.37631
57.750 9.321231
57.755 9.296182
57.760 9.390036
57.765 9.449117
57.770 8.876374
57.775 8.36047
57.780 8.1151
57.785 7.770447
57.790 7.695248
57.795 7.848709
57.800 7.546391
57.805 7.601946
57.810 7.5675
57.815 7.576556
57.820 8.051793
57.825 8.068731
57.830 7.865815
57.835 8.149984
57.840 8.463701
57.845 8.809086
57.850 8.630712
57.855 8.372375
57.860 8.334471
57.865 8.201239
57.870 8.248457
57.875 8.288408
57.880 7.921322
57.885 8.275425
57.890 8.348405
57.895 8.199672
57.900 8.83991
57.905 9.404803
57.910 9.292116
57.915 9.308431
57.920 9.385353
57.925 9.697855
57.930 9.623579
57.935 9.127462
57.940 8.883668
57.945 9.031056
57.950 9.167844
57.955 8.991322
57.960 8.717037
57.965 8.679517
57.970 8.64717
57.975 8.614525
57.980 8.578388
57.985 8.651607
57.990 8.477164
57.995 8.731812
58.000 8.765057
58.005 8.409893
58.010 8.363292
58.015 8.512691
58.020 8.481336
58.025 8.98657
58.030 9.033102
58.035 9.304002
58.040 9.50077
58.045 9.36568
58.050 9.031335
58.055 9.033369
58.060 8.687258
58.065 8.985929
58.070 8.741199
58.075 8.430386
58.080 8.210886
58.085 8.17058
58.090 8.221198
58.095 8.34402
58.100 8.454917
58.105 8.851015
58.110 9.364109
58.115 9.524409
58.120 9.368426
58.125 9.20143
58.130 8.947241
58.135 8.472465
58.140 8.259671
58.145 7.999848
58.150 8.039209
58.155 8.447024
58.160 8.337286
58.165 8.337195
58.170 8.252291
58.175 7.974223
58.180 7.676727
58.185 7.734629
58.190 7.544656
58.195 7.514409
58.200 7.450594
58.205 7.783792
58.210 8.014798
58.215 8.476292
58.220 8.341231
58.225 8.576557
58.230 8.621749
58.235 8.350795
58.240 8.148232
58.245 8.070926
58.250 8.291886
58.255 8.356427
58.260 8.299781
58.265 8.539166
58.270 8.985044
58.275 9.405151
58.280 9.23847
58.285 8.885672
58.290 8.815535
58.295 8.650463
58.300 8.465598
58.305 8.508607
58.310 8.060498
58.315 7.676703
58.320 7.694849
58.325 7.829959
58.330 7.971214
58.335 8.037744
58.340 8.125211
58.345 8.503221
58.350 9.025174
58.355 9.061727
58.360 8.908673
58.365 8.970111
58.370 8.995225
58.375 8.32839
58.380 7.840284
58.385 7.635
58.390 7.632053
58.395 7.552117
58.400 7.583751
58.405 7.320648
58.410 7.431124
58.415 7.425075
58.420 7.296532
58.425 7.083445
58.430 7.006775
58.435 6.928591
58.440 7.566381
58.445 7.98914
58.450 8.371704
58.455 8.804558
58.460 9.461637
58.465 9.874575
58.470 9.964395
58.475 9.628645
58.480 9.685708
58.485 9.569945
58.490 9.690161
58.495 9.372421
58.500 9.111565
58.505 9.116129
58.510 9.235098
58.515 8.950873
58.520 8.838761
58.525 8.709299
58.530 8.994148
58.535 8.987077
58.540 9.212748
58.545 9.134033
58.550 9.428955
58.555 9.804763
58.560 9.590926
58.565 9.423215
58.570 9.514245
58.575 9.543633
58.580 9.454587
58.585 9.339578
58.590 9.356017
58.595 9.392627
58.600 9.238628
58.605 8.981601
58.610 9.005611
58.615 9.20924
58.620 9.125243
58.625 8.889791
58.630 9.298745
58.635 9.344881
58.640 9.291489
58.645 8.80671
58.650 8.534161
58.655 8.414546
58.660 8.520656
58.665 8.200957
58.670 8.227898
58.675 8.381062
58.680 8.513774
58.685 8.448453
58.690 8.576589
58.695 8.648482
58.700 8.647788
58.705 8.980213
58.710 9.053758
58.715 9.205249
58.720 9.503878
58.725 9.726756
58.730 9.898299
58.735 9.935955
