!@!!GADDS PLOTSO FILE: Chi integration type
!@!!Title/SampleName: map-3a
!@!!Comment: ?
!@!!User: Bruker Instrument Administrator
!@!!Site: University of Illinois Chicago
!@!!Frame: map-3a_01_000.gfrm
!@!!Wavelengths    1.54184   1.54056   1.54439
!@!!Frame angles: 2Theta: 63.000 Omega: 50.000 Phi: 0.000 Chi: 90.000
!@!!Integration range: 2Theta: 53.000 to 73.000  Gamma: -105.000 to -75.000
!@!!Integration method: bin normalized
!@!N
!@!SS
!@!M
!@!L 0.0 0.0 0.0 0.0
!@!XDegrees
!@!YCounts
53.000 8.942014
53.005 9.080542
53.010 9.256693
53.015 9.214981
53.020 9.419686
53.025 9.58441
53.030 9.646492
53.035 9.855773
53.040 10.135237
53.045 10.501584
53.050 10.665502
53.055 10.413336
53.060 9.982842
53.065 10.101098
53.070 10.317161
53.075 9.89998
53.080 9.551341
53.085 9.798979
53.090 10.100245
53.095 10.085107
53.100 9.605509
53.105 9.595015
53.110 9.713717
53.115 9.451828
53.120 9.0449
53.125 8.59485
53.130 8.850105
53.135 8.605969
53.140 8.250678
53.145 8.059523
53.150 8.152149
53.155 8.142074
53.160 8.513284
53.165 8.639994
53.170 8.955221
53.175 9.197493
53.180 9.413965
53.185 9.80605
53.190 10.154896
53.195 10.248585
53.200 10.172197
53.205 9.979735
53.210 10.051729
53.215 10.339943
53.220 10.200886
53.225 9.911371
53.230 9.641816
53.235 9.701101
53.240 9.865648
53.245 9.430876
53.250 9.364202
53.255 9.259796
53.260 9.225474
53.265 9.540958
53.270 9.80639
53.275 9.819983
53.280 10.13456
53.285 9.930104
53.290 10.063266
53.295 10.107669
53.300 9.792128
53.305 9.532791
53.310 9.512356
53.315 9.812857
53.320 9.883763
53.325 9.898421
53.330 9.989305
53.335 10.039198
53.340 9.957809
53.345 9.824655
53.350 9.654556
53.355 9.726988
53.360 9.670738
53.365 9.616473
53.370 9.806806
53.375 9.698576
53.380 9.726089
53.385 9.567725
53.390 9.397738
53.395 9.586588
53.400 9.707517
53.405 9.799942
53.410 9.701097
53.415 9.73415
53.420 9.634065
53.425 9.603314
53.430 9.380299
53.435 9.016127
53.440 9.176247
53.445 9.094917
53.450 8.682693
53.455 8.797051
53.460 8.732068
53.465 8.876152
53.470 8.828719
53.475 8.887003
53.480 8.911936
53.485 9.340884
53.490 9.573588
53.495 10.015094
53.500 10.304046
53.505 10.631321
53.510 10.654777
53.515 11.104121
53.520 10.971218
53.525 10.724681
53.530 10.637926
53.535 10.243607
53.540 9.68829
53.545 9.367713
53.550 9.349896
53.555 9.434272
53.560 9.320032
53.565 9.024343
53.570 9.524783
53.575 10.359045
53.580 10.585341
53.585 10.286323
53.590 9.788324
53.595 9.715964
53.600 9.94848
53.605 9.69872
53.610 9.691845
53.615 9.789695
53.620 9.830412
53.625 10.155349
53.630 10.080267
53.635 9.64749
53.640 9.517047
53.645 9.179571
53.650 9.310677
53.655 9.697189
53.660 9.302167
53.665 9.367415
53.670 9.903564
53.675 9.807127
53.680 9.878819
53.685 9.77774
53.690 9.774438
53.695 10.106583
53.700 9.89471
53.705 9.7341
53.710 10.026283
53.715 10.018503
53.720 9.768799
53.725 9.464066
53.730 9.576389
53.735 9.961386
53.740 9.590024
53.745 9.63386
53.750 10.013741
53.755 10.080757
53.760 10.186659
53.765 10.376215
53.770 10.217755
53.775 10.338464
53.780 10.146198
53.785 10.105868
53.790 10.481044
53.795 10.936666
53.800 10.813869
53.805 10.558428
53.810 10.615155
53.815 10.662359
53.820 10.361444
53.825 10.327597
53.830 10.288196
53.835 10.48684
53.840 10.502323
53.845 10.494869
53.850 10.416472
53.855 10.219661
53.860 10.222
53.865 10.36824
53.870 10.516459
53.875 10.602798
53.880 10.857807
53.885 11.115316
53.890 11.304289
53.895 11.088862
53.900 10.589277
53.905 10.416932
53.910 10.514471
53.915 10.726162
53.920 10.409449
53.925 9.910061
53.930 9.481352
53.935 9.350557
53.940 9.845942
53.945 9.47614
53.950 9.136568
53.955 9.865161
53.960 10.484648
53.965 10.715126
53.970 10.828305
53.975 10.639328
53.980 10.50636
53.985 10.092215
53.990 10.077744
53.995 10.26438
54.000 10.838555
54.005 10.6994
54.010 10.732853
54.015 10.949935
54.020 11.242786
54.025 10.894283
54.030 10.847808
54.035 10.494298
54.040 10.099103
54.045 10.343435
54.050 10.522623
54.055 9.940109
54.060 9.828238
54.065 9.355086
54.070 9.988369
54.075 10.10966
54.080 9.517899
54.085 9.548806
54.090 9.825165
54.095 10.007821
54.100 10.48501
54.105 10.741202
54.110 11.163252
54.115 11.050769
54.120 10.597939
54.125 10.993553
54.130 10.644835
54.135 10.35858
54.140 10.292422
54.145 10.650238
54.150 11.485798
54.155 11.77529
54.160 11.725842
54.165 11.57977
54.170 11.755014
54.175 12.121303
54.180 12.29508
54.185 12.140751
54.190 12.275865
54.195 12.372557
54.200 12.613669
54.205 11.664041
54.210 11.062441
54.215 10.681284
54.220 10.432581
54.225 10.214849
54.230 10.322996
54.235 11.055145
54.240 11.866439
54.245 11.731124
54.250 11.612384
54.255 11.279665
54.260 11.194959
54.265 10.856815
54.270 10.682336
54.275 10.324433
54.280 10.555292
54.285 10.862084
54.290 11.34545
54.295 11.262665
54.300 10.59301
54.305 10.295732
54.310 10.574469
54.315 10.291768
54.320 9.578077
54.325 9.544736
54.330 9.78535
54.335 10.814233
54.340 10.662324
54.345 10.655629
54.350 11.501232
54.355 12.070496
54.360 11.88387
54.365 11.618638
54.370 11.237288
54.375 11.309498
54.380 10.834987
54.385 10.810909
54.390 11.039324
54.395 11.255365
54.400 11.479749
54.405 12.084507
54.410 12.4721
54.415 12.276684
54.420 11.653948
54.425 11.549808
54.430 11.604212
54.435 11.057096
54.440 10.464068
54.445 10.197187
54.450 10.69901
54.455 10.788655
54.460 10.789536
54.465 10.624918
54.470 10.505591
54.475 10.214453
54.480 10.040738
54.485 9.713435
54.490 9.816038
54.495 9.851768
54.500 9.85878
54.505 10.747653
54.510 11.408422
54.515 11.709359
54.520 11.823998
54.525 12.054491
54.530 12.20085
54.535 12.398391
54.540 12.210872
54.545 11.828255
54.550 11.978448
54.555 12.636128
54.560 12.881368
54.565 12.783353
54.570 12.629986
54.575 12.258466
54.580 12.273399
54.585 11.745651
54.590 10.591207
54.595 10.419509
54.600 10.49714
54.605 10.350943
54.610 10.862966
54.615 11.036852
54.620 11.664391
54.625 12.451576
54.630 12.490212
54.635 12.433463
54.640 12.238074
54.645 11.838016
54.650 12.068488
54.655 11.479431
54.660 11.341467
54.665 11.249096
54.670 10.927591
54.675 11.265738
54.680 11.566122
54.685 11.356922
54.690 11.233387
54.695 10.828709
54.700 10.842379
54.705 11.245525
54.710 10.720633
54.715 9.909364
54.720 9.761451
54.725 10.03312
54.730 10.352325
54.735 10.734678
54.740 10.6462
54.745 10.70527
54.750 10.955647
54.755 11.221016
54.760 11.187117
54.765 10.934376
54.770 10.953612
54.775 11.350414
54.780 11.869031
54.785 11.92304
54.790 12.402574
54.795 12.618353
54.800 12.653427
54.805 12.304803
54.810 12.035726
54.815 12.362049
54.820 12.681746
54.825 12.69527
54.830 12.585218
54.835 12.491231
54.840 12.500866
54.845 12.562121
54.850 12.028875
54.855 11.690812
54.860 11.44163
54.865 11.336719
54.870 11.630308
54.875 11.655119
54.880 11.873159
54.885 11.75397
54.890 11.751919
54.895 11.997477
54.900 12.152868
54.905 12.16322
54.910 12.006376
54.915 12.191396
54.920 12.248239
54.925 12.100699
54.930 12.233285
54.935 12.032881
54.940 12.053082
54.945 12.199657
54.950 12.281009
54.955 12.713378
54.960 12.50014
54.965 11.808858
54.970 11.689165
54.975 11.760861
54.980 11.752285
54.985 11.36605
54.990 11.134988
54.995 11.344798
55.000 11.579071
55.005 11.41819
55.010 11.3097
55.015 11.402746
55.020 11.55588
55.025 11.313471
55.030 11.119205
55.035 11.317833
55.040 11.34654
55.045 11.105066
55.050 10.446954
55.055 10.264676
55.060 10.671995
55.065 10.792351
55.070 10.61391
55.075 10.830431
55.080 10.902423
55.085 10.720998
55.090 10.725527
55.095 10.808416
55.100 11.592763
55.105 11.629712
55.110 11.781967
55.115 12.566993
55.120 13.00651
55.125 13.055839
55.130 12.772902
55.135 12.42998
55.140 12.768244
55.145 13.035634
55.150 13.065816
55.155 13.211638
55.160 12.840279
55.165 12.629776
55.170 12.225116
55.175 11.978209
55.180 11.345666
55.185 11.600965
55.190 11.923617
55.195 12.039968
55.200 11.896423
55.205 11.930167
55.210 11.649173
55.215 11.403928
55.220 11.263
55.225 11.488402
55.230 11.974562
55.235 12.388242
55.240 12.334763
55.245 12.205427
55.250 12.190533
55.255 11.416658
55.260 11.080602
55.265 10.108867
55.270 10.383874
55.275 10.773879
55.280 11.339185
55.285 11.774291
55.290 12.451388
55.295 12.642375
55.300 13.030384
55.305 12.689952
55.310 12.695807
55.315 12.706261
55.320 12.839293
55.325 12.40734
55.330 13.010713
55.335 13.279844
55.340 13.301231
55.345 13.525416
55.350 13.378203
55.355 12.759333
55.360 13.038065
55.365 12.838818
55.370 12.439748
55.375 12.126677
55.380 11.834192
55.385 11.7737
55.390 11.825438
55.395 11.586713
55.400 10.962122
55.405 10.97656
55.410 10.88347
55.415 10.935307
55.420 10.426933
55.425 10.571198
55.430 10.604711
55.435 10.674057
55.440 10.401013
55.445 10.757442
55.450 10.846488
55.455 11.666813
55.460 12.306045
55.465 12.584913
55.470 13.239121
55.475 13.796151
55.480 13.53755
55.485 13.569721
55.490 12.886683
55.495 12.437323
55.500 11.961432
55.505 11.514891
55.510 11.220928
55.515 11.248728
55.520 11.516355
55.525 11.982348
55.530 12.206709
55.535 12.890999
55.540 13.209328
55.545 13.252442
55.550 12.992307
55.555 12.720622
55.560 12.491157
55.565 11.844282
55.570 11.766802
55.575 12.038855
55.580 11.691004
55.585 12.079047
55.590 12.123678
55.595 12.288917
55.600 11.944675
55.605 11.632029
55.610 11.451767
55.615 11.347485
55.620 11.080257
55.625 11.369178
55.630 11.634775
55.635 11.909692
55.640 11.967643
55.645 12.534639
55.650 13.364705
55.655 13.494377
55.660 13.296561
55.665 13.031253
55.670 12.779093
55.675 12.81398
55.680 13.050614
55.685 12.879525
55.690 12.955842
55.695 12.641446
55.700 12.831581
55.705 12.888038
55.710 12.595439
55.715 12.269759
55.720 12.19125
55.725 11.960391
55.730 12.205156
55.735 12.746352
55.740 12.725874
55.745 12.515342
55.750 12.338821
55.755 12.687969
55.760 13.165006
55.765 12.78434
55.770 12.729092
55.775 12.793535
55.780 13.315508
55.785 13.288922
55.790 13.249511
55.795 13.38663
55.800 13.300564
55.805 13.514405
55.810 13.311766
55.815 13.161048
55.820 12.950752
55.825 12.539391
55.830 12.515669
55.835 12.453277
55.840 12.696475
55.845 13.064967
55.850 13.066723
55.855 13.656981
55.860 14.522983
55.865 14.578933
55.870 14.865101
55.875 14.493851
55.880 14.117888
55.885 13.892966
55.890 13.281737
55.895 12.649313
55.900 12.564365
55.905 12.391644
55.910 13.005731
55.915 13.570385
55.920 13.573678
55.925 13.397304
55.930 13.410491
55.935 13.385389
55.940 13.247766
55.945 12.713871
55.950 12.766535
55.955 13.33558
55.960 13.41384
55.965 13.452133
55.970 13.384275
55.975 13.681918
55.980 13.567205
55.985 13.318348
55.990 13.082295
55.995 12.554183
56.000 11.992798
56.005 11.82396
56.010 11.619507
56.015 11.354143
56.020 10.977838
56.025 11.069392
56.030 12.014615
56.035 12.673769
56.040 12.6658
56.045 12.283727
56.050 12.448485
56.055 12.743029
56.060 12.967877
56.065 12.866251
56.070 12.482477
56.075 12.398608
56.080 12.372151
56.085 12.054226
56.090 12.056444
56.095 11.963956
56.100 11.738805
56.105 11.452985
56.110 11.760268
56.115 12.426801
56.120 12.971236
56.125 12.451319
56.130 12.060604
56.135 12.512098
56.140 13.381917
56.145 13.648539
56.150 13.174897
56.155 13.176558
56.160 13.357746
56.165 13.717028
56.170 13.439924
56.175 13.03646
56.180 12.686619
56.185 12.961949
56.190 12.877707
56.195 13.116917
56.200 12.809707
56.205 12.938625
56.210 13.239023
56.215 13.480907
56.220 13.558287
56.225 13.956674
56.230 14.095646
56.235 14.429874
56.240 14.32659
56.245 14.17854
56.250 14.131112
56.255 13.988739
56.260 13.609678
56.265 13.225435
56.270 12.964568
56.275 13.319676
56.280 13.254043
56.285 13.122386
56.290 12.702045
56.295 12.706304
56.300 12.925092
56.305 13.445305
56.310 14.033485
56.315 14.581955
56.320 14.912674
56.325 14.966165
56.330 15.128973
56.335 15.316153
56.340 14.719643
56.345 13.919479
56.350 13.053033
56.355 12.939993
56.360 13.56156
56.365 13.501513
56.370 13.285351
56.375 13.242702
56.380 13.252162
56.385 14.167345
56.390 13.566615
56.395 13.292898
56.400 12.884295
56.405 12.915206
56.410 13.414254
56.415 12.981177
56.420 13.113282
56.425 13.729958
56.430 14.198271
56.435 14.228983
56.440 13.449547
56.445 13.036306
56.450 13.193101
56.455 13.364032
56.460 13.53999
56.465 13.055804
56.470 13.585397
56.475 14.549902
56.480 14.765602
56.485 14.484843
56.490 14.799357
56.495 14.975065
56.500 15.114796
56.505 14.901708
56.510 13.91259
56.515 14.196817
56.520 14.507474
56.525 13.681903
56.530 13.744761
56.535 13.793976
56.540 13.614563
56.545 13.707706
56.550 13.412218
56.555 13.3248
56.560 13.227814
56.565 12.9303
56.570 12.946566
56.575 13.347142
56.580 13.391146
56.585 13.645153
56.590 13.430079
56.595 13.541546
56.600 13.283638
56.605 13.271077
56.610 13.104436
56.615 13.332932
56.620 13.19501
56.625 13.38207
56.630 13.520732
56.635 13.571496
56.640 13.925854
56.645 14.175574
56.650 13.891998
56.655 13.995232
56.660 14.484757
56.665 14.322638
56.670 14.351676
56.675 14.067739
56.680 13.81292
56.685 13.495181
56.690 13.112846
56.695 13.10688
56.700 13.603215
56.705 13.951413
56.710 14.016613
56.715 14.26273
56.720 14.452274
56.725 14.924812
56.730 15.199827
56.735 15.08296
56.740 14.86098
56.745 14.873491
56.750 15.223635
56.755 15.463746
56.760 15.420362
56.765 15.052932
56.770 14.73536
56.775 14.813101
56.780 14.57185
56.785 14.032855
56.790 13.983095
56.795 13.782264
56.800 13.99884
56.805 14.265039
56.810 14.414487
56.815 14.541113
56.820 14.512718
56.825 14.758183
56.830 14.42418
56.835 14.153981
56.840 13.627171
56.845 13.466056
56.850 13.42927
56.855 13.699844
56.860 13.53139
56.865 14.089724
56.870 14.398369
56.875 14.863376
56.880 15.125628
56.885 15.372346
56.890 14.817816
56.895 14.215301
56.900 13.732637
56.905 13.794217
56.910 13.932636
56.915 13.303072
56.920 13.109985
56.925 13.865661
56.930 14.441511
56.935 14.49414
56.940 14.210954
56.945 14.256495
56.950 14.570316
56.955 14.783002
56.960 14.358867
56.965 13.834745
56.970 14.199075
56.975 14.914878
56.980 14.604941
56.985 14.348416
56.990 14.530917
56.995 14.871844
57.000 15.154832
57.005 14.535644
57.010 14.253575
57.015 14.425051
57.020 14.516797
57.025 14.487672
57.030 14.215493
57.035 14.20297
57.040 13.881701
57.045 13.746901
57.050 13.947933
57.055 14.327695
57.060 13.998949
57.065 13.776214
57.070 13.948879
57.075 14.41153
57.080 14.296835
57.085 14.226601
57.090 14.458712
57.095 14.636121
57.100 14.837896
57.105 14.421997
57.110 13.78581
57.115 13.416192
57.120 12.924427
57.125 12.203702
57.130 11.884706
57.135 11.575969
57.140 11.663857
57.145 12.560811
57.150 13.231447
57.155 13.454529
57.160 13.543945
57.165 13.645873
57.170 13.829829
57.175 13.884637
57.180 12.934079
57.185 12.731746
57.190 13.050565
57.195 13.084639
57.200 13.405416
57.205 13.973117
57.210 13.616926
57.215 13.922222
57.220 13.939429
57.225 13.869163
57.230 14.004169
57.235 14.169268
57.240 13.979177
57.245 14.572487
57.250 14.435384
57.255 14.219545
57.260 13.993987
57.265 14.212717
57.270 14.19461
57.275 14.283663
57.280 14.298155
57.285 14.392965
57.290 14.338884
57.295 15.082685
57.300 14.950257
57.305 15.336052
57.310 15.868744
57.315 15.753243
57.320 15.847181
57.325 16.270414
57.330 16.054104
57.335 16.239214
57.340 15.48141
57.345 15.321485
57.350 15.528807
57.355 15.374399
57.360 15.195971
57.365 15.304651
57.370 15.07054
57.375 15.054413
57.380 15.128091
57.385 15.361219
57.390 15.339961
57.395 15.630014
57.400 15.500465
57.405 15.476158
57.410 15.615316
57.415 15.656652
57.420 15.928544
57.425 15.773987
57.430 14.646877
57.435 14.344481
57.440 14.528267
57.445 14.187821
57.450 13.954866
57.455 13.792254
57.460 14.242123
57.465 14.578715
57.470 14.735696
57.475 14.277551
57.480 14.332619
57.485 14.409247
57.490 14.583495
57.495 14.832938
57.500 15.068407
57.505 15.079984
57.510 15.198091
57.515 15.037164
57.520 14.523141
57.525 14.458658
57.530 14.623897
57.535 14.591154
57.540 14.506372
57.545 14.768285
57.550 15.20922
57.555 15.794235
57.560 15.378028
57.565 14.854733
57.570 15.083748
57.575 15.25519
57.580 15.357721
57.585 15.095066
57.590 15.223683
57.595 15.567862
57.600 15.917872
57.605 16.275545
57.610 15.780889
57.615 15.632978
57.620 15.58321
57.625 15.53861
57.630 15.736488
57.635 15.18875
57.640 14.403158
57.645 14.555618
57.650 14.59647
57.655 14.650455
57.660 14.728224
57.665 14.570476
57.670 14.855515
57.675 15.29909
57.680 15.195404
57.685 15.233211
57.690 15.047332
57.695 14.949282
57.700 14.885262
57.705 15.08902
57.710 15.266346
57.715 15.554048
57.720 15.939115
57.725 16.165543
57.730 16.119192
57.735 16.194021
57.740 15.780455
57.745 16.010242
57.750 15.869339
57.755 15.715265
57.760 15.421337
57.765 15.231483
57.770 15.469959
57.775 15.650939
57.780 15.402393
57.785 15.343649
57.790 15.073626
57.795 15.309526
57.800 15.251798
57.805 15.379676
57.810 15.291378
57.815 15.998165
57.820 16.583658
57.825 17.033705
57.830 17.02659
57.835 16.757095
57.840 16.380541
57.845 16.072401
57.850 15.7314
57.855 15.008261
57.860 14.482252
57.865 14.123913
57.870 13.818528
57.875 13.542635
57.880 13.555712
57.885 13.144489
57.890 13.553374
57.895 13.619583
57.900 14.175483
57.905 14.866378
57.910 15.103722
57.915 14.967448
57.920 15.088445
57.925 14.815592
57.930 14.789653
57.935 14.56892
57.940 13.94801
57.945 13.955206
57.950 14.310348
57.955 14.476382
57.960 14.718801
57.965 14.673388
57.970 14.447154
57.975 14.929787
57.980 15.379143
57.985 15.014887
57.990 14.656134
57.995 14.610066
58.000 14.771564
58.005 14.915513
58.010 14.689641
58.015 14.419924
58.020 14.662173
58.025 15.098668
58.030 14.832344
58.035 14.790526
58.040 14.991401
58.045 15.361797
58.050 15.30131
58.055 15.399461
58.060 15.091356
58.065 14.983658
58.070 15.532549
58.075 15.481212
58.080 14.930888
58.085 14.821532
58.090 14.655899
58.095 14.815796
58.100 15.471353
58.105 15.116222
58.110 14.966117
58.115 15.243819
58.120 15.605842
58.125 16.199789
58.130 16.158663
58.135 15.927607
58.140 15.775249
58.145 15.88062
58.150 15.794614
58.155 15.187508
58.160 14.696874
58.165 14.911788
58.170 14.805046
58.175 15.204047
58.180 15.302542
58.185 16.004465
58.190 16.039495
58.195 16.381641
58.200 16.813316
58.205 16.885429
58.210 16.418051
58.215 16.229897
58.220 16.010479
58.225 16.271761
58.230 16.050222
58.235 15.578819
58.240 15.629442
58.245 15.557401
58.250 14.847476
58.255 14.714974
58.260 14.971917
58.265 14.444438
58.270 14.342603
58.275 14.382208
58.280 15.220407
58.285 16.18796
58.290 15.951853
58.295 15.524933
58.300 16.119331
58.305 16.072195
58.310 15.886022
58.315 15.678189
58.320 15.41126
58.325 15.237402
58.330 15.622346
58.335 15.609965
58.340 16.159948
58.345 15.905912
58.350 15.802865
58.355 16.375072
58.360 16.72584
58.365 16.763113
58.370 16.419191
58.375 16.05221
58.380 16.494787
58.385 16.476191
58.390 16.559673
58.395 16.774599
58.400 16.274071
58.405 16.367176
58.410 16.318007
58.415 16.406668
58.420 16.283638
58.425 15.698173
58.430 15.47954
58.435 15.565959
58.440 15.559421
58.445 15.965182
58.450 16.047689
58.455 15.713953
58.460 15.708286
58.465 15.721064
58.470 16.085369
58.475 16.690113
58.480 16.498802
