!@!!GADDS PLOTSO FILE: Chi integration type
!@!!Title/SampleName: map-127
!@!!Comment: ?
!@!!User: Bruker Instrument Administrator
!@!!Site: University of Illinois Chicago
!@!!Frame: map-127_01_000.gfrm
!@!!Wavelengths    1.54184   1.54056   1.54439
!@!!Frame angles: 2Theta: 63.000 Omega: 50.000 Phi: 0.000 Chi: 90.000
!@!!Integration range: 2Theta: 53.000 to 73.000  Gamma: -105.000 to -75.000
!@!!Integration method: bin normalized
!@!N
!@!SS
!@!M
!@!L 0.0 0.0 0.0 0.0
!@!XDegrees
!@!YCounts
53.000 3.456956
53.005 3.62628
53.010 3.748888
53.015 3.605169
53.020 3.772883
53.025 4.126636
53.030 4.524483
53.035 4.731547
53.040 4.585868
53.045 4.564011
53.050 4.463791
53.055 4.219737
53.060 4.120472
53.065 3.882372
53.070 3.975161
53.075 4.02038
53.080 4.381869
53.085 4.79811
53.090 4.839091
53.095 4.847809
53.100 4.727867
53.105 4.645502
53.110 4.844543
53.115 4.545821
53.120 4.580997
53.125 4.731196
53.130 5.154007
53.135 5.428266
53.140 5.322122
53.145 5.186362
53.150 5.114558
53.155 4.630579
53.160 4.342046
53.165 4.339362
53.170 4.157955
53.175 4.376286
53.180 4.128825
53.185 4.200346
53.190 4.662633
53.195 4.399907
53.200 4.270586
53.205 4.147621
53.210 3.824722
53.215 3.969131
53.220 4.098286
53.225 3.961179
53.230 4.012259
53.235 4.061648
53.240 4.248651
53.245 4.630244
53.250 4.842201
53.255 5.186251
53.260 5.338977
53.265 5.070107
53.270 4.833726
53.275 4.81643
53.280 4.242142
53.285 3.938277
53.290 3.453244
53.295 3.796858
53.300 4.131343
53.305 4.325668
53.310 4.921844
53.315 5.564248
53.320 6.268844
53.325 6.226537
53.330 6.03836
53.335 5.697441
53.340 5.499552
53.345 5.023178
53.350 4.22418
53.355 3.676856
53.360 3.836069
53.365 4.112803
53.370 4.427231
53.375 4.629258
53.380 4.722072
53.385 5.26574
53.390 5.548613
53.395 5.570145
53.400 5.587811
53.405 5.456348
53.410 5.313129
53.415 5.306532
53.420 5.159111
53.425 5.280323
53.430 5.196524
53.435 5.048151
53.440 5.252958
53.445 5.462364
53.450 5.448672
53.455 5.420329
53.460 5.255923
53.465 5.434721
53.470 5.42683
53.475 5.135054
53.480 5.080207
53.485 5.195241
53.490 5.040753
53.495 5.022598
53.500 5.081946
53.505 5.0435
53.510 5.279416
53.515 5.457456
53.520 5.86745
53.525 5.904291
53.530 5.856468
53.535 5.788154
53.540 5.959671
53.545 5.901308
53.550 5.716393
53.555 5.351962
53.560 5.286662
53.565 5.107125
53.570 4.738207
53.575 4.512459
53.580 4.266443
53.585 4.321521
53.590 4.559784
53.595 4.755486
53.600 5.185932
53.605 5.325331
53.610 5.551641
53.615 5.666648
53.620 5.566827
53.625 5.430941
53.630 5.33876
53.635 5.17327
53.640 5.203067
53.645 4.956729
53.650 4.717189
53.655 4.856823
53.660 4.720924
53.665 4.649574
53.670 4.832119
53.675 4.865626
53.680 5.096775
53.685 5.023695
53.690 5.185098
53.695 5.436084
53.700 5.074196
53.705 4.996018
53.710 4.962284
53.715 5.065366
53.720 5.099989
53.725 4.700627
53.730 4.766807
53.735 5.252519
53.740 5.448358
53.745 5.158699
53.750 4.888454
53.755 4.901657
53.760 4.928717
53.765 4.85136
53.770 4.668573
53.775 4.837914
53.780 5.266404
53.785 5.607136
53.790 5.805804
53.795 6.250034
53.800 6.053237
53.805 5.888731
53.810 5.639052
53.815 5.555174
53.820 5.301627
53.825 5.439554
53.830 5.263175
53.835 5.822617
53.840 6.10353
53.845 5.958345
53.850 6.035668
53.855 5.771018
53.860 5.329347
53.865 5.180061
53.870 4.850873
53.875 4.667768
53.880 4.870234
53.885 4.875468
53.890 4.975866
53.895 5.41079
53.900 5.209011
53.905 5.118279
53.910 5.133274
53.915 5.216983
53.920 5.260858
53.925 5.492126
53.930 5.38971
53.935 5.759176
53.940 6.271475
53.945 6.267564
53.950 6.02473
53.955 6.082398
53.960 5.84566
53.965 5.406786
53.970 5.150815
53.975 4.927273
53.980 5.25318
53.985 5.23505
53.990 5.243665
53.995 5.489782
54.000 5.712361
54.005 5.729932
54.010 5.891327
54.015 5.643857
54.020 5.684867
54.025 5.92163
54.030 5.894363
54.035 5.922388
54.040 5.864047
54.045 5.740083
54.050 5.847004
54.055 5.665918
54.060 5.346241
54.065 5.70579
54.070 5.803535
54.075 5.804173
54.080 5.743783
54.085 5.53818
54.090 5.444025
54.095 5.459125
54.100 5.387791
54.105 5.495276
54.110 5.516367
54.115 5.298693
54.120 5.577227
54.125 5.696158
54.130 5.884299
54.135 5.605237
54.140 5.277473
54.145 5.17609
54.150 5.495039
54.155 5.515485
54.160 5.475452
54.165 5.049745
54.170 5.017372
54.175 5.139076
54.180 4.954229
54.185 4.652394
54.190 4.860371
54.195 4.979246
54.200 5.093582
54.205 5.098923
54.210 5.318505
54.215 5.866213
54.220 6.142392
54.225 5.58145
54.230 5.777989
54.235 6.043895
54.240 6.148026
54.245 5.766071
54.250 5.342892
54.255 5.598727
54.260 5.770858
54.265 5.369988
54.270 5.183797
54.275 5.333356
54.280 6.028917
54.285 6.108414
54.290 5.813023
54.295 6.146012
54.300 6.081211
54.305 6.178351
54.310 5.84858
54.315 5.535534
54.320 5.506605
54.325 5.774596
54.330 5.45639
54.335 5.770747
54.340 5.549072
54.345 5.409799
54.350 5.170719
54.355 5.279118
54.360 5.215555
54.365 5.483346
54.370 5.688025
54.375 5.958855
54.380 6.128278
54.385 6.129089
54.390 6.204025
54.395 6.449667
54.400 6.211136
54.405 6.123032
54.410 6.019822
54.415 5.917498
54.420 5.685606
54.425 5.605985
54.430 5.116262
54.435 4.934992
54.440 5.18119
54.445 5.468032
54.450 5.663155
54.455 5.829668
54.460 5.72601
54.465 6.047904
54.470 6.280703
54.475 6.207895
54.480 6.158388
54.485 6.137187
54.490 5.869009
54.495 5.954672
54.500 5.858948
54.505 5.770227
54.510 5.874371
54.515 5.948152
54.520 6.044116
54.525 6.128368
54.530 6.030738
54.535 5.971575
54.540 6.032143
54.545 5.756347
54.550 5.53125
54.555 5.347314
54.560 5.212361
54.565 5.080434
54.570 5.11154
54.575 5.102464
54.580 5.349938
54.585 5.577998
54.590 5.701655
54.595 6.008015
54.600 6.0686
54.605 6.061999
54.610 6.381805
54.615 6.629195
54.620 6.615866
54.625 6.72011
54.630 6.636694
54.635 6.873495
54.640 6.325699
54.645 5.45149
54.650 5.01085
54.655 5.018622
54.660 5.053005
54.665 4.828085
54.670 4.905446
54.675 5.557418
54.680 5.988307
54.685 5.989284
54.690 5.730162
54.695 5.619999
54.700 5.681079
54.705 5.798378
54.710 5.461299
54.715 5.408607
54.720 5.516357
54.725 5.656934
54.730 5.649042
54.735 5.55602
54.740 5.388304
54.745 5.752192
54.750 5.562632
54.755 5.51815
54.760 5.556243
54.765 5.391007
54.770 5.481853
54.775 5.711692
54.780 5.61856
54.785 6.288691
54.790 6.324512
54.795 6.426819
54.800 6.691125
54.805 6.852549
54.810 6.242731
54.815 5.955566
54.820 5.843213
54.825 5.917054
54.830 5.563814
54.835 5.548714
54.840 5.625679
54.845 6.113159
54.850 6.378808
54.855 6.104661
54.860 6.141094
54.865 6.38098
54.870 6.300198
54.875 6.058813
54.880 6.142009
54.885 5.924057
54.890 6.132767
54.895 6.113531
54.900 6.102432
54.905 6.141034
54.910 6.051051
54.915 5.995292
54.920 6.120526
54.925 6.298275
54.930 6.65924
54.935 7.121047
54.940 7.455869
54.945 7.809216
54.950 8.183055
54.955 8.256512
54.960 7.979162
54.965 7.432884
54.970 6.88485
54.975 6.492812
54.980 6.148135
54.985 5.62235
54.990 5.424984
54.995 5.287866
55.000 5.200838
55.005 5.043903
55.010 5.086247
55.015 5.249569
55.020 5.473558
55.025 5.67737
55.030 5.988688
55.035 6.266905
55.040 6.388462
55.045 6.527478
55.050 6.73884
55.055 6.762683
55.060 6.733961
55.065 6.634725
55.070 6.738266
55.075 6.630811
55.080 6.541068
55.085 6.009302
55.090 5.760067
55.095 5.504581
55.100 5.568068
55.105 5.831606
55.110 6.229635
55.115 6.268405
55.120 6.263341
55.125 6.35119
55.130 6.723215
55.135 6.722787
55.140 6.31386
55.145 5.91885
55.150 5.788528
55.155 5.845901
55.160 6.403625
55.165 6.477168
55.170 6.618983
55.175 7.04057
55.180 7.663708
55.185 8.151752
55.190 8.283431
55.195 7.861389
55.200 7.710018
55.205 7.652808
55.210 7.380917
55.215 7.087518
55.220 7.027506
55.225 6.796528
55.230 6.678134
55.235 6.69298
55.240 6.669223
55.245 6.791118
55.250 7.0577
55.255 6.848085
55.260 6.615788
55.265 6.713705
55.270 6.679806
55.275 6.324951
55.280 6.030409
55.285 6.125345
55.290 6.152225
55.295 5.975948
55.300 5.85147
55.305 5.846597
55.310 6.039333
55.315 6.140663
55.320 6.437313
55.325 7.051761
55.330 7.42134
55.335 7.543239
55.340 7.383466
55.345 7.370344
55.350 6.907567
55.355 6.339684
55.360 6.458991
55.365 6.279276
55.370 6.221742
55.375 6.312046
55.380 6.754652
55.385 6.769314
55.390 6.531236
55.395 6.560478
55.400 6.705488
55.405 6.731101
55.410 6.570074
55.415 6.173111
55.420 6.254616
55.425 6.340996
55.430 5.938037
55.435 5.846037
55.440 6.337791
55.445 6.628195
55.450 6.843888
55.455 7.020818
55.460 7.161823
55.465 7.253599
55.470 7.078333
55.475 6.775558
55.480 6.532169
55.485 6.441908
55.490 6.420542
55.495 6.448701
55.500 6.8742
55.505 7.258275
55.510 7.395525
55.515 7.550982
55.520 7.481309
55.525 7.558079
55.530 7.596836
55.535 7.70537
55.540 7.364582
55.545 7.234311
55.550 7.827859
55.555 8.028604
55.560 8.026778
55.565 8.109516
55.570 7.779624
55.575 8.022185
55.580 7.966365
55.585 7.368472
55.590 7.430497
55.595 7.245012
55.600 6.993159
55.605 7.007679
55.610 6.754225
55.615 6.745204
55.620 7.061578
55.625 7.367315
55.630 7.340273
55.635 7.335436
55.640 7.140313
55.645 7.271295
55.650 7.231713
55.655 6.789966
55.660 6.340405
55.665 6.524798
55.670 6.378231
55.675 6.89182
55.680 7.155822
55.685 7.176861
55.690 7.578898
55.695 7.640403
55.700 7.850801
55.705 8.173545
55.710 7.710545
55.715 7.378465
55.720 7.173804
55.725 7.04953
55.730 6.884887
55.735 7.121942
55.740 6.809118
55.745 7.21102
55.750 7.275111
55.755 7.193867
55.760 7.21519
55.765 7.104622
55.770 6.868851
55.775 6.841396
55.780 6.552133
55.785 6.501429
55.790 6.206713
55.795 6.49166
55.800 6.622507
55.805 6.251895
55.810 6.152691
55.815 6.496933
55.820 6.607204
55.825 6.635323
55.830 6.145174
55.835 6.120157
55.840 6.481176
55.845 6.763391
55.850 6.613025
55.855 6.594914
55.860 6.515505
55.865 6.570036
55.870 6.628954
55.875 6.412477
55.880 6.023945
55.885 5.988382
55.890 6.29057
55.895 6.728314
55.900 6.601558
55.905 6.474549
55.910 6.944573
55.915 7.213728
55.920 7.297817
55.925 7.25794
55.930 7.216882
55.935 7.525921
55.940 7.542571
55.945 7.028505
55.950 6.975976
55.955 7.118427
55.960 6.936023
55.965 6.746989
55.970 6.665252
55.975 6.916525
55.980 6.934591
55.985 7.001061
55.990 6.971593
55.995 7.086268
56.000 7.594758
56.005 7.512092
56.010 7.473992
56.015 7.291582
56.020 7.006258
56.025 6.891028
56.030 6.764098
56.035 6.372255
56.040 6.298975
56.045 6.400545
56.050 6.382379
56.055 6.228562
56.060 6.096697
56.065 6.132463
56.070 6.098778
56.075 6.233427
56.080 6.672044
56.085 7.092531
56.090 7.24652
56.095 7.514996
56.100 7.374103
56.105 7.568677
56.110 7.724926
56.115 7.768947
56.120 7.90787
56.125 7.77756
56.130 7.572647
56.135 7.505476
56.140 7.548351
56.145 7.001319
56.150 6.661129
56.155 6.153121
56.160 6.296557
56.165 6.67246
56.170 6.804495
56.175 6.698171
56.180 6.824247
56.185 7.01591
56.190 7.271214
56.195 6.996132
56.200 6.764069
56.205 6.660846
56.210 6.646244
56.215 6.762626
56.220 6.667307
56.225 6.819187
56.230 7.128403
56.235 7.368948
56.240 7.804243
56.245 8.01706
56.250 7.748964
56.255 7.667222
56.260 7.297608
56.265 7.646487
56.270 7.747754
56.275 7.590265
56.280 7.723131
56.285 7.974331
56.290 8.327221
56.295 8.860706
56.300 8.543114
56.305 8.260897
56.310 8.361614
56.315 8.37821
56.320 8.109062
56.325 8.135683
56.330 8.104413
56.335 8.008359
56.340 8.199366
56.345 8.120779
56.350 7.800184
56.355 7.898754
56.360 8.170924
56.365 7.838488
56.370 7.858439
56.375 7.711068
56.380 7.672444
56.385 7.833357
56.390 7.672698
56.395 6.935687
56.400 6.909291
56.405 6.666912
56.410 6.506929
56.415 6.960199
56.420 7.338866
56.425 7.507856
56.430 8.268994
56.435 8.319854
56.440 8.350142
56.445 8.220651
56.450 7.604172
56.455 7.259994
56.460 7.100911
56.465 6.371903
56.470 6.768446
56.475 6.996254
56.480 6.90749
56.485 6.673768
56.490 7.134823
56.495 7.026608
56.500 7.044632
56.505 6.811448
56.510 6.733026
56.515 6.806135
56.520 6.917944
56.525 6.701299
56.530 7.072084
56.535 7.407215
56.540 7.135741
56.545 6.881404
56.550 6.97658
56.555 7.020917
56.560 6.821836
56.565 6.829713
56.570 6.524902
56.575 6.925262
56.580 7.147601
56.585 7.057123
56.590 7.076028
56.595 7.260688
56.600 7.522808
56.605 7.612789
56.610 7.263004
56.615 7.425314
56.620 7.794932
56.625 8.045915
56.630 7.650732
56.635 7.032119
56.640 6.976968
56.645 6.939115
56.650 6.765002
56.655 6.399614
56.660 6.189305
56.665 6.173421
56.670 6.419086
56.675 6.512452
56.680 6.83261
56.685 6.661042
56.690 6.712738
56.695 6.530769
56.700 6.380702
56.705 6.335293
56.710 6.513778
56.715 6.597672
56.720 6.732946
56.725 7.04705
56.730 7.308957
56.735 7.452764
56.740 7.430378
56.745 7.38243
56.750 7.525867
56.755 7.403306
56.760 7.4097
56.765 7.462324
56.770 7.863165
56.775 8.25787
56.780 8.173324
56.785 8.051881
56.790 8.327141
56.795 8.392981
56.800 8.267614
56.805 8.119815
56.810 8.060702
56.815 8.09968
56.820 8.315161
56.825 7.947664
56.830 7.766681
56.835 8.162766
56.840 8.256884
56.845 8.182933
56.850 7.923344
56.855 7.912208
56.860 8.255216
56.865 8.314408
56.870 8.159831
56.875 7.938698
56.880 7.861423
56.885 7.809395
56.890 7.402613
56.895 7.049757
56.900 7.041842
56.905 7.478572
56.910 7.518588
56.915 7.499295
56.920 7.870489
56.925 7.941015
56.930 7.984299
56.935 7.586625
56.940 6.963498
56.945 6.830333
56.950 6.653152
56.955 6.321651
56.960 6.696565
56.965 6.634984
56.970 6.643484
56.975 6.911892
56.980 7.087929
56.985 7.363234
56.990 7.175863
56.995 6.967122
57.000 7.006215
57.005 6.862938
57.010 6.651698
57.015 6.510491
57.020 6.607123
57.025 6.828253
57.030 6.617941
57.035 6.757715
57.040 7.048109
57.045 7.249757
57.050 7.568651
57.055 7.651194
57.060 7.813309
57.065 7.992443
57.070 8.236956
57.075 8.19109
57.080 8.38505
57.085 8.099578
57.090 7.950816
57.095 7.858793
57.100 7.759616
57.105 7.764285
57.110 7.518034
57.115 6.964976
57.120 6.904921
57.125 6.757382
57.130 6.745594
57.135 6.436013
57.140 6.473951
57.145 7.210059
57.150 7.607361
57.155 7.749545
57.160 7.574066
57.165 7.585352
57.170 7.892838
57.175 7.7809
57.180 7.441213
57.185 7.468187
57.190 7.733249
57.195 8.080538
57.200 8.378379
57.205 8.430971
57.210 8.798156
57.215 8.870935
57.220 8.757384
57.225 8.849463
57.230 8.753156
57.235 8.504554
57.240 8.289824
57.245 8.198095
57.250 7.90512
57.255 7.994789
57.260 8.167807
57.265 8.378095
57.270 8.454975
57.275 8.864437
57.280 8.691213
57.285 8.895759
57.290 8.632485
57.295 8.447372
57.300 8.39485
57.305 8.566389
57.310 7.926584
57.315 8.201281
57.320 8.153201
57.325 8.2664
57.330 7.875659
57.335 7.575149
57.340 7.770179
57.345 8.222241
57.350 8.3325
57.355 8.532744
57.360 8.529223
57.365 8.94208
57.370 9.401377
57.375 9.255085
57.380 9.050587
57.385 9.060226
57.390 8.898598
57.395 8.965666
57.400 8.491282
57.405 8.159835
57.410 8.257171
57.415 8.116716
57.420 8.054191
57.425 8.164752
57.430 8.236401
57.435 8.50668
57.440 8.083031
57.445 7.681779
57.450 7.458505
57.455 7.306885
57.460 7.187308
57.465 7.215378
57.470 7.539591
57.475 8.326677
57.480 8.528468
57.485 8.671104
57.490 8.819382
57.495 8.82554
57.500 8.607644
57.505 8.234012
57.510 7.861005
57.515 8.364819
57.520 8.446159
57.525 8.252091
57.530 8.184432
57.535 7.94438
57.540 7.533226
57.545 7.046837
57.550 6.62353
57.555 6.766485
57.560 6.74994
57.565 7.014484
57.570 7.330673
57.575 7.852738
57.580 8.426543
57.585 8.500793
57.590 8.845594
57.595 8.950871
57.600 8.905629
57.605 8.690744
57.610 8.781036
57.615 8.599813
57.620 8.366934
57.625 8.147453
57.630 8.008019
57.635 8.314458
57.640 8.834933
57.645 8.976213
57.650 9.163388
57.655 9.575551
57.660 9.858549
57.665 10.158138
57.670 9.708507
57.675 9.301778
57.680 9.267347
57.685 9.257006
57.690 9.194901
57.695 8.876067
57.700 8.526456
57.705 8.575821
57.710 8.570924
57.715 8.493941
57.720 8.10988
57.725 7.720298
57.730 7.690538
57.735 7.916427
57.740 8.28586
57.745 8.344355
57.750 7.99381
57.755 8.448073
57.760 8.567504
57.765 8.348202
57.770 8.327876
57.775 8.423385
57.780 8.648945
57.785 8.855197
57.790 8.899307
57.795 9.096889
57.800 9.264626
57.805 9.182585
57.810 9.29593
57.815 9.51405
57.820 9.62251
57.825 9.576501
57.830 9.621285
57.835 9.475017
57.840 9.348621
57.845 8.720787
57.850 8.276935
57.855 8.123721
57.860 8.263431
57.865 7.926886
57.870 7.930933
57.875 8.243434
57.880 8.499914
57.885 9.036091
57.890 9.171035
57.895 9.164386
57.900 9.614394
57.905 9.809731
57.910 9.662936
57.915 9.609529
57.920 9.275003
57.925 8.865253
57.930 8.857058
57.935 8.581703
57.940 8.332594
57.945 8.368037
57.950 8.613736
57.955 8.670296
57.960 8.848093
57.965 8.536409
57.970 8.50964
57.975 8.486793
57.980 8.573317
57.985 8.765699
57.990 8.790066
57.995 8.64288
58.000 8.833596
58.005 8.841013
58.010 8.825627
58.015 8.739781
58.020 8.270439
58.025 8.00324
58.030 8.192461
58.035 8.562798
58.040 9.29442
58.045 9.482718
58.050 9.604632
58.055 9.879572
58.060 9.98663
58.065 9.906143
58.070 9.663974
58.075 9.621168
58.080 10.010852
58.085 9.680783
58.090 9.569379
58.095 9.733609
58.100 10.078414
58.105 10.417542
58.110 10.200146
58.115 9.847294
58.120 9.973136
58.125 9.905951
58.130 9.813525
58.135 9.461377
58.140 9.226023
58.145 9.577652
58.150 9.643837
58.155 9.626279
58.160 9.836758
58.165 9.707256
58.170 9.893142
58.175 9.511091
58.180 9.185016
58.185 9.392097
58.190 9.321312
58.195 9.134561
58.200 9.604806
58.205 9.326888
58.210 9.256205
58.215 9.007833
58.220 8.917332
58.225 9.063486
58.230 9.136362
58.235 9.313148
58.240 9.656984
58.245 9.854446
58.250 9.660407
58.255 9.693296
58.260 9.468648
58.265 9.462005
58.270 9.347692
58.275 9.73041
58.280 10.147948
58.285 10.654859
58.290 10.457091
58.295 10.872869
58.300 11.066678
58.305 11.411497
58.310 11.481831
58.315 11.387913
58.320 11.340653
58.325 11.463372
58.330 11.048721
58.335 10.826801
58.340 10.464871
58.345 10.70307
58.350 10.461399
58.355 10.575493
58.360 10.911076
58.365 11.442056
58.370 11.603662
58.375 11.141403
58.380 10.879258
58.385 10.878131
58.390 10.926806
58.395 11.001045
58.400 10.817324
58.405 11.012741
58.410 11.202102
58.415 11.118227
58.420 11.635355
58.425 12.04858
58.430 12.287646
58.435 12.28527
58.440 12.562906
58.445 12.677242
58.450 13.056543
58.455 13.124253
58.460 13.442407
58.465 13.319423
58.470 13.912388
58.475 13.869243
58.480 13.9495
58.485 14.267862
58.490 14.234369
58.495 14.257413
58.500 14.832549
58.505 14.440368
58.510 14.573537
58.515 14.793356
58.520 14.946137
58.525 15.136467
58.530 14.425967
58.535 14.006561
58.540 14.3314
58.545 14.597301
58.550 14.58107
58.555 13.87513
58.560 14.523363
58.565 15.36679
58.570 15.514268
58.575 15.811798
58.580 15.781652
58.585 16.038265
58.590 17.353907
58.595 17.472204
58.600 17.493679
58.605 17.551645
58.610 17.35253
58.615 17.121696
58.620 16.594215
58.625 16.487841
58.630 16.239613
58.635 16.192867
58.640 16.690319
58.645 16.9923
58.650 17.694515
58.655 18.231691
58.660 18.099291
58.665 18.241318
58.670 18.504128
58.675 18.659189
58.680 18.773792
58.685 19.1854
58.690 19.557453
58.695 19.748411
58.700 19.94812
58.705 19.682995
58.710 19.932541
58.715 19.75913
58.720 19.321707
58.725 18.675814
58.730 17.961178
58.735 17.733269
