!@!!GADDS PLOTSO FILE: Chi integration type
!@!!Title/SampleName: map-1
!@!!Comment: ?
!@!!User: Bruker Instrument Administrator
!@!!Site: University of Illinois Chicago
!@!!Frame: map-1_01_000.gfrm
!@!!Wavelengths    1.54184   1.54056   1.54439
!@!!Frame angles: 2Theta: 63.000 Omega: 50.000 Phi: 0.000 Chi: 90.000
!@!!Integration range: 2Theta: 53.000 to 73.000  Gamma: -105.000 to -75.000
!@!!Integration method: bin normalized
!@!N
!@!SS
!@!M
!@!L 0.0 0.0 0.0 0.0
!@!XDegrees
!@!YCounts
53.000 7.402084
53.005 7.269578
53.010 7.295624
53.015 7.0174
53.020 7.033619
53.025 7.174678
53.030 6.814971
53.035 6.622942
53.040 6.610514
53.045 6.306686
53.050 6.165192
53.055 6.126724
53.060 6.393399
53.065 6.984894
53.070 7.318796
53.075 7.392244
53.080 7.669306
53.085 7.795524
53.090 7.671046
53.095 7.305304
53.100 7.096183
53.105 7.066408
53.110 7.317455
53.115 7.327718
53.120 7.411577
53.125 7.721148
53.130 7.672907
53.135 7.687993
53.140 7.57977
53.145 7.696434
53.150 7.703816
53.155 7.457957
53.160 7.329646
53.165 7.389925
53.170 7.391164
53.175 7.126264
53.180 6.741623
53.185 7.029183
53.190 7.495245
53.195 7.301404
53.200 7.240434
53.205 7.272092
53.210 7.369933
53.215 7.742302
53.220 7.600704
53.225 7.656906
53.230 7.961261
53.235 8.290661
53.240 8.154345
53.245 8.44542
53.250 8.556347
53.255 8.58907
53.260 8.452366
53.265 8.112852
53.270 7.972386
53.275 8.099272
53.280 8.170954
53.285 7.805307
53.290 7.85768
53.295 7.928199
53.300 7.861275
53.305 7.77002
53.310 7.751759
53.315 7.928324
53.320 7.878154
53.325 7.564343
53.330 7.625903
53.335 7.868119
53.340 8.307961
53.345 8.14806
53.350 7.781621
53.355 7.831319
53.360 7.768897
53.365 8.022265
53.370 7.738982
53.375 7.574817
53.380 7.752112
53.385 8.061073
53.390 7.940044
53.395 7.798435
53.400 8.006905
53.405 8.236086
53.410 8.207785
53.415 8.27457
53.420 8.273126
53.425 8.321065
53.430 8.544464
53.435 8.121965
53.440 7.809037
53.445 7.751987
53.450 7.623285
53.455 8.084025
53.460 8.358492
53.465 8.05732
53.470 8.039001
53.475 8.030242
53.480 8.002751
53.485 7.592638
53.490 7.328706
53.495 7.075973
53.500 7.409465
53.505 7.615862
53.510 7.745574
53.515 7.793385
53.520 7.943331
53.525 8.068002
53.530 8.465173
53.535 8.444303
53.540 8.43097
53.545 8.374904
53.550 8.763797
53.555 8.935252
53.560 8.972154
53.565 8.732668
53.570 8.761925
53.575 8.953031
53.580 8.779572
53.585 8.308073
53.590 8.306903
53.595 8.224909
53.600 7.881078
53.605 7.598117
53.610 7.346559
53.615 7.667207
53.620 7.623932
53.625 7.641612
53.630 8.002352
53.635 8.229603
53.640 8.453307
53.645 8.320437
53.650 8.220682
53.655 8.294728
53.660 7.96246
53.665 7.915426
53.670 7.993653
53.675 7.818947
53.680 8.281214
53.685 8.364013
53.690 8.337412
53.695 8.678224
53.700 8.573607
53.705 8.910978
53.710 9.503901
53.715 9.304269
53.720 9.166466
53.725 9.244319
53.730 9.522356
53.735 9.668699
53.740 9.341043
53.745 8.812233
53.750 8.435414
53.755 8.318341
53.760 8.043605
53.765 7.579849
53.770 7.555468
53.775 7.397282
53.780 7.736748
53.785 8.170406
53.790 8.382204
53.795 8.413055
53.800 8.604044
53.805 8.725529
53.810 8.685497
53.815 8.448122
53.820 8.567977
53.825 8.824627
53.830 8.787003
53.835 8.687
53.840 9.198372
53.845 9.454441
53.850 9.062089
53.855 9.024971
53.860 9.167934
53.865 9.374549
53.870 9.275575
53.875 8.847692
53.880 8.97794
53.885 9.656764
53.890 9.060895
53.895 8.997119
53.900 9.062647
53.905 9.295736
53.910 9.377273
53.915 9.133748
53.920 8.837935
53.925 9.061575
53.930 9.199404
53.935 9.545669
53.940 9.373712
53.945 9.619402
53.950 10.160443
53.955 10.218182
53.960 9.905952
53.965 9.882794
53.970 9.798099
53.975 9.710326
53.980 9.801963
53.985 9.495868
53.990 9.560405
53.995 10.119785
54.000 9.739577
54.005 9.504564
54.010 9.54038
54.015 9.52035
54.020 9.661075
54.025 9.410861
54.030 8.978936
54.035 8.941697
54.040 8.96417
54.045 8.760201
54.050 8.552471
54.055 8.741603
54.060 8.980236
54.065 8.755788
54.070 8.407279
54.075 8.276541
54.080 8.19488
54.085 7.826121
54.090 7.652481
54.095 7.989933
54.100 8.219254
54.105 8.646314
54.110 8.843636
54.115 9.022856
54.120 8.883325
54.125 9.048586
54.130 8.971105
54.135 9.093544
54.140 8.847017
54.145 8.589767
54.150 8.75477
54.155 9.189775
54.160 8.82935
54.165 8.87797
54.170 8.875938
54.175 9.115883
54.180 9.142987
54.185 9.08122
54.190 8.593247
54.195 8.440952
54.200 8.202791
54.205 8.487226
54.210 8.448108
54.215 8.365138
54.220 8.39686
54.225 9.009107
54.230 9.285492
54.235 9.284821
54.240 9.04838
54.245 8.908174
54.250 8.954339
54.255 8.686702
54.260 8.96824
54.265 9.001373
54.270 9.300089
54.275 9.839931
54.280 10.288395
54.285 10.611176
54.290 11.180021
54.295 11.085958
54.300 11.21477
54.305 10.85101
54.310 10.253238
54.315 9.946843
54.320 9.810102
54.325 9.681859
54.330 9.470999
54.335 9.204597
54.340 9.176732
54.345 9.309114
54.350 9.355089
54.355 9.23497
54.360 9.063459
54.365 9.083106
54.370 9.077011
54.375 9.467011
54.380 9.814672
54.385 9.985943
54.390 10.42012
54.395 10.533599
54.400 10.637526
54.405 10.653886
54.410 10.944871
54.415 10.844326
54.420 10.739557
54.425 10.400389
54.430 10.50141
54.435 10.630246
54.440 10.545547
54.445 10.298007
54.450 9.783731
54.455 9.362475
54.460 8.974142
54.465 9.007314
54.470 8.647849
54.475 8.57841
54.480 8.349036
54.485 8.456346
54.490 8.589029
54.495 9.037398
54.500 8.679029
54.505 9.079051
54.510 9.16753
54.515 9.126289
54.520 9.548413
54.525 9.884478
54.530 9.849775
54.535 10.268486
54.540 10.04821
54.545 10.369263
54.550 10.736931
54.555 10.356115
54.560 10.107479
54.565 9.652286
54.570 9.519359
54.575 9.835409
54.580 9.85172
54.585 10.161312
54.590 10.219736
54.595 10.578161
54.600 10.68218
54.605 10.203874
54.610 9.843721
54.615 9.367704
54.620 8.676226
54.625 8.522193
54.630 8.067587
54.635 8.255702
54.640 8.419814
54.645 8.149137
54.650 8.309723
54.655 9.194421
54.660 9.137536
54.665 9.232296
54.670 9.014395
54.675 8.870934
54.680 8.710865
54.685 8.99837
54.690 8.897653
54.695 9.116443
54.700 9.440125
54.705 9.818151
54.710 10.329737
54.715 11.297309
54.720 11.162785
54.725 10.84816
54.730 10.947459
54.735 11.022337
54.740 10.973445
54.745 10.692623
54.750 9.967394
54.755 10.046787
54.760 10.201681
54.765 10.181743
54.770 10.17048
54.775 9.921447
54.780 10.053592
54.785 10.28121
54.790 10.341631
54.795 10.25808
54.800 9.851356
54.805 9.652061
54.810 9.941836
54.815 9.850856
54.820 9.536349
54.825 9.705464
54.830 10.084516
54.835 10.609724
54.840 10.80109
54.845 10.46212
54.850 10.486901
54.855 10.625892
54.860 9.95155
54.865 9.455058
54.870 9.709208
54.875 9.757676
54.880 9.69728
54.885 10.33983
54.890 10.906062
54.895 11.843474
54.900 12.138579
54.905 11.627656
54.910 11.616302
54.915 11.619637
54.920 10.823065
54.925 10.060746
54.930 9.800042
54.935 9.496403
54.940 9.703078
54.945 9.596095
54.950 9.563224
54.955 9.167136
54.960 9.086252
54.965 8.519456
54.970 8.22454
54.975 8.256557
54.980 8.521668
54.985 8.839744
54.990 9.425454
54.995 9.825841
55.000 10.374567
55.005 10.633945
55.010 10.70407
55.015 10.588545
55.020 10.599216
55.025 10.626741
55.030 10.505065
55.035 10.605237
55.040 10.660131
55.045 10.557309
55.050 10.354528
55.055 10.11062
55.060 10.075376
55.065 10.17457
55.070 9.983088
55.075 10.149481
55.080 10.333856
55.085 10.713138
55.090 11.068625
55.095 11.444633
55.100 11.548232
55.105 11.684871
55.110 11.621477
55.115 11.371708
55.120 10.684873
55.125 10.177659
55.130 9.256783
55.135 9.229977
55.140 9.108415
55.145 9.021323
55.150 8.736755
55.155 8.762553
55.160 8.996269
55.165 9.674644
55.170 9.477958
55.175 8.907891
55.180 9.008576
55.185 9.51657
55.190 9.947756
55.195 10.158641
55.200 10.421136
55.205 10.660207
55.210 11.139892
55.215 11.522055
55.220 11.857935
55.225 11.945787
55.230 12.141978
55.235 11.973774
55.240 12.108644
55.245 12.256287
55.250 12.202739
55.255 11.883899
55.260 11.265182
55.265 10.875648
55.270 10.304278
55.275 10.228905
55.280 9.901559
55.285 9.541283
55.290 9.355711
55.295 9.460986
55.300 9.887631
55.305 10.17167
55.310 9.790438
55.315 10.033768
55.320 10.451694
55.325 10.939653
55.330 11.3494
55.335 11.334473
55.340 11.394595
55.345 11.659823
55.350 11.484538
55.355 11.54459
55.360 11.287114
55.365 11.16124
55.370 11.144238
55.375 11.547712
55.380 11.873739
55.385 11.778371
55.390 11.33144
55.395 11.300285
55.400 10.809055
55.405 10.659687
55.410 10.511385
55.415 10.427343
55.420 10.571238
55.425 10.371014
55.430 9.913296
55.435 9.978628
55.440 9.696536
55.445 9.402183
55.450 9.084078
55.455 9.338208
55.460 9.46313
55.465 9.791574
55.470 9.602102
55.475 9.676615
55.480 10.049296
55.485 10.193434
55.490 10.11434
55.495 10.050625
55.500 10.486473
55.505 10.721185
55.510 10.537416
55.515 10.228145
55.520 10.077129
55.525 9.698771
55.530 9.395638
55.535 9.039377
55.540 9.355048
55.545 9.587276
55.550 9.817334
55.555 10.040922
55.560 10.667975
55.565 11.446881
55.570 11.732163
55.575 11.686151
55.580 11.301058
55.585 11.226418
55.590 11.211029
55.595 11.02141
55.600 10.231122
55.605 9.761606
55.610 9.445856
55.615 9.672191
55.620 9.615464
55.625 9.358091
55.630 9.044676
55.635 9.426876
55.640 9.847292
55.645 10.003915
55.650 10.232203
55.655 10.382332
55.660 10.356724
55.665 10.346259
55.670 10.089598
55.675 9.729331
55.680 9.693593
55.685 9.702198
55.690 9.981123
55.695 10.562525
55.700 11.465495
55.705 11.663131
55.710 12.067142
55.715 11.943339
55.720 11.725664
55.725 11.463295
55.730 10.958375
55.735 10.661825
55.740 10.742178
55.745 10.501963
55.750 10.522304
55.755 10.690499
55.760 10.728657
55.765 11.169658
55.770 11.215577
55.775 11.518522
55.780 11.860948
55.785 12.156733
55.790 12.183216
55.795 12.138785
55.800 11.824424
55.805 11.349224
55.810 10.876612
55.815 10.492392
55.820 10.426328
55.825 10.305328
55.830 10.202035
55.835 10.552425
55.840 10.913832
55.845 11.298813
55.850 11.473117
55.855 11.587637
55.860 11.840631
55.865 11.981065
55.870 11.464706
55.875 11.330606
55.880 11.714351
55.885 12.226785
55.890 12.064391
55.895 11.849069
55.900 11.722607
55.905 11.77089
55.910 12.041869
55.915 11.272127
55.920 10.448522
55.925 10.780037
55.930 10.972693
55.935 11.633251
55.940 12.013294
55.945 11.699725
55.950 12.32141
55.955 12.429927
55.960 11.952507
55.965 11.947515
55.970 11.749921
55.975 11.824286
55.980 12.063549
55.985 11.99052
55.990 12.255001
55.995 12.610044
56.000 12.696045
56.005 12.739437
56.010 12.66935
56.015 12.365696
56.020 12.200452
56.025 12.142967
56.030 11.870135
56.035 12.379247
56.040 12.293843
56.045 12.559365
56.050 12.650331
56.055 12.915381
56.060 12.889262
56.065 12.750741
56.070 12.111946
56.075 11.956936
56.080 11.474027
56.085 11.071084
56.090 10.766503
56.095 10.824274
56.100 10.900104
56.105 10.977829
56.110 10.837293
56.115 10.739544
56.120 10.923134
56.125 10.722866
56.130 10.706695
56.135 10.758313
56.140 10.942728
56.145 11.710694
56.150 12.187617
56.155 12.128151
56.160 12.169104
56.165 12.443669
56.170 12.46433
56.175 12.765742
56.180 12.823867
56.185 12.979738
56.190 13.312497
56.195 13.343948
56.200 12.748501
56.205 12.190213
56.210 11.745236
56.215 11.096241
56.220 10.86061
56.225 10.656193
56.230 11.118529
56.235 11.744352
56.240 12.213444
56.245 12.091347
56.250 12.083585
56.255 12.580695
56.260 12.807037
56.265 12.912468
56.270 12.708524
56.275 12.460302
56.280 12.824579
56.285 13.059119
56.290 12.888743
56.295 12.54376
56.300 12.207906
56.305 12.688743
56.310 12.783268
56.315 12.802423
56.320 12.690043
56.325 12.467223
56.330 12.188054
56.335 11.913446
56.340 11.317834
56.345 11.075268
56.350 11.442957
56.355 12.217765
56.360 12.557375
56.365 12.560175
56.370 12.373438
56.375 12.523918
56.380 12.697871
56.385 11.98784
56.390 11.401505
56.395 11.596982
56.400 11.918467
56.405 12.146452
56.410 12.056898
56.415 11.78729
56.420 11.832829
56.425 11.464936
56.430 10.80092
56.435 10.233006
56.440 10.182897
56.445 10.376214
56.450 10.442729
56.455 10.404654
56.460 11.062723
56.465 11.321783
56.470 11.724773
56.475 11.737748
56.480 11.607001
56.485 11.928977
56.490 11.933945
56.495 11.331813
56.500 11.292116
56.505 11.264898
56.510 11.341574
56.515 11.638542
56.520 11.760871
56.525 11.997586
56.530 12.199019
56.535 12.387516
56.540 13.022242
56.545 13.523162
56.550 13.521936
56.555 13.179507
56.560 12.782784
56.565 13.16436
56.570 13.022896
56.575 12.406439
56.580 11.678028
56.585 11.29829
56.590 11.241446
56.595 11.406668
56.600 11.121121
56.605 11.277887
56.610 11.564388
56.615 11.733178
56.620 12.003394
56.625 12.062854
56.630 12.084851
56.635 11.999784
56.640 11.771338
56.645 12.279227
56.650 12.264551
56.655 12.240084
56.660 12.255691
56.665 12.056145
56.670 12.147577
56.675 11.396859
56.680 10.771206
56.685 10.929559
56.690 10.804171
56.695 11.020699
56.700 11.343289
56.705 11.354241
56.710 11.85361
56.715 12.131979
56.720 11.89515
56.725 12.200244
56.730 12.403059
56.735 12.382673
56.740 12.226308
56.745 12.278131
56.750 12.561961
56.755 12.749807
56.760 12.468771
56.765 12.022159
56.770 12.316018
56.775 13.276022
56.780 13.25305
56.785 13.024075
56.790 12.632763
56.795 12.393689
56.800 12.684539
56.805 12.584169
56.810 11.729821
56.815 11.274742
56.820 11.374454
56.825 11.874115
56.830 12.050972
56.835 12.515229
56.840 12.873898
56.845 13.275025
56.850 13.549551
56.855 13.009931
56.860 12.91672
56.865 12.840491
56.870 12.397389
56.875 12.00205
56.880 12.095723
56.885 12.311547
56.890 12.7701
56.895 12.871576
56.900 13.221744
56.905 12.902247
56.910 12.754863
56.915 12.876471
56.920 13.192719
56.925 13.40758
56.930 13.707972
56.935 13.287642
56.940 13.433132
56.945 13.375048
56.950 13.009075
56.955 12.528557
56.960 12.602779
56.965 12.329987
56.970 12.689617
56.975 12.943251
56.980 13.069673
56.985 13.663497
56.990 13.959389
56.995 13.561971
57.000 13.534991
57.005 13.322047
57.010 13.167755
57.015 13.14822
57.020 12.724067
57.025 12.64471
57.030 12.690065
57.035 13.282172
57.040 13.631304
57.045 13.416939
57.050 13.114374
57.055 12.896663
57.060 12.576483
57.065 12.378943
57.070 11.878966
57.075 12.131933
57.080 12.628592
57.085 13.017661
57.090 13.443418
57.095 13.151884
57.100 13.188982
57.105 13.317543
57.110 13.122824
57.115 13.160226
57.120 13.202141
57.125 13.383638
57.130 13.753874
57.135 13.733484
57.140 13.001553
57.145 12.584289
57.150 12.629962
57.155 12.335032
57.160 11.932749
57.165 12.024911
57.170 12.10469
57.175 12.520093
57.180 12.317822
57.185 11.86657
57.190 11.970159
57.195 12.349092
57.200 12.26977
57.205 12.544709
57.210 12.826753
57.215 13.354032
57.220 13.449257
57.225 13.277909
57.230 12.987965
57.235 13.007024
57.240 12.758587
57.245 12.434026
57.250 11.991468
57.255 11.927867
57.260 12.397261
57.265 12.572912
57.270 12.448394
57.275 12.432681
57.280 12.722642
57.285 13.115499
57.290 13.454365
57.295 13.351345
57.300 13.108557
57.305 13.087917
57.310 13.351158
57.315 13.776596
57.320 13.725248
57.325 13.797545
57.330 14.219769
57.335 14.549285
57.340 14.320539
57.345 13.854712
57.350 13.299341
57.355 13.22634
57.360 12.405029
57.365 11.598833
57.370 11.686622
57.375 11.92457
57.380 11.993073
57.385 12.093392
57.390 12.11601
57.395 12.852981
57.400 13.502894
57.405 13.641818
57.410 13.542608
57.415 13.381837
57.420 13.77345
57.425 14.167074
57.430 13.874312
57.435 13.594352
57.440 13.004001
57.445 12.884679
57.450 13.064413
57.455 13.045261
57.460 12.588929
57.465 12.870502
57.470 12.900167
57.475 13.491816
57.480 13.662498
57.485 13.324142
57.490 12.893581
57.495 12.934161
57.500 12.303341
57.505 11.531411
57.510 11.073711
57.515 11.057961
57.520 11.04823
57.525 10.964699
57.530 11.031201
57.535 11.499464
57.540 12.362504
57.545 12.537609
57.550 12.873763
57.555 12.969424
57.560 13.097464
57.565 13.177759
57.570 13.589362
57.575 13.327714
57.580 13.642499
57.585 13.732892
57.590 14.0545
57.595 14.075706
57.600 14.025056
57.605 13.440301
57.610 12.960408
57.615 12.496634
57.620 12.270021
57.625 11.709373
57.630 11.737509
57.635 11.907695
57.640 12.239941
57.645 12.491995
57.650 12.51151
57.655 12.594783
57.660 12.617829
57.665 12.775379
57.670 12.720975
57.675 13.013707
57.680 13.236185
57.685 13.615352
57.690 13.551012
57.695 13.782293
57.700 13.864064
57.705 13.596192
57.710 13.546987
57.715 13.492938
57.720 13.364791
57.725 13.795294
57.730 13.561768
57.735 13.503096
57.740 13.607841
57.745 13.526875
57.750 13.743326
57.755 13.480998
57.760 13.430562
57.765 13.441995
57.770 13.172205
57.775 13.130052
57.780 13.169415
57.785 13.07583
57.790 13.663469
57.795 13.143304
57.800 13.307429
57.805 13.239153
57.810 13.239785
57.815 13.29508
57.820 13.097134
57.825 12.719727
57.830 13.101524
57.835 13.539619
57.840 13.431741
57.845 13.300718
57.850 13.076334
57.855 12.932576
57.860 12.948472
57.865 12.655043
57.870 12.837435
57.875 13.437613
57.880 13.562644
57.885 13.771737
57.890 14.13592
57.895 14.377507
57.900 14.344821
57.905 13.834925
57.910 14.027411
57.915 13.719832
57.920 13.399943
57.925 13.214835
57.930 12.673454
57.935 12.907183
57.940 12.889228
57.945 12.156862
57.950 12.338857
57.955 12.155461
57.960 11.740116
57.965 11.785233
57.970 12.117675
57.975 11.767774
57.980 11.672508
57.985 11.793374
57.990 12.369346
57.995 12.633092
58.000 12.573134
58.005 12.568048
58.010 13.155726
58.015 13.292147
58.020 13.03297
58.025 13.120125
58.030 13.125088
58.035 13.507642
58.040 13.548934
58.045 13.442867
58.050 13.64521
58.055 13.694751
58.060 13.752052
58.065 14.110571
58.070 13.954672
58.075 13.740849
58.080 13.950873
58.085 14.006888
58.090 14.046422
58.095 13.977578
58.100 13.857832
58.105 13.855541
58.110 13.97681
58.115 14.180092
58.120 14.405389
58.125 14.678101
58.130 14.892732
58.135 15.339953
58.140 15.173419
58.145 14.36953
58.150 13.624043
58.155 13.438851
58.160 13.572016
58.165 13.371659
58.170 13.204359
58.175 13.189731
58.180 14.204551
58.185 14.790252
58.190 14.672235
58.195 14.410702
58.200 14.339031
58.205 14.31961
58.210 14.774817
58.215 14.338959
58.220 14.30751
58.225 14.396771
58.230 14.194095
58.235 14.045323
58.240 13.859999
58.245 13.523144
58.250 13.272926
58.255 13.048837
58.260 13.290426
58.265 13.907596
58.270 14.775076
58.275 14.741767
58.280 14.231487
58.285 14.468166
58.290 14.748674
58.295 14.369075
58.300 13.780285
58.305 13.729308
58.310 14.017216
58.315 13.572475
58.320 13.610206
58.325 13.161312
58.330 12.902606
58.335 12.748997
58.340 12.863284
58.345 13.052197
58.350 13.975331
58.355 14.249722
58.360 14.773457
58.365 15.507463
58.370 15.623709
58.375 15.603826
58.380 15.408414
58.385 15.232329
58.390 15.012879
58.395 14.664207
58.400 14.607977
58.405 14.380507
58.410 13.96102
58.415 14.178971
58.420 14.198733
58.425 14.418388
58.430 14.464282
58.435 14.1222
58.440 13.766965
58.445 13.862351
58.450 13.956656
58.455 13.650869
58.460 13.661292
58.465 13.776543
58.470 13.983036
58.475 13.796465
58.480 13.326731
58.485 12.938944
58.490 13.033169
58.495 12.949726
58.500 12.76663
58.505 12.776887
58.510 13.006565
58.515 13.315329
58.520 13.536941
58.525 13.42257
58.530 13.513678
58.535 13.377645
58.540 13.857308
58.545 13.792171
