!@!!GADDS PLOTSO FILE: Chi integration type
!@!!Title/SampleName: map-107
!@!!Comment: ?
!@!!User: Bruker Instrument Administrator
!@!!Site: University of Illinois Chicago
!@!!Frame: map-107_01_000.gfrm
!@!!Wavelengths    1.54184   1.54056   1.54439
!@!!Frame angles: 2Theta: 63.000 Omega: 50.000 Phi: 0.000 Chi: 90.000
!@!!Integration range: 2Theta: 53.000 to 73.000  Gamma: -105.000 to -75.000
!@!!Integration method: bin normalized
!@!N
!@!SS
!@!M
!@!L 0.0 0.0 0.0 0.0
!@!XDegrees
!@!YCounts
53.000 10.492559
53.005 10.899563
53.010 10.637738
53.015 10.485778
53.020 10.705383
53.025 10.454258
53.030 9.561881
53.035 8.887273
53.040 8.6911
53.045 9.211164
53.050 9.091537
53.055 9.152525
53.060 9.256616
53.065 9.707262
53.070 10.093072
53.075 10.13063
53.080 9.680252
53.085 9.466017
53.090 9.45108
53.095 9.372438
53.100 9.37881
53.105 9.205298
53.110 9.728318
53.115 10.375136
53.120 10.227604
53.125 10.005466
53.130 9.882306
53.135 9.57429
53.140 9.273736
53.145 8.958055
53.150 9.036153
53.155 9.189704
53.160 9.702024
53.165 10.017663
53.170 10.351707
53.175 10.287677
53.180 10.216185
53.185 10.42683
53.190 10.498779
53.195 10.515763
53.200 10.654528
53.205 10.336072
53.210 10.501861
53.215 10.150238
53.220 10.18025
53.225 10.570515
53.230 10.188996
53.235 9.920943
53.240 10.280781
53.245 10.406712
53.250 10.847205
53.255 10.677236
53.260 10.031769
53.265 9.918881
53.270 9.99674
53.275 9.387508
53.280 9.052328
53.285 8.546885
53.290 8.925422
53.295 9.026685
53.300 9.355069
53.305 9.833942
53.310 10.077941
53.315 9.933661
53.320 9.867905
53.325 9.936672
53.330 10.090594
53.335 10.101906
53.340 9.713763
53.345 9.546676
53.350 9.99323
53.355 10.207521
53.360 10.610652
53.365 10.809926
53.370 11.230353
53.375 11.788538
53.380 11.692265
53.385 11.361778
53.390 11.282714
53.395 11.037184
53.400 11.189195
53.405 11.162152
53.410 11.400456
53.415 11.504907
53.420 11.322906
53.425 10.900599
53.430 10.600617
53.435 9.87689
53.440 9.693404
53.445 9.930511
53.450 10.053399
53.455 10.280736
53.460 10.517891
53.465 10.934167
53.470 11.695799
53.475 11.645905
53.480 11.230326
53.485 11.129662
53.490 10.95073
53.495 10.983759
53.500 10.82071
53.505 10.121127
53.510 9.865554
53.515 10.112764
53.520 10.254193
53.525 10.214539
53.530 9.477379
53.535 9.622966
53.540 10.108529
53.545 10.40764
53.550 10.639412
53.555 10.870317
53.560 11.427069
53.565 11.289768
53.570 10.881485
53.575 10.399892
53.580 10.379088
53.585 10.530605
53.590 10.249393
53.595 10.53521
53.600 11.047815
53.605 11.867463
53.610 11.993579
53.615 11.498696
53.620 11.044499
53.625 10.931936
53.630 10.594076
53.635 10.401244
53.640 9.928444
53.645 10.082183
53.650 10.267886
53.655 10.585645
53.660 10.828199
53.665 10.970944
53.670 10.521499
53.675 10.042823
53.680 10.080299
53.685 10.850458
53.690 10.896259
53.695 10.560794
53.700 10.677644
53.705 10.720878
53.710 11.007164
53.715 10.669782
53.720 9.867791
53.725 10.065067
53.730 10.283442
53.735 10.238031
53.740 10.17194
53.745 9.927211
53.750 9.924026
53.755 9.892556
53.760 9.036982
53.765 8.958822
53.770 9.121113
53.775 9.31469
53.780 9.664315
53.785 9.886067
53.790 9.886116
53.795 10.406049
53.800 10.502215
53.805 10.565132
53.810 10.699
53.815 10.62955
53.820 10.488832
53.825 10.776818
53.830 10.902714
53.835 11.232478
53.840 11.196526
53.845 11.091466
53.850 11.151865
53.855 11.607546
53.860 11.852478
53.865 11.420097
53.870 10.828664
53.875 10.875039
53.880 11.057839
53.885 10.858603
53.890 10.414023
53.895 10.06778
53.900 10.19864
53.905 10.279404
53.910 10.359315
53.915 10.415005
53.920 10.181129
53.925 9.986718
53.930 10.200685
53.935 10.454833
53.940 10.248343
53.945 10.03204
53.950 10.040545
53.955 10.579512
53.960 10.338633
53.965 9.95255
53.970 9.971564
53.975 10.373132
53.980 10.758665
53.985 10.098859
53.990 10.219372
53.995 10.975016
54.000 11.142537
54.005 10.854737
54.010 10.662565
54.015 10.918166
54.020 10.981501
54.025 10.865353
54.030 10.798141
54.035 10.690506
54.040 10.63557
54.045 10.72549
54.050 10.761621
54.055 10.958134
54.060 10.915704
54.065 11.014505
54.070 11.139511
54.075 11.086668
54.080 11.302193
54.085 11.19195
54.090 10.855166
54.095 10.762095
54.100 10.946478
54.105 11.419274
54.110 11.187603
54.115 10.937653
54.120 11.184799
54.125 11.897004
54.130 12.012159
54.135 11.970252
54.140 12.029116
54.145 11.90646
54.150 11.438553
54.155 11.119468
54.160 10.918531
54.165 10.346078
54.170 10.417206
54.175 10.342949
54.180 10.404495
54.185 10.676094
54.190 10.566491
54.195 10.581824
54.200 11.38519
54.205 11.265333
54.210 11.761765
54.215 11.956429
54.220 12.116001
54.225 12.962466
54.230 12.866444
54.235 12.056779
54.240 12.138737
54.245 12.049083
54.250 11.981918
54.255 11.322504
54.260 10.413197
54.265 10.555426
54.270 10.713849
54.275 10.472249
54.280 10.768209
54.285 10.997656
54.290 11.72669
54.295 12.072146
54.300 11.820565
54.305 12.028758
54.310 11.979623
54.315 11.644959
54.320 11.355058
54.325 11.016223
54.330 10.782159
54.335 11.181993
54.340 11.268928
54.345 11.266823
54.350 11.359545
54.355 11.454232
54.360 11.26934
54.365 11.17468
54.370 10.537277
54.375 10.202938
54.380 10.468102
54.385 10.342224
54.390 10.300594
54.395 10.444617
54.400 10.790133
54.405 11.331815
54.410 11.42547
54.415 11.039516
54.420 10.81475
54.425 10.781232
54.430 10.897287
54.435 10.873902
54.440 11.050732
54.445 11.399231
54.450 12.452954
54.455 13.364993
54.460 13.268023
54.465 13.260503
54.470 12.777655
54.475 12.330157
54.480 11.848167
54.485 10.971075
54.490 10.184967
54.495 10.21411
54.500 10.419829
54.505 10.78752
54.510 11.187257
54.515 11.23036
54.520 11.415245
54.525 11.799417
54.530 11.840379
54.535 11.638329
54.540 11.38868
54.545 11.142842
54.550 11.149955
54.555 11.584126
54.560 11.921062
54.565 11.894534
54.570 12.107704
54.575 12.152283
54.580 12.189254
54.585 12.117174
54.590 11.866335
54.595 11.793686
54.600 11.609322
54.605 11.315779
54.610 11.187075
54.615 11.116817
54.620 11.491835
54.625 11.681094
54.630 11.419394
54.635 11.655696
54.640 11.921491
54.645 12.07331
54.650 12.412873
54.655 12.199743
54.660 12.287179
54.665 12.69629
54.670 12.806481
54.675 12.804228
54.680 12.650072
54.685 12.31113
54.690 12.173103
54.695 12.249605
54.700 12.276702
54.705 12.075316
54.710 12.498439
54.715 12.623636
54.720 12.65572
54.725 12.64785
54.730 11.966249
54.735 11.988209
54.740 12.120728
54.745 11.781537
54.750 12.039368
54.755 11.736094
54.760 12.207418
54.765 12.46231
54.770 12.663401
54.775 13.019322
54.780 13.126517
54.785 13.032702
54.790 13.355812
54.795 13.458719
54.800 13.304409
54.805 13.074962
54.810 12.812741
54.815 13.053855
54.820 12.886605
54.825 12.858593
54.830 12.429222
54.835 12.3138
54.840 12.037692
54.845 12.087137
54.850 11.757169
54.855 11.484853
54.860 10.84023
54.865 11.028477
54.870 11.478952
54.875 11.544118
54.880 11.969299
54.885 12.593302
54.890 12.653437
54.895 12.539423
54.900 12.405706
54.905 12.568569
54.910 12.854478
54.915 12.36752
54.920 12.253723
54.925 12.575568
54.930 13.009366
54.935 13.082644
54.940 13.074382
54.945 12.873897
54.950 13.050311
54.955 12.863021
54.960 13.00933
54.965 12.916457
54.970 12.766932
54.975 12.245306
54.980 11.808765
54.985 11.602445
54.990 11.662631
54.995 11.624511
55.000 11.870496
55.005 12.158607
55.010 12.868917
55.015 13.570322
55.020 13.64666
55.025 13.510171
55.030 13.720434
55.035 13.702757
55.040 13.556492
55.045 13.245045
55.050 13.099237
55.055 13.176562
55.060 13.454134
55.065 13.105488
55.070 13.220973
55.075 13.497477
55.080 13.860052
55.085 13.250798
55.090 13.268771
55.095 13.056036
55.100 13.036792
55.105 12.801611
55.110 12.705269
55.115 12.851776
55.120 13.329144
55.125 13.414845
55.130 13.107761
55.135 13.399136
55.140 13.439416
55.145 13.416937
55.150 13.054332
55.155 12.988916
55.160 13.046146
55.165 13.396973
55.170 13.045147
55.175 12.52782
55.180 12.494183
55.185 13.024519
55.190 13.972039
55.195 13.855338
55.200 13.930632
55.205 14.005276
55.210 13.738874
55.215 13.508655
55.220 12.699296
55.225 11.700279
55.230 12.429481
55.235 12.716271
55.240 13.197492
55.245 13.302751
55.250 12.979752
55.255 13.086417
55.260 13.102172
55.265 12.116
55.270 11.692844
55.275 11.378643
55.280 11.381989
55.285 11.792481
55.290 11.904928
55.295 12.027263
55.300 12.058372
55.305 12.193807
55.310 12.279215
55.315 12.171175
55.320 11.988931
55.325 11.792214
55.330 11.769145
55.335 12.307924
55.340 12.181886
55.345 12.335648
55.350 12.536015
55.355 12.57373
55.360 12.824649
55.365 12.698433
55.370 12.713711
55.375 12.603477
55.380 12.321839
55.385 12.424905
55.390 12.566061
55.395 12.678444
55.400 12.388194
55.405 11.668521
55.410 11.705088
55.415 11.791491
55.420 11.920691
55.425 11.948582
55.430 11.986895
55.435 12.338801
55.440 12.725847
55.445 12.888752
55.450 12.819963
55.455 12.823409
55.460 12.81
55.465 12.275165
55.470 12.025423
55.475 12.005008
55.480 12.75559
55.485 13.031058
55.490 12.799092
55.495 13.257606
55.500 13.755221
55.505 13.97374
55.510 14.061703
55.515 13.741792
55.520 13.702691
55.525 13.697121
55.530 13.174656
55.535 12.611655
55.540 12.580371
55.545 12.374638
55.550 12.371931
55.555 12.773711
55.560 12.98935
55.565 13.444041
55.570 13.97254
55.575 13.962619
55.580 13.459829
55.585 13.883757
55.590 14.011144
55.595 13.765172
55.600 13.802008
55.605 14.191967
55.610 14.611595
55.615 14.635068
55.620 14.301758
55.625 13.701324
55.630 13.610299
55.635 13.14571
55.640 12.76629
55.645 12.271955
55.650 12.302608
55.655 11.988471
55.660 12.395544
55.665 12.594425
55.670 12.704678
55.675 12.918103
55.680 13.01235
55.685 12.97686
55.690 13.461337
55.695 13.281957
55.700 12.880902
55.705 12.992324
55.710 12.664905
55.715 12.916586
55.720 13.179038
55.725 12.78177
55.730 12.749557
55.735 12.351955
55.740 12.072453
55.745 11.959896
55.750 11.755081
55.755 11.39268
55.760 11.478055
55.765 11.959949
55.770 12.289946
55.775 12.463912
55.780 12.725256
55.785 12.459291
55.790 12.351012
55.795 12.780557
55.800 12.693161
55.805 12.976019
55.810 13.426722
55.815 14.166299
55.820 14.773451
55.825 14.449436
55.830 13.943379
55.835 13.859413
55.840 13.871004
55.845 13.259574
55.850 12.159989
55.855 12.328808
55.860 12.672765
55.865 13.029669
55.870 13.499537
55.875 14.058194
55.880 14.38815
55.885 14.535256
55.890 14.323717
55.895 14.013491
55.900 13.914895
55.905 13.616311
55.910 13.286275
55.915 13.081912
55.920 13.093943
55.925 12.822481
55.930 13.136061
55.935 13.081989
55.940 13.148787
55.945 13.53715
55.950 13.750589
55.955 13.716472
55.960 13.86614
55.965 13.72824
55.970 13.235999
55.975 12.789018
55.980 12.136885
55.985 12.140804
55.990 12.406152
55.995 12.835098
56.000 13.234604
56.005 13.811532
56.010 14.090487
56.015 13.910919
56.020 14.066673
56.025 13.715636
56.030 13.565395
56.035 13.124602
56.040 12.592543
56.045 12.492082
56.050 12.715906
56.055 12.781607
56.060 12.952763
56.065 13.26806
56.070 13.2953
56.075 12.978122
56.080 12.624874
56.085 12.587793
56.090 12.468831
56.095 12.098736
56.100 11.83269
56.105 12.14198
56.110 12.736677
56.115 12.910753
56.120 12.84143
56.125 13.01848
56.130 12.912728
56.135 12.888375
56.140 13.370386
56.145 13.948231
56.150 14.342525
56.155 14.683117
56.160 14.351635
56.165 14.207568
56.170 13.698537
56.175 13.282253
56.180 12.807374
56.185 13.106656
56.190 13.208392
56.195 13.385407
56.200 13.885055
56.205 14.215722
56.210 14.259419
56.215 14.338317
56.220 14.174515
56.225 14.493804
56.230 14.912676
56.235 14.950471
56.240 14.855273
56.245 14.993982
56.250 15.232167
56.255 15.242848
56.260 14.68693
56.265 14.651641
56.270 14.540152
56.275 14.491429
56.280 14.285172
56.285 14.03824
56.290 14.248582
56.295 14.798164
56.300 14.674222
56.305 14.582419
56.310 14.694689
56.315 14.807174
56.320 14.705575
56.325 14.29081
56.330 13.695506
56.335 13.41143
56.340 13.626752
56.345 13.499629
56.350 13.748688
56.355 14.365892
56.360 14.381598
56.365 14.862414
56.370 15.052594
56.375 15.18926
56.380 15.64618
56.385 15.072322
56.390 14.270154
56.395 14.071013
56.400 14.429706
56.405 14.006174
56.410 13.351257
56.415 12.660455
56.420 12.300731
56.425 12.639275
56.430 12.600312
56.435 11.937169
56.440 12.00139
56.445 12.124195
56.450 12.025421
56.455 11.988083
56.460 12.503207
56.465 12.799419
56.470 12.937701
56.475 12.925121
56.480 12.935346
56.485 13.416089
56.490 13.745409
56.495 13.855374
56.500 14.511626
56.505 15.021508
56.510 15.483626
56.515 15.144769
56.520 15.009962
56.525 14.877835
56.530 14.310132
56.535 14.0061
56.540 13.287066
56.545 13.57033
56.550 14.23456
56.555 14.552598
56.560 14.700726
56.565 14.508628
56.570 14.290147
56.575 14.436592
56.580 14.28302
56.585 13.898548
56.590 13.772828
56.595 13.383897
56.600 13.113149
56.605 12.921297
56.610 13.637794
56.615 13.995104
56.620 14.364085
56.625 14.2102
56.630 14.3282
56.635 14.472041
56.640 14.62898
56.645 13.778243
56.650 13.326062
56.655 13.315276
56.660 12.887609
56.665 12.927239
56.670 13.351972
56.675 13.648297
56.680 13.74966
56.685 13.924142
56.690 14.069306
56.695 14.170165
56.700 14.140906
56.705 13.925674
56.710 13.836587
56.715 13.643502
56.720 13.84845
56.725 14.04137
56.730 14.355865
56.735 14.211653
56.740 14.179182
56.745 14.366544
56.750 14.394771
56.755 14.129489
56.760 14.090215
56.765 14.099272
56.770 14.899458
56.775 14.674472
56.780 14.779688
56.785 14.673427
56.790 14.575077
56.795 14.580891
56.800 14.442013
56.805 14.520534
56.810 14.588283
56.815 14.580868
56.820 14.423538
56.825 13.888608
56.830 13.956131
56.835 13.899067
56.840 12.878577
56.845 12.563373
56.850 12.772394
56.855 13.174026
56.860 13.948442
56.865 14.164824
56.870 14.688106
56.875 15.436228
56.880 15.727215
56.885 15.350465
56.890 15.10277
56.895 14.797247
56.900 14.766114
56.905 14.279126
56.910 14.362186
56.915 14.614975
56.920 14.87693
56.925 15.640003
56.930 16.285439
56.935 16.294764
56.940 16.233023
56.945 16.111681
56.950 15.649493
56.955 15.686784
56.960 15.387235
56.965 14.893364
56.970 14.773147
56.975 14.573627
56.980 14.302344
56.985 14.60345
56.990 14.259201
56.995 14.334866
57.000 14.69369
57.005 15.118905
57.010 15.333326
57.015 15.74217
57.020 15.866449
57.025 15.721324
57.030 15.503306
57.035 14.944434
57.040 14.685608
57.045 14.543745
57.050 14.742565
57.055 14.516418
57.060 14.395656
57.065 14.033797
57.070 13.857395
57.075 13.662987
57.080 13.849358
57.085 13.555816
57.090 13.9627
57.095 13.913265
57.100 14.002924
57.105 14.455757
57.110 14.833144
57.115 14.999313
57.120 14.899047
57.125 14.594516
57.130 14.489884
57.135 14.778364
57.140 14.489294
57.145 13.808155
57.150 13.308243
57.155 13.291688
57.160 13.878901
57.165 14.130668
57.170 13.808979
57.175 13.782914
57.180 13.968386
57.185 14.003179
57.190 14.488002
57.195 13.881138
57.200 14.0095
57.205 14.292584
57.210 14.724276
57.215 14.669006
57.220 14.80308
57.225 14.379149
57.230 14.412502
57.235 14.276827
57.240 13.798736
57.245 13.773033
57.250 14.302208
57.255 14.057365
57.260 14.43099
57.265 14.931508
57.270 15.055908
57.275 15.255795
57.280 15.129033
57.285 14.864547
57.290 14.746696
57.295 14.824417
57.300 14.850056
57.305 15.149561
57.310 15.157498
57.315 15.203069
57.320 15.475668
57.325 15.45489
57.330 14.958213
57.335 14.444324
57.340 14.174839
57.345 14.18208
57.350 13.868603
57.355 14.302074
57.360 14.46702
57.365 14.33578
57.370 14.40645
57.375 14.214335
57.380 14.42151
57.385 14.622685
57.390 14.5025
57.395 14.321834
57.400 14.841748
57.405 14.671074
57.410 14.375504
57.415 14.495417
57.420 14.25072
57.425 13.82655
57.430 13.931034
57.435 13.533503
57.440 13.725983
57.445 14.084069
57.450 13.981647
57.455 13.881216
57.460 14.678987
57.465 14.606054
57.470 14.925558
57.475 15.128266
57.480 15.156453
57.485 15.161592
57.490 15.079124
57.495 14.732762
57.500 14.743365
57.505 14.699939
57.510 14.476731
57.515 14.446208
57.520 14.391129
57.525 13.903289
57.530 13.521352
57.535 13.655717
57.540 13.305129
57.545 13.267169
57.550 13.191855
57.555 13.063454
57.560 13.362561
57.565 13.583905
57.570 13.864505
57.575 14.432706
57.580 14.566916
57.585 14.469615
57.590 14.505828
57.595 14.960985
57.600 14.846011
57.605 14.659079
57.610 14.620308
57.615 14.560158
57.620 14.720436
57.625 14.586201
57.630 14.100918
57.635 14.032681
57.640 14.061138
57.645 13.979878
57.650 14.249596
57.655 14.322351
57.660 15.100586
57.665 16.00108
57.670 16.102808
57.675 15.794847
57.680 15.563168
57.685 15.675629
57.690 15.849833
57.695 15.875416
57.700 15.752748
57.705 16.709002
57.710 16.84429
57.715 16.96097
57.720 16.971956
57.725 17.047138
57.730 16.221582
57.735 15.89545
57.740 15.962123
57.745 15.980067
57.750 15.839749
57.755 15.650455
57.760 15.743062
57.765 16.536341
57.770 16.015944
57.775 15.350626
57.780 15.711808
57.785 16.350264
57.790 16.078838
57.795 16.275743
57.800 16.501728
57.805 16.180395
57.810 16.19706
57.815 15.980927
57.820 15.965061
57.825 15.930781
57.830 15.531662
57.835 15.079068
57.840 15.723575
57.845 15.782053
57.850 16.04533
57.855 15.991414
57.860 16.553207
57.865 16.650965
57.870 16.504923
57.875 16.266411
57.880 16.28297
57.885 16.176113
57.890 15.640982
57.895 15.054846
57.900 14.908705
57.905 14.88903
57.910 14.914809
57.915 14.510252
57.920 14.194869
57.925 14.102036
57.930 14.180101
57.935 13.986692
57.940 14.552052
57.945 14.48749
57.950 14.354771
57.955 14.290708
57.960 14.317637
57.965 14.553129
57.970 14.409738
57.975 14.224451
57.980 14.741223
57.985 15.25814
57.990 15.50596
57.995 15.385962
58.000 15.445114
58.005 15.828894
58.010 16.001631
58.015 15.6188
58.020 15.083186
58.025 14.961042
58.030 15.198149
58.035 15.015261
58.040 14.815307
58.045 14.434623
58.050 14.664883
58.055 15.52753
58.060 16.078156
58.065 16.25012
58.070 16.073101
58.075 15.825009
58.080 16.263716
58.085 16.103161
58.090 15.679338
58.095 15.602462
58.100 15.560323
58.105 15.511454
58.110 15.800955
58.115 15.311637
58.120 14.943659
58.125 14.920527
58.130 15.029983
58.135 15.119819
58.140 15.314417
58.145 15.110093
58.150 15.437128
58.155 15.496536
58.160 15.092378
58.165 14.684576
58.170 14.337077
58.175 14.010425
58.180 14.074314
58.185 14.155796
58.190 14.41305
58.195 14.526797
58.200 14.590877
58.205 14.406057
58.210 14.804074
58.215 14.800975
58.220 14.875674
58.225 15.317374
58.230 15.630141
58.235 16.081861
58.240 16.551792
58.245 16.120968
58.250 15.926195
58.255 16.046555
58.260 15.936288
58.265 16.12295
58.270 16.380589
58.275 16.478556
58.280 16.79265
58.285 16.955774
58.290 16.95331
58.295 17.203121
58.300 16.761084
58.305 16.956438
58.310 17.266987
58.315 17.520761
58.320 17.580153
58.325 17.343643
58.330 17.011087
58.335 16.962328
58.340 16.811047
58.345 16.697666
58.350 16.952913
58.355 17.238297
58.360 17.219831
58.365 16.914846
58.370 17.173273
58.375 16.903265
58.380 16.397705
58.385 16.247904
58.390 15.912321
58.395 15.658922
58.400 16.157364
58.405 15.62132
58.410 15.343025
58.415 15.263236
58.420 15.317857
58.425 15.63131
58.430 15.914956
58.435 15.44873
58.440 15.178017
58.445 15.636343
58.450 15.456384
58.455 14.992237
58.460 14.410579
58.465 14.142125
