!@!!GADDS PLOTSO FILE: Chi integration type
!@!!Title/SampleName: map-e2
!@!!Comment: ?
!@!!User: Bruker Instrument Administrator
!@!!Site: University of Illinois Chicago
!@!!Frame: map-e2_01_000.gfrm
!@!!Wavelengths    1.54184   1.54056   1.54439
!@!!Frame angles: 2Theta: 63.000 Omega: 50.000 Phi: 0.000 Chi: 90.000
!@!!Integration range: 2Theta: 53.000 to 73.000  Gamma: -105.000 to -75.000
!@!!Integration method: bin normalized
!@!N
!@!SS
!@!M
!@!L 0.0 0.0 0.0 0.0
!@!XDegrees
!@!YCounts
53.000 7.126426
53.005 7.347754
53.010 7.396301
53.015 7.026708
53.020 7.015062
53.025 6.6381
53.030 6.769293
53.035 6.61697
53.040 6.541619
53.045 6.505924
53.050 6.409756
53.055 6.491387
53.060 6.723357
53.065 6.822028
53.070 7.067159
53.075 7.287115
53.080 7.648814
53.085 7.616537
53.090 7.645778
53.095 7.36235
53.100 6.941029
53.105 6.87123
53.110 6.641706
53.115 6.255786
53.120 6.690639
53.125 6.592681
53.130 6.370723
53.135 6.484726
53.140 6.356705
53.145 6.305893
53.150 6.179075
53.155 5.693457
53.160 6.113033
53.165 6.230842
53.170 6.622223
53.175 7.14082
53.180 7.1851
53.185 7.287433
53.190 7.062559
53.195 7.05465
53.200 7.057571
53.205 6.433264
53.210 6.211073
53.215 6.282365
53.220 6.494332
53.225 6.445803
53.230 6.350144
53.235 6.199152
53.240 6.406143
53.245 6.415233
53.250 6.214356
53.255 6.46354
53.260 6.772176
53.265 6.574298
53.270 6.658358
53.275 6.736646
53.280 6.690926
53.285 6.792376
53.290 6.366546
53.295 6.356303
53.300 7.050895
53.305 7.331742
53.310 7.362376
53.315 7.669019
53.320 7.697357
53.325 7.937046
53.330 8.345588
53.335 7.969834
53.340 7.753355
53.345 7.690806
53.350 7.215409
53.355 7.452622
53.360 7.692447
53.365 7.515876
53.370 7.392454
53.375 7.52301
53.380 7.448356
53.385 7.619814
53.390 7.032359
53.395 6.523721
53.400 5.973491
53.405 6.264117
53.410 6.624473
53.415 6.73105
53.420 6.669072
53.425 7.075504
53.430 7.589782
53.435 7.776791
53.440 7.143317
53.445 6.922202
53.450 6.812816
53.455 6.734106
53.460 6.398717
53.465 6.092281
53.470 6.315781
53.475 6.449473
53.480 6.555963
53.485 6.818776
53.490 6.622764
53.495 6.454267
53.500 6.355115
53.505 6.704637
53.510 6.910011
53.515 7.292201
53.520 7.548157
53.525 7.793837
53.530 8.101489
53.535 8.055237
53.540 7.847549
53.545 7.313138
53.550 6.881033
53.555 6.920148
53.560 6.83329
53.565 6.688181
53.570 7.066658
53.575 7.142115
53.580 7.305413
53.585 7.311505
53.590 7.508524
53.595 7.577993
53.600 7.632269
53.605 7.257825
53.610 7.116395
53.615 7.24165
53.620 7.28187
53.625 6.717172
53.630 6.637161
53.635 6.943865
53.640 7.014015
53.645 7.385238
53.650 7.116831
53.655 7.209506
53.660 7.717847
53.665 7.705499
53.670 7.706101
53.675 7.958399
53.680 7.622997
53.685 7.582607
53.690 7.434739
53.695 7.492124
53.700 7.203768
53.705 6.75794
53.710 6.987238
53.715 7.077013
53.720 7.09833
53.725 7.119393
53.730 6.922391
53.735 6.982525
53.740 6.657568
53.745 6.265947
53.750 6.335976
53.755 6.218107
53.760 6.296485
53.765 6.606397
53.770 6.66215
53.775 6.934717
53.780 7.251964
53.785 7.440952
53.790 7.95942
53.795 8.144636
53.800 8.527458
53.805 8.594446
53.810 8.7304
53.815 8.724868
53.820 8.568994
53.825 8.326049
53.830 7.686017
53.835 7.514015
53.840 7.678908
53.845 7.481237
53.850 7.66207
53.855 7.621249
53.860 7.327599
53.865 7.744355
53.870 7.473811
53.875 7.583314
53.880 7.37461
53.885 7.002234
53.890 6.873267
53.895 6.341387
53.900 5.769248
53.905 6.002266
53.910 5.807801
53.915 5.626182
53.920 5.863575
53.925 6.415085
53.930 7.290491
53.935 7.555672
53.940 7.143188
53.945 7.179508
53.950 7.278703
53.955 7.182906
53.960 7.374193
53.965 7.091766
53.970 7.360097
53.975 8.052485
53.980 8.014373
53.985 8.008325
53.990 8.234253
53.995 7.721056
54.000 8.247562
54.005 7.894485
54.010 7.83384
54.015 8.061939
54.020 7.817273
54.025 7.745844
54.030 8.06055
54.035 7.736184
54.040 7.698852
54.045 7.368716
54.050 7.164171
54.055 7.477485
54.060 7.825043
54.065 7.710311
54.070 7.927212
54.075 8.283144
54.080 8.453125
54.085 8.413044
54.090 8.09798
54.095 7.847797
54.100 7.352344
54.105 7.030697
54.110 6.664892
54.115 7.039683
54.120 7.6828
54.125 7.938509
54.130 7.839963
54.135 8.105039
54.140 8.1028
54.145 8.396178
54.150 8.191917
54.155 8.049352
54.160 8.176126
54.165 8.146168
54.170 8.111537
54.175 8.179058
54.180 8.077883
54.185 7.909396
54.190 7.441084
54.195 7.630413
54.200 8.283745
54.205 8.68154
54.210 8.854546
54.215 8.599549
54.220 8.445159
54.225 8.530402
54.230 8.195222
54.235 7.908963
54.240 7.72214
54.245 7.673728
54.250 7.73714
54.255 8.347858
54.260 8.561358
54.265 9.051369
54.270 9.112041
54.275 9.045359
54.280 9.259403
54.285 9.736669
54.290 9.606608
54.295 9.066454
54.300 8.537047
54.305 8.438608
54.310 8.242946
54.315 7.570538
54.320 7.285079
54.325 7.422086
54.330 7.898416
54.335 8.155776
54.340 8.059884
54.345 8.173843
54.350 8.458965
54.355 8.107498
54.360 7.322015
54.365 6.805242
54.370 6.782732
54.375 6.828417
54.380 6.767527
54.385 6.656503
54.390 6.677295
54.395 7.116441
54.400 6.968302
54.405 7.202939
54.410 7.736987
54.415 8.025653
54.420 8.284713
54.425 8.418994
54.430 8.066364
54.435 7.904135
54.440 7.782252
54.445 8.088988
54.450 8.052652
54.455 7.947115
54.460 7.868201
54.465 8.039702
54.470 8.3175
54.475 7.844341
54.480 7.378952
54.485 7.157676
54.490 6.89422
54.495 7.381353
54.500 7.694766
54.505 7.860898
54.510 7.656338
54.515 7.592269
54.520 7.74637
54.525 7.932786
54.530 7.511913
54.535 7.454985
54.540 7.609065
54.545 7.531427
54.550 7.291447
54.555 7.21469
54.560 7.327626
54.565 7.46604
54.570 7.31521
54.575 7.345897
54.580 7.65932
54.585 7.827828
54.590 7.96667
54.595 8.159062
54.600 7.934881
54.605 7.893496
54.610 7.798798
54.615 7.90067
54.620 8.181646
54.625 8.020471
54.630 7.723935
54.635 7.826264
54.640 7.439552
54.645 7.528388
54.650 7.213855
54.655 7.191387
54.660 7.467525
54.665 7.739782
54.670 7.965209
54.675 7.946816
54.680 8.079026
54.685 8.662476
54.690 9.007264
54.695 9.512712
54.700 9.384546
54.705 9.262074
54.710 9.127789
54.715 8.352755
54.720 7.599145
54.725 7.025113
54.730 7.022507
54.735 7.532591
54.740 7.751863
54.745 8.176706
54.750 8.519423
54.755 8.870931
54.760 8.46901
54.765 7.826945
54.770 7.849453
54.775 8.127814
54.780 8.301771
54.785 8.262843
54.790 7.736517
54.795 7.687193
54.800 7.640487
54.805 7.472944
54.810 6.973957
54.815 6.724184
54.820 7.010437
54.825 7.363341
54.830 7.571505
54.835 7.708004
54.840 7.776874
54.845 8.386662
54.850 8.632405
54.855 8.806051
54.860 9.059013
54.865 9.100026
54.870 8.843513
54.875 8.688394
54.880 8.554738
54.885 8.489923
54.890 8.441851
54.895 8.263458
54.900 8.264769
54.905 8.642323
54.910 8.544443
54.915 8.576344
54.920 8.190449
54.925 7.890957
54.930 7.986804
54.935 8.193536
54.940 8.00176
54.945 8.328235
54.950 8.328527
54.955 8.62093
54.960 8.558236
54.965 8.447406
54.970 8.52779
54.975 8.562385
54.980 8.580622
54.985 9.219162
54.990 9.359307
54.995 9.65389
55.000 9.611271
55.005 9.412505
55.010 9.326053
55.015 9.029471
55.020 9.190896
55.025 9.107583
55.030 8.844958
55.035 8.940408
55.040 8.786173
55.045 8.915391
55.050 9.085617
55.055 8.606382
55.060 8.804318
55.065 9.066997
55.070 9.107126
55.075 9.275098
55.080 8.78049
55.085 8.269546
55.090 8.482267
55.095 8.700457
55.100 8.72781
55.105 8.510371
55.110 8.582046
55.115 9.100772
55.120 9.374727
55.125 8.956172
55.130 8.533382
55.135 8.774924
55.140 8.704533
55.145 8.472576
55.150 8.138911
55.155 7.782367
55.160 8.141467
55.165 8.139754
55.170 7.927561
55.175 8.043175
55.180 8.138675
55.185 8.298368
55.190 8.000789
55.195 7.311639
55.200 7.37336
55.205 7.659402
55.210 7.508971
55.215 7.402788
55.220 7.495553
55.225 8.081264
55.230 8.306082
55.235 8.185574
55.240 7.978644
55.245 8.088639
55.250 8.325603
55.255 8.694282
55.260 8.532424
55.265 8.808984
55.270 8.707509
55.275 8.442508
55.280 8.670633
55.285 8.67466
55.290 8.558405
55.295 8.871636
55.300 9.127046
55.305 9.391814
55.310 9.358648
55.315 8.898202
55.320 8.9592
55.325 9.33359
55.330 9.149205
55.335 8.803372
55.340 8.611263
55.345 8.625576
55.350 8.810842
55.355 8.70843
55.360 7.908543
55.365 7.988194
55.370 8.53698
55.375 8.791957
55.380 9.094636
55.385 9.045076
55.390 9.280286
55.395 9.607942
55.400 9.231344
55.405 9.179798
55.410 9.043369
55.415 8.868535
55.420 8.767129
55.425 8.418063
55.430 8.501894
55.435 8.509067
55.440 8.395108
55.445 9.134947
55.450 9.050811
55.455 8.942903
55.460 8.919427
55.465 9.394585
55.470 9.477214
55.475 9.364584
55.480 8.933951
55.485 9.256341
55.490 9.480978
55.495 9.442557
55.500 8.784476
55.505 8.697701
55.510 8.406898
55.515 8.6195
55.520 8.512936
55.525 8.350006
55.530 8.363566
55.535 8.670781
55.540 8.765317
55.545 8.523728
55.550 7.880378
55.555 7.998989
55.560 8.429388
55.565 8.39895
55.570 8.432417
55.575 8.319586
55.580 8.692443
55.585 8.999195
55.590 8.842095
55.595 8.518744
55.600 8.195533
55.605 8.065378
55.610 8.700399
55.615 8.9042
55.620 9.186646
55.625 9.2027
55.630 9.338154
55.635 9.477143
55.640 9.64077
55.645 9.335896
55.650 9.068355
55.655 8.824877
55.660 8.952129
55.665 9.036052
55.670 8.801128
55.675 8.766988
55.680 8.692216
55.685 8.988985
55.690 9.090592
55.695 9.245942
55.700 9.672125
55.705 10.017195
55.710 9.935333
55.715 10.152594
55.720 10.104579
55.725 9.908455
55.730 9.451235
55.735 9.346099
55.740 9.605626
55.745 9.528945
55.750 9.382181
55.755 9.238029
55.760 9.651492
55.765 9.657195
55.770 9.340766
55.775 9.525095
55.780 9.615948
55.785 9.818141
55.790 9.490924
55.795 9.087458
55.800 9.078343
55.805 8.937123
55.810 8.811831
55.815 8.602254
55.820 8.386343
55.825 9.016923
55.830 9.247067
55.835 9.500591
55.840 9.728791
55.845 9.444319
55.850 9.745402
55.855 9.791371
55.860 9.270945
55.865 9.206181
55.870 8.707226
55.875 8.502938
55.880 8.896202
55.885 8.744211
55.890 8.739517
55.895 8.58317
55.900 8.587976
55.905 8.806719
55.910 8.860573
55.915 9.036986
55.920 9.135953
55.925 9.196239
55.930 9.506003
55.935 9.486133
55.940 9.882418
55.945 10.082641
55.950 9.772379
55.955 9.509919
55.960 9.980525
55.965 9.958869
55.970 10.32309
55.975 10.238354
55.980 10.092299
55.985 9.861943
55.990 10.004007
55.995 9.744106
56.000 9.845682
56.005 9.121712
56.010 8.92522
56.015 8.749743
56.020 9.113753
56.025 8.883789
56.030 8.771783
56.035 8.884726
56.040 9.009439
56.045 8.9491
56.050 9.310125
56.055 9.168579
56.060 9.108576
56.065 8.865963
56.070 8.504503
56.075 8.742884
56.080 8.623239
56.085 8.411545
56.090 8.334423
56.095 8.421462
56.100 8.560047
56.105 8.537378
56.110 7.922727
56.115 8.084663
56.120 8.430603
56.125 8.627513
56.130 8.572102
56.135 8.982223
56.140 9.176584
56.145 9.787605
56.150 9.62956
56.155 9.660212
56.160 9.589217
56.165 9.765929
56.170 9.57939
56.175 9.500444
56.180 9.326292
56.185 9.446386
56.190 9.482497
56.195 9.847713
56.200 9.913543
56.205 10.050537
56.210 10.348462
56.215 10.887905
56.220 11.019995
56.225 10.797742
56.230 10.765445
56.235 10.84524
56.240 10.848957
56.245 10.973213
56.250 10.054925
56.255 9.41302
56.260 9.580466
56.265 9.776592
56.270 9.529778
56.275 9.311527
56.280 8.767229
56.285 8.835491
56.290 9.686864
56.295 9.764971
56.300 9.316104
56.305 9.732768
56.310 9.837035
56.315 10.475545
56.320 10.666429
56.325 10.107511
56.330 9.86007
56.335 9.958264
56.340 10.102569
56.345 10.372928
56.350 9.680479
56.355 9.137077
56.360 9.280453
56.365 9.635303
56.370 9.405517
56.375 9.287098
56.380 9.192804
56.385 9.736018
56.390 9.891954
56.395 9.899159
56.400 9.735668
56.405 10.17234
56.410 10.119345
56.415 10.073658
56.420 10.521505
56.425 10.98109
56.430 10.878504
56.435 10.831058
56.440 10.538192
56.445 10.472785
56.450 10.325314
56.455 10.408267
56.460 10.47738
56.465 10.617443
56.470 10.85353
56.475 11.008936
56.480 11.22025
56.485 11.457643
56.490 11.206878
56.495 11.102512
56.500 10.787699
56.505 10.538047
56.510 10.28506
56.515 10.404002
56.520 10.440373
56.525 10.196644
56.530 9.98347
56.535 9.889887
56.540 10.535447
56.545 10.65548
56.550 10.289814
56.555 9.649796
56.560 9.740575
56.565 9.804164
56.570 10.143839
56.575 9.313675
56.580 9.165388
56.585 9.587959
56.590 10.347395
56.595 10.678102
56.600 10.561324
56.605 10.331421
56.610 10.567058
56.615 10.867799
56.620 11.029805
56.625 11.14763
56.630 11.252661
56.635 11.351129
56.640 11.874668
56.645 11.776699
56.650 11.641683
56.655 11.337016
56.660 11.137022
56.665 11.080947
56.670 10.922949
56.675 10.544662
56.680 10.4592
56.685 10.463091
56.690 10.305799
56.695 9.969927
56.700 9.510229
56.705 9.71813
56.710 9.796702
56.715 10.104899
56.720 11.004438
56.725 11.473536
56.730 11.678909
56.735 11.991143
56.740 11.483047
56.745 11.114603
56.750 10.919989
56.755 10.029752
56.760 9.772961
56.765 9.727328
56.770 10.018197
56.775 11.216311
56.780 11.476698
56.785 11.420893
56.790 11.678919
56.795 11.740537
56.800 12.03031
56.805 11.998068
56.810 11.782873
56.815 11.726118
56.820 11.391142
56.825 11.042857
56.830 10.804661
56.835 10.599187
56.840 10.400193
56.845 10.180893
56.850 10.505405
56.855 10.617203
56.860 10.643938
56.865 11.129194
56.870 11.514929
56.875 11.035874
56.880 10.929485
56.885 10.740481
56.890 10.804737
56.895 10.847848
56.900 10.142252
56.905 9.892095
56.910 10.336159
56.915 10.114092
56.920 10.368988
56.925 10.626415
56.930 10.849253
56.935 10.795455
56.940 10.228436
56.945 10.005655
56.950 10.172626
56.955 9.799581
56.960 9.930565
56.965 10.196887
56.970 10.611058
56.975 11.159826
56.980 11.525816
56.985 11.579773
56.990 11.685384
56.995 11.271264
57.000 10.564217
57.005 10.26022
57.010 10.404854
57.015 10.346078
57.020 10.335203
57.025 10.572781
57.030 10.371216
57.035 10.682928
57.040 10.752544
57.045 10.428995
57.050 10.670782
57.055 10.494966
57.060 10.142982
57.065 10.767892
57.070 11.286463
57.075 11.756871
57.080 11.927831
57.085 11.664138
57.090 11.724099
57.095 11.662715
57.100 11.542256
57.105 11.220379
57.110 10.836019
57.115 10.773862
57.120 10.700322
57.125 10.839388
57.130 10.711236
57.135 10.539505
57.140 10.305097
57.145 10.356171
57.150 10.552255
57.155 10.402236
57.160 10.524066
57.165 10.540416
57.170 10.345553
57.175 10.601398
57.180 10.770918
57.185 10.797607
57.190 10.816974
57.195 10.73778
57.200 10.626438
57.205 10.240602
57.210 9.93998
57.215 9.924753
57.220 9.850239
57.225 10.076164
57.230 10.12111
57.235 10.110611
57.240 10.462832
57.245 10.50751
57.250 10.229495
57.255 10.190924
57.260 10.988381
57.265 11.521093
57.270 11.910219
57.275 11.711463
57.280 12.051552
57.285 12.738106
57.290 12.983795
57.295 12.502627
57.300 12.400475
57.305 12.712822
57.310 13.010405
57.315 12.610984
57.320 12.429057
57.325 11.791638
57.330 11.533092
57.335 11.120529
57.340 11.063142
57.345 11.057099
57.350 10.398625
57.355 10.446413
57.360 10.852076
57.365 10.880539
57.370 10.760795
57.375 10.346354
57.380 10.440177
57.385 10.270741
57.390 9.844971
57.395 10.048577
57.400 10.56714
57.405 10.73841
57.410 11.111277
57.415 11.217578
57.420 12.019019
57.425 12.643949
57.430 11.999897
57.435 12.006595
57.440 12.088979
57.445 12.240982
57.450 12.537745
57.455 12.431041
57.460 12.237445
57.465 12.210429
57.470 11.751926
57.475 11.577071
57.480 11.311329
57.485 11.014484
57.490 10.913066
57.495 10.558821
57.500 10.825145
57.505 11.065593
57.510 11.216267
57.515 11.217352
57.520 11.205251
57.525 11.12714
57.530 11.036305
57.535 10.924544
57.540 10.837276
57.545 10.809582
57.550 10.876101
57.555 11.074039
57.560 11.280297
57.565 11.59
57.570 11.905773
57.575 12.330407
57.580 12.083954
57.585 12.275202
57.590 12.299344
57.595 12.253019
57.600 11.954984
57.605 11.170712
57.610 11.122639
57.615 11.396749
57.620 11.557089
57.625 11.66866
57.630 11.493813
57.635 12.037531
57.640 12.402981
57.645 12.287365
57.650 12.451706
57.655 12.15753
57.660 12.519838
57.665 12.630727
57.670 12.353768
57.675 12.039582
57.680 11.941249
57.685 11.617046
57.690 11.757388
57.695 11.476152
57.700 11.770972
57.705 12.377165
57.710 12.89344
57.715 13.393692
57.720 13.647894
57.725 13.095908
57.730 13.258026
57.735 13.21865
57.740 12.567803
57.745 12.085
57.750 11.934221
57.755 12.160294
57.760 12.643711
57.765 11.682314
57.770 11.278466
57.775 11.323378
57.780 11.674639
57.785 11.403772
57.790 10.880263
57.795 10.289641
57.800 10.643403
57.805 10.76577
57.810 11.025697
57.815 11.316783
57.820 11.731011
57.825 12.239495
57.830 12.933549
57.835 13.19095
57.840 13.251371
57.845 12.753473
57.850 12.263049
57.855 11.820198
57.860 11.714626
57.865 11.718719
57.870 11.732172
57.875 11.983171
57.880 12.150966
57.885 12.69299
57.890 13.308881
57.895 13.210994
57.900 13.16959
57.905 13.431643
57.910 13.531118
57.915 13.264245
57.920 12.667071
57.925 11.804115
57.930 11.990932
57.935 12.082293
57.940 12.038824
57.945 12.098681
57.950 12.598131
57.955 12.661636
57.960 12.826248
57.965 13.037501
57.970 12.866337
57.975 12.905664
57.980 13.049586
57.985 13.316746
57.990 13.985767
57.995 14.184717
58.000 13.989471
58.005 13.986477
58.010 14.019567
58.015 13.812463
58.020 13.684043
58.025 13.333496
58.030 13.396413
58.035 13.648136
58.040 13.291575
58.045 12.5488
58.050 12.290867
58.055 12.198895
58.060 12.583327
58.065 12.420835
58.070 12.151853
58.075 12.220237
58.080 12.799648
58.085 12.814489
58.090 12.77125
58.095 12.512398
58.100 12.374277
58.105 12.332569
58.110 12.643653
58.115 12.36961
58.120 12.118395
58.125 11.916497
58.130 11.576298
58.135 12.394442
58.140 12.270041
58.145 12.347549
58.150 12.944755
58.155 13.333263
58.160 13.721818
58.165 14.123548
58.170 13.706917
58.175 14.068853
58.180 13.85772
58.185 13.572021
58.190 13.895928
58.195 13.778887
58.200 13.435618
58.205 13.36473
58.210 13.673478
58.215 13.523653
58.220 13.205746
58.225 12.835482
58.230 13.025278
58.235 13.163375
58.240 13.023618
58.245 12.912694
58.250 13.316466
58.255 13.693483
58.260 13.834429
58.265 13.904604
58.270 14.473823
58.275 14.423851
58.280 14.234184
58.285 14.414598
58.290 14.441523
58.295 14.335536
58.300 14.244998
58.305 14.303442
58.310 14.608562
58.315 14.953853
58.320 14.670558
58.325 14.661044
58.330 14.433492
58.335 14.625597
58.340 14.988798
58.345 15.414152
58.350 15.671885
58.355 15.83685
58.360 16.474218
58.365 17.199057
58.370 17.267517
58.375 17.080957
58.380 17.392588
58.385 17.588707
58.390 18.142809
58.395 17.973761
58.400 18.120512
58.405 18.336315
58.410 18.228418
58.415 18.301542
58.420 18.962091
58.425 18.504889
58.430 18.82976
58.435 18.643826
58.440 19.123362
58.445 19.324133
58.450 18.893433
58.455 18.418507
58.460 18.43399
58.465 18.487522
58.470 18.808271
58.475 19.148899
58.480 19.852489
58.485 20.555506
58.490 21.547087
58.495 22.433083
58.500 22.897322
58.505 22.821188
58.510 22.046455
58.515 21.53747
58.520 21.279713
58.525 21.244038
58.530 20.938192
58.535 20.974577
58.540 21.108349
58.545 21.796331
58.550 22.306093
58.555 22.426048
58.560 22.273254
58.565 21.94063
58.570 21.620504
58.575 21.750032
58.580 21.488672
58.585 21.372261
58.590 21.511921
58.595 21.717182
58.600 22.067724
58.605 22.856146
58.610 23.190508
58.615 23.289795
58.620 23.012188
58.625 23.550871
58.630 23.947989
