!@!!GADDS PLOTSO FILE: Chi integration type
!@!!Title/SampleName: map-157
!@!!Comment: ?
!@!!User: Bruker Instrument Administrator
!@!!Site: University of Illinois Chicago
!@!!Frame: map-157_01_000.gfrm
!@!!Wavelengths    1.54184   1.54056   1.54439
!@!!Frame angles: 2Theta: 63.000 Omega: 50.000 Phi: 0.000 Chi: 90.000
!@!!Integration range: 2Theta: 53.000 to 73.000  Gamma: -105.000 to -75.000
!@!!Integration method: bin normalized
!@!N
!@!SS
!@!M
!@!L 0.0 0.0 0.0 0.0
!@!XDegrees
!@!YCounts
53.000 6.932906
53.005 6.766293
53.010 7.160077
53.015 7.305193
53.020 6.88027
53.025 6.80954
53.030 6.482465
53.035 6.387448
53.040 6.654409
53.045 6.822076
53.050 7.089848
53.055 7.286551
53.060 7.41608
53.065 7.778507
53.070 8.012043
53.075 7.67556
53.080 7.136488
53.085 7.139695
53.090 7.363319
53.095 7.734755
53.100 7.258472
53.105 7.294453
53.110 7.637198
53.115 7.746603
53.120 7.394674
53.125 7.237222
53.130 7.026608
53.135 6.983113
53.140 6.485279
53.145 6.307765
53.150 6.436673
53.155 6.363942
53.160 5.813215
53.165 5.739608
53.170 5.573266
53.175 5.874135
53.180 5.932443
53.185 5.609985
53.190 5.697966
53.195 6.208847
53.200 6.44849
53.205 6.755561
53.210 6.305069
53.215 6.438796
53.220 6.727977
53.225 6.850074
53.230 6.85813
53.235 6.736076
53.240 6.727521
53.245 6.930604
53.250 6.435575
53.255 6.220938
53.260 5.967903
53.265 5.825863
53.270 5.965067
53.275 6.156009
53.280 6.400537
53.285 6.54536
53.290 7.158432
53.295 7.396761
53.300 7.179338
53.305 7.0822
53.310 6.605004
53.315 6.427224
53.320 6.409568
53.325 5.923295
53.330 5.846642
53.335 5.9796
53.340 5.952906
53.345 6.43779
53.350 6.549953
53.355 6.598456
53.360 6.814053
53.365 7.040112
53.370 7.048819
53.375 6.847473
53.380 6.55813
53.385 6.683734
53.390 6.483659
53.395 6.303233
53.400 6.452754
53.405 6.274755
53.410 6.371179
53.415 6.615662
53.420 6.851788
53.425 7.179773
53.430 7.238187
53.435 6.927766
53.440 6.928262
53.445 6.768105
53.450 6.399996
53.455 5.920092
53.460 6.160013
53.465 6.107384
53.470 6.380448
53.475 6.879178
53.480 7.128329
53.485 7.176247
53.490 7.153207
53.495 6.800656
53.500 6.86988
53.505 6.841404
53.510 6.539662
53.515 6.24613
53.520 6.245568
53.525 5.878088
53.530 5.685696
53.535 5.808495
53.540 5.749349
53.545 6.086315
53.550 6.343077
53.555 6.708463
53.560 7.404508
53.565 7.623305
53.570 7.677355
53.575 7.674284
53.580 7.807366
53.585 7.726162
53.590 7.535487
53.595 7.408254
53.600 7.22671
53.605 7.461008
53.610 7.296586
53.615 7.166737
53.620 7.57904
53.625 7.710598
53.630 7.719308
53.635 7.508903
53.640 7.494228
53.645 7.36633
53.650 6.913469
53.655 6.3317
53.660 6.181353
53.665 6.037009
53.670 6.079819
53.675 5.964946
53.680 6.450352
53.685 6.814524
53.690 7.159075
53.695 7.558949
53.700 7.84015
53.705 7.723982
53.710 7.372612
53.715 7.146876
53.720 7.035829
53.725 6.766695
53.730 6.370887
53.735 6.42181
53.740 6.374218
53.745 6.61805
53.750 6.647849
53.755 6.71129
53.760 6.902908
53.765 7.350703
53.770 7.596756
53.775 7.748086
53.780 7.843321
53.785 8.01351
53.790 8.335236
53.795 8.487323
53.800 8.338307
53.805 8.438547
53.810 8.39012
53.815 8.123695
53.820 7.770979
53.825 7.896676
53.830 7.858998
53.835 7.98208
53.840 7.957851
53.845 8.164647
53.850 8.084728
53.855 8.177975
53.860 7.93927
53.865 7.965447
53.870 7.281607
53.875 7.240162
53.880 6.762093
53.885 6.883527
53.890 7.12225
53.895 7.230074
53.900 7.14407
53.905 7.241568
53.910 6.934183
53.915 7.062644
53.920 7.183879
53.925 7.018149
53.930 6.636714
53.935 6.634391
53.940 6.854275
53.945 7.095615
53.950 6.943506
53.955 6.904576
53.960 7.052253
53.965 7.1153
53.970 6.650319
53.975 6.429182
53.980 6.59136
53.985 6.988061
53.990 6.942573
53.995 6.658489
54.000 6.6754
54.005 6.865124
54.010 6.810623
54.015 6.861363
54.020 6.975674
54.025 6.77872
54.030 7.07357
54.035 7.18972
54.040 7.335406
54.045 7.648247
54.050 7.476891
54.055 7.364631
54.060 7.480875
54.065 7.6223
54.070 7.626956
54.075 7.440001
54.080 7.409383
54.085 7.463904
54.090 7.594419
54.095 7.532787
54.100 7.406096
54.105 7.422615
54.110 7.746757
54.115 7.204372
54.120 6.992562
54.125 7.17535
54.130 7.081739
54.135 7.00092
54.140 7.241915
54.145 6.889947
54.150 7.086083
54.155 7.279586
54.160 7.157815
54.165 7.084353
54.170 7.255929
54.175 7.265739
54.180 7.390771
54.185 7.749184
54.190 7.794371
54.195 8.115034
54.200 8.441572
54.205 7.936679
54.210 7.606095
54.215 7.753076
54.220 7.843901
54.225 7.684863
54.230 7.083348
54.235 7.158436
54.240 7.259519
54.245 7.443461
54.250 7.29496
54.255 7.061015
54.260 7.028406
54.265 6.897466
54.270 7.578804
54.275 8.198261
54.280 8.181473
54.285 8.128047
54.290 8.31756
54.295 8.425495
54.300 8.500246
54.305 7.946711
54.310 7.683638
54.315 7.744339
54.320 7.677824
54.325 7.687975
54.330 7.801294
54.335 7.896636
54.340 7.926126
54.345 8.024014
54.350 7.925693
54.355 7.58757
54.360 7.275328
54.365 7.6567
54.370 7.356033
54.375 6.908741
54.380 6.66432
54.385 7.014765
54.390 7.23173
54.395 7.166783
54.400 6.834238
54.405 6.917772
54.410 7.063133
54.415 6.705317
54.420 6.188321
54.425 6.331235
54.430 6.411124
54.435 6.533876
54.440 6.44185
54.445 6.472651
54.450 6.991878
54.455 7.099289
54.460 6.865111
54.465 6.645048
54.470 6.545646
54.475 6.68586
54.480 6.841442
54.485 6.686183
54.490 6.945061
54.495 7.448163
54.500 7.69577
54.505 7.794063
54.510 7.761227
54.515 7.946457
54.520 7.860589
54.525 7.677019
54.530 7.461609
54.535 7.354438
54.540 7.255462
54.545 7.0302
54.550 7.016709
54.555 6.882402
54.560 6.727306
54.565 6.55572
54.570 6.666736
54.575 6.593172
54.580 6.967648
54.585 7.478129
54.590 7.71362
54.595 7.483545
54.600 7.608985
54.605 7.653103
54.610 7.760819
54.615 7.562454
54.620 7.295841
54.625 7.047527
54.630 7.175488
54.635 7.314567
54.640 7.27412
54.645 7.461833
54.650 7.211911
54.655 7.244993
54.660 7.34767
54.665 7.419886
54.670 7.567781
54.675 7.784362
54.680 7.7446
54.685 7.68053
54.690 7.721447
54.695 7.540182
54.700 7.281868
54.705 7.271951
54.710 7.449378
54.715 7.703924
54.720 7.912289
54.725 7.889044
54.730 8.018603
54.735 7.859366
54.740 8.043163
54.745 7.845907
54.750 7.523843
54.755 7.493211
54.760 7.534159
54.765 7.929455
54.770 7.82094
54.775 7.276155
54.780 7.147786
54.785 7.072753
54.790 7.126726
54.795 6.75108
54.800 6.385076
54.805 6.7754
54.810 6.660884
54.815 6.561341
54.820 6.413932
54.825 6.77648
54.830 6.958594
54.835 6.975698
54.840 6.984406
54.845 7.279943
54.850 7.550111
54.855 7.695921
54.860 7.644793
54.865 7.902795
54.870 7.855808
54.875 7.865197
54.880 8.179559
54.885 8.232819
54.890 8.2325
54.895 8.383411
54.900 8.234994
54.905 8.245659
54.910 8.601464
54.915 8.410754
54.920 8.666024
54.925 8.663609
54.930 8.750465
54.935 8.899643
54.940 8.555954
54.945 7.957572
54.950 8.383025
54.955 8.491095
54.960 8.35339
54.965 7.962459
54.970 7.869338
54.975 7.877277
54.980 7.867095
54.985 7.493308
54.990 7.230874
54.995 7.318348
55.000 7.435196
55.005 7.851288
55.010 7.928085
55.015 7.705051
55.020 7.856389
55.025 8.18396
55.030 8.318103
55.035 8.323379
55.040 8.556397
55.045 9.19182
55.050 9.115003
55.055 8.795934
55.060 8.997258
55.065 8.888702
55.070 8.716485
55.075 8.322555
55.080 8.021848
55.085 8.11342
55.090 8.030718
55.095 7.887656
55.100 8.05822
55.105 8.398112
55.110 8.15056
55.115 8.230981
55.120 8.215612
55.125 8.334302
55.130 7.881266
55.135 7.559504
55.140 7.124023
55.145 7.216501
55.150 7.410905
55.155 7.615345
55.160 7.263114
55.165 7.312138
55.170 7.535409
55.175 7.656831
55.180 7.811532
55.185 7.673529
55.190 7.523232
55.195 7.74464
55.200 7.984538
55.205 7.899043
55.210 7.995836
55.215 8.08746
55.220 7.925097
55.225 7.876134
55.230 7.66574
55.235 7.502395
55.240 7.54363
55.245 7.528894
55.250 7.443699
55.255 7.806426
55.260 7.948415
55.265 7.849216
55.270 7.803288
55.275 7.746654
55.280 7.744799
55.285 7.467682
55.290 7.276395
55.295 6.975026
55.300 7.440755
55.305 7.976226
55.310 7.774479
55.315 7.894884
55.320 8.044991
55.325 7.692863
55.330 7.634678
55.335 6.971345
55.340 6.416972
55.345 6.2985
55.350 6.104344
55.355 5.947808
55.360 6.465107
55.365 6.746753
55.370 6.845298
55.375 7.136688
55.380 7.216581
55.385 7.391006
55.390 7.494416
55.395 7.257387
55.400 7.400897
55.405 7.398495
55.410 7.27642
55.415 7.325463
55.420 7.58275
55.425 7.201631
55.430 6.692383
55.435 6.537374
55.440 6.757155
55.445 6.939196
55.450 6.632781
55.455 6.286609
55.460 6.738403
55.465 7.159976
55.470 7.33043
55.475 7.279901
55.480 7.459925
55.485 7.440581
55.490 7.420523
55.495 7.425935
55.500 7.498236
55.505 7.363929
55.510 6.892263
55.515 6.685747
55.520 6.874598
55.525 7.352055
55.530 7.409494
55.535 7.559566
55.540 7.668806
55.545 7.841543
55.550 7.984404
55.555 8.099445
55.560 8.03373
55.565 8.793385
55.570 8.647822
55.575 8.568504
55.580 9.125564
55.585 9.573614
55.590 9.459792
55.595 9.023467
55.600 8.028338
55.605 7.851917
55.610 7.725443
55.615 6.984964
55.620 6.163363
55.625 6.132009
55.630 5.8501
55.635 5.752512
55.640 6.047783
55.645 6.012996
55.650 5.982211
55.655 6.161823
55.660 5.7814
55.665 5.881644
55.670 6.132544
55.675 6.403876
55.680 6.342308
55.685 6.583546
55.690 6.679858
55.695 7.107583
55.700 7.2425
55.705 7.236898
55.710 7.099804
55.715 7.022029
55.720 6.610802
55.725 6.396753
55.730 6.40128
55.735 6.437475
55.740 6.528945
55.745 6.561333
55.750 6.659031
55.755 6.9497
55.760 6.917021
55.765 6.844341
55.770 6.741968
55.775 6.434186
55.780 6.397652
55.785 6.778435
55.790 6.889786
55.795 6.953587
55.800 6.929371
55.805 7.216554
55.810 7.578121
55.815 7.962219
55.820 7.902524
55.825 7.664969
55.830 7.798494
55.835 8.129293
55.840 8.095701
55.845 8.259914
55.850 8.211518
55.855 8.186379
55.860 8.705287
55.865 8.81544
55.870 8.331168
55.875 8.148987
55.880 7.817798
55.885 7.532348
55.890 7.646318
55.895 7.105785
55.900 6.930808
55.905 6.863132
55.910 6.625794
55.915 6.584443
55.920 6.503689
55.925 6.591964
55.930 6.992674
55.935 6.994877
55.940 7.597291
55.945 8.05629
55.950 8.125733
55.955 8.037207
55.960 7.662745
55.965 7.887856
55.970 7.772016
55.975 7.267614
55.980 6.9587
55.985 6.567791
55.990 6.55524
55.995 6.449391
56.000 6.216326
56.005 6.19024
56.010 6.338693
56.015 6.781555
56.020 7.066994
56.025 7.460211
56.030 7.709994
56.035 7.783057
56.040 7.896586
56.045 7.807942
56.050 7.729825
56.055 7.681641
56.060 7.35541
56.065 7.566906
56.070 7.860257
56.075 8.144133
56.080 8.093534
56.085 7.878829
56.090 7.936389
56.095 7.760612
56.100 7.313987
56.105 6.845452
56.110 6.867429
56.115 7.069072
56.120 7.094965
56.125 6.956374
56.130 6.660714
56.135 6.520687
56.140 6.500394
56.145 6.055158
56.150 6.087362
56.155 6.498971
56.160 6.903874
56.165 7.585802
56.170 8.000281
56.175 7.740101
56.180 7.742977
56.185 7.405753
56.190 6.907914
56.195 6.505469
56.200 6.261734
56.205 6.56355
56.210 7.236466
56.215 7.343999
56.220 7.552299
56.225 8.052592
56.230 8.557054
56.235 8.71399
56.240 8.782668
56.245 8.577565
56.250 8.648228
56.255 8.620589
56.260 8.403108
56.265 8.217452
56.270 8.060002
56.275 7.586059
56.280 7.557258
56.285 7.709015
56.290 7.846867
56.295 7.829481
56.300 7.824731
56.305 7.947176
56.310 8.297066
56.315 8.392231
56.320 8.209093
56.325 8.185449
56.330 8.181125
56.335 8.177361
56.340 8.006281
56.345 8.486979
56.350 8.270922
56.355 8.292367
56.360 8.085276
56.365 7.996137
56.370 8.062263
56.375 8.203522
56.380 8.17562
56.385 8.333469
56.390 8.551599
56.395 8.74224
56.400 8.960634
56.405 9.130085
56.410 8.625787
56.415 8.28139
56.420 8.295104
56.425 8.41653
56.430 8.757538
56.435 8.847451
56.440 8.72532
56.445 9.005806
56.450 9.476165
56.455 9.518664
56.460 9.742994
56.465 9.870558
56.470 9.639834
56.475 9.697399
56.480 9.54524
56.485 9.606731
56.490 10.08118
56.495 9.744619
56.500 9.50738
56.505 9.924148
56.510 10.025164
56.515 10.533596
56.520 10.934067
56.525 11.025705
56.530 10.802085
56.535 10.901415
56.540 10.727736
56.545 10.61692
56.550 10.456579
56.555 9.758469
56.560 9.35585
56.565 9.658023
56.570 9.635207
56.575 9.635459
56.580 9.478651
56.585 9.20151
56.590 9.298018
56.595 9.324338
56.600 8.870231
56.605 9.334758
56.610 9.634853
56.615 9.609379
56.620 9.529963
56.625 9.62995
56.630 9.703805
56.635 9.940012
56.640 9.670335
56.645 9.351692
56.650 9.109996
56.655 9.13483
56.660 8.909983
56.665 8.921964
56.670 8.955884
56.675 8.766853
56.680 9.064093
56.685 9.452561
56.690 9.481488
56.695 9.619395
56.700 9.845366
56.705 10.122169
56.710 9.661745
56.715 10.033684
56.720 10.13378
56.725 10.214224
56.730 9.738645
56.735 8.945161
56.740 8.650825
56.745 9.088775
56.750 8.571775
56.755 8.502674
56.760 8.192981
56.765 8.282841
56.770 8.615143
56.775 8.805024
56.780 8.655182
56.785 8.866879
56.790 8.647513
56.795 8.775842
56.800 8.73667
56.805 8.583375
56.810 8.276341
56.815 7.800032
56.820 7.468072
56.825 7.40601
56.830 7.213369
56.835 7.569563
56.840 7.459233
56.845 7.376309
56.850 7.387418
56.855 7.247849
56.860 7.211576
56.865 7.230863
56.870 7.054929
56.875 7.067479
56.880 7.152004
56.885 7.267864
56.890 7.412397
56.895 7.62485
56.900 7.775746
56.905 7.795629
56.910 7.847847
56.915 8.143429
56.920 8.161802
56.925 7.855132
56.930 7.556478
56.935 7.154932
56.940 7.120914
56.945 6.912907
56.950 6.547213
56.955 6.610106
56.960 7.052268
56.965 7.659801
56.970 7.803612
56.975 7.970702
56.980 7.718138
56.985 7.664666
56.990 7.533427
56.995 7.525579
57.000 7.351304
57.005 7.627025
57.010 7.518763
57.015 7.883729
57.020 8.087672
57.025 8.477198
57.030 8.3284
57.035 7.892582
57.040 7.745783
57.045 8.217065
57.050 8.301006
57.055 8.500209
57.060 8.225063
57.065 8.080106
57.070 8.012591
57.075 7.836545
57.080 7.184996
57.085 7.231119
57.090 6.885357
57.095 6.8903
57.100 7.084827
57.105 7.281568
57.110 7.132822
57.115 7.308005
57.120 6.886145
57.125 6.896304
57.130 6.883543
57.135 6.58852
57.140 6.469439
57.145 7.190938
57.150 7.400849
57.155 8.035213
57.160 8.443067
57.165 8.518943
57.170 8.876324
57.175 8.611907
57.180 8.239498
57.185 8.385074
57.190 7.706451
57.195 7.554105
57.200 7.608397
57.205 7.54824
57.210 7.833654
57.215 7.895324
57.220 7.624783
57.225 7.879643
57.230 8.176314
57.235 8.008122
57.240 8.184192
57.245 8.109866
57.250 7.741758
57.255 7.892352
57.260 7.735331
57.265 7.392636
57.270 7.577783
57.275 7.808434
57.280 7.928457
57.285 8.15101
57.290 8.182131
57.295 8.046558
57.300 8.344638
57.305 8.394595
57.310 7.898582
57.315 7.887157
57.320 7.962448
57.325 7.947947
57.330 7.939151
57.335 7.625571
57.340 7.222957
57.345 7.244328
57.350 7.392938
57.355 7.497509
57.360 7.478391
57.365 7.664041
57.370 7.844099
57.375 8.558563
57.380 8.736683
57.385 8.276356
57.390 8.193541
57.395 8.235815
57.400 8.226901
57.405 7.788291
57.410 7.137544
57.415 6.992332
57.420 7.101343
57.425 7.103013
57.430 6.817163
57.435 7.017082
57.440 7.267976
57.445 7.669597
57.450 7.849236
57.455 7.722935
57.460 7.722023
57.465 7.986258
57.470 7.849909
57.475 7.756765
57.480 7.832356
57.485 7.988593
57.490 7.911356
57.495 7.572618
57.500 7.544364
57.505 7.634813
57.510 7.781582
57.515 7.600008
57.520 7.457253
57.525 7.507315
57.530 7.612185
57.535 7.525818
57.540 6.93108
57.545 6.536611
57.550 6.347472
57.555 7.133534
57.560 7.402536
57.565 7.356976
57.570 7.339771
57.575 7.75087
57.580 8.174379
57.585 7.916259
57.590 7.211077
57.595 7.078825
57.600 7.208503
57.605 7.472213
57.610 7.224522
57.615 7.186608
57.620 7.425517
57.625 7.024381
57.630 6.845306
57.635 6.767976
57.640 6.454567
57.645 6.615728
57.650 6.453337
57.655 6.835521
57.660 7.094917
57.665 6.993529
57.670 7.220797
57.675 7.511627
57.680 7.619819
57.685 7.877521
57.690 7.737329
57.695 8.009023
57.700 8.363008
57.705 8.156622
57.710 8.04881
57.715 7.583909
57.720 7.289097
57.725 7.283155
57.730 7.345852
57.735 7.307501
57.740 6.956126
57.745 7.040258
57.750 7.615279
57.755 7.654562
57.760 7.573052
57.765 7.216534
57.770 7.020871
57.775 6.930994
57.780 6.806413
57.785 6.766322
57.790 7.084787
57.795 7.154751
57.800 7.40324
57.805 7.908176
57.810 8.092694
57.815 8.114972
57.820 7.972953
57.825 7.909973
57.830 7.708639
57.835 7.584892
57.840 7.266312
57.845 7.246151
57.850 7.037742
57.855 6.675453
57.860 6.388507
57.865 6.681165
57.870 6.986023
57.875 7.171582
57.880 7.526038
57.885 7.76542
57.890 7.793519
57.895 7.844021
57.900 7.51117
57.905 7.372201
57.910 7.252124
57.915 7.472997
57.920 7.497385
57.925 7.917327
57.930 7.759909
57.935 8.249062
57.940 8.530482
57.945 8.872216
57.950 8.652954
57.955 8.476121
57.960 8.395505
57.965 8.108056
57.970 7.747066
57.975 7.59313
57.980 7.324958
57.985 6.938878
57.990 6.99056
57.995 6.916419
58.000 7.315983
58.005 7.354916
58.010 7.558073
58.015 8.023712
58.020 8.258333
58.025 8.162522
58.030 8.378058
58.035 8.304428
58.040 8.120352
58.045 8.246131
58.050 8.114501
58.055 8.218189
58.060 8.403958
58.065 8.255363
58.070 8.429098
58.075 8.577106
58.080 8.403314
58.085 8.274875
58.090 8.366426
58.095 8.108065
58.100 8.205871
58.105 7.985519
58.110 7.891294
58.115 7.533607
58.120 7.459281
58.125 7.34363
58.130 7.724495
58.135 8.058418
58.140 8.456978
58.145 9.009127
58.150 8.975616
58.155 9.189977
58.160 9.287252
58.165 9.095087
58.170 8.682858
58.175 8.457768
58.180 8.172377
58.185 8.446803
58.190 8.267606
58.195 8.106431
58.200 8.273376
58.205 8.177887
58.210 7.901751
58.215 7.443229
58.220 7.055937
58.225 6.967749
58.230 6.69503
58.235 6.199434
58.240 5.984303
58.245 5.870966
58.250 5.957425
58.255 5.809132
58.260 5.812428
58.265 6.482424
58.270 6.925618
58.275 7.132122
58.280 7.162851
58.285 7.385717
58.290 7.441008
58.295 7.870206
58.300 7.558476
58.305 7.415549
58.310 7.497507
58.315 8.121615
58.320 7.962155
58.325 7.979015
58.330 7.609575
58.335 7.417748
58.340 7.417985
58.345 7.280725
58.350 6.989694
58.355 7.037017
58.360 6.856705
58.365 6.804163
58.370 6.899446
58.375 6.86954
58.380 6.802344
58.385 6.608446
58.390 6.642894
58.395 6.87227
58.400 6.842015
58.405 6.889491
58.410 6.886176
58.415 6.740921
58.420 6.734041
58.425 7.193758
58.430 7.166005
58.435 6.998994
58.440 6.944944
58.445 6.763043
58.450 6.834549
58.455 6.857563
58.460 6.632251
58.465 6.926969
58.470 7.099368
58.475 7.117036
58.480 7.149765
58.485 7.329989
58.490 7.68097
58.495 7.626848
58.500 7.656028
58.505 7.96161
58.510 8.090922
58.515 8.193212
58.520 8.343638
58.525 8.095773
58.530 7.909184
58.535 7.321834
58.540 6.886989
58.545 6.988681
58.550 6.903109
58.555 6.846675
58.560 7.156853
58.565 7.258594
58.570 7.452568
58.575 7.743738
58.580 7.680471
58.585 7.736988
58.590 7.455284
58.595 7.046774
58.600 7.321468
58.605 7.612467
58.610 7.531352
58.615 8.073145
58.620 8.029906
58.625 8.098207
58.630 8.255199
58.635 8.409705
58.640 8.443767
58.645 8.178785
58.650 7.131449
58.655 6.826878
58.660 7.007858
58.665 7.065561
58.670 6.872865
58.675 6.820444
58.680 7.299324
58.685 8.311213
58.690 9.07341
58.695 9.282545
58.700 9.605133
58.705 9.632811
58.710 9.49685
58.715 9.392818
58.720 8.883384
58.725 8.867533
58.730 8.184697
58.735 7.640937
58.740 7.235427
58.745 7.213392
58.750 7.480808
58.755 7.359793
58.760 7.266184
