!@!!GADDS PLOTSO FILE: Chi integration type
!@!!Title/SampleName: map-ce
!@!!Comment: ?
!@!!User: Bruker Instrument Administrator
!@!!Site: University of Illinois Chicago
!@!!Frame: map-ce_01_000.gfrm
!@!!Wavelengths    1.54184   1.54056   1.54439
!@!!Frame angles: 2Theta: 63.000 Omega: 50.000 Phi: 0.000 Chi: 90.000
!@!!Integration range: 2Theta: 53.000 to 73.000  Gamma: -105.000 to -75.000
!@!!Integration method: bin normalized
!@!N
!@!SS
!@!M
!@!L 0.0 0.0 0.0 0.0
!@!XDegrees
!@!YCounts
53.000 8.289493
53.005 8.032482
53.010 7.166306
53.015 6.344597
53.020 6.367249
53.025 6.48702
53.030 6.88795
53.035 7.065417
53.040 7.293525
53.045 8.378233
53.050 8.580199
53.055 8.277529
53.060 7.980183
53.065 8.628429
53.070 9.263814
53.075 9.156013
53.080 9.150496
53.085 9.544396
53.090 10.274579
53.095 10.639909
53.100 10.328845
53.105 10.288863
53.110 10.328106
53.115 10.166497
53.120 9.437331
53.125 8.527286
53.130 7.752736
53.135 7.413401
53.140 7.370316
53.145 7.053314
53.150 7.602556
53.155 8.767216
53.160 9.210153
53.165 9.146845
53.170 8.922621
53.175 8.80145
53.180 8.577949
53.185 7.936727
53.190 7.183167
53.195 6.992951
53.200 7.24994
53.205 7.550259
53.210 7.619341
53.215 7.795128
53.220 7.998313
53.225 8.349454
53.230 8.619441
53.235 8.405741
53.240 8.546604
53.245 8.63492
53.250 8.818446
53.255 8.80505
53.260 8.736134
53.265 8.785782
53.270 8.801941
53.275 8.659031
53.280 8.314625
53.285 7.760753
53.290 8.130596
53.295 8.271932
53.300 8.586522
53.305 8.47145
53.310 8.377278
53.315 8.612335
53.320 9.123376
53.325 8.9318
53.330 8.897861
53.335 8.676122
53.340 8.860451
53.345 8.934646
53.350 8.740986
53.355 8.336057
53.360 8.491195
53.365 8.497034
53.370 8.607842
53.375 8.944613
53.380 9.075564
53.385 9.672854
53.390 9.742305
53.395 9.805092
53.400 9.558749
53.405 9.473746
53.410 9.65452
53.415 9.709225
53.420 8.871128
53.425 8.509464
53.430 8.631989
53.435 8.589005
53.440 8.360797
53.445 8.151876
53.450 8.382541
53.455 8.858484
53.460 8.871672
53.465 8.600431
53.470 8.727613
53.475 8.830668
53.480 8.509134
53.485 8.211223
53.490 8.437196
53.495 8.294212
53.500 8.519886
53.505 8.358534
53.510 8.506801
53.515 8.488431
53.520 9.169239
53.525 9.558949
53.530 9.84687
53.535 10.24277
53.540 10.321973
53.545 10.370676
53.550 10.610736
53.555 10.661406
53.560 10.289737
53.565 10.275524
53.570 9.936348
53.575 9.658077
53.580 9.149797
53.585 8.85205
53.590 8.141554
53.595 7.968818
53.600 7.893325
53.605 8.168908
53.610 8.593036
53.615 8.676815
53.620 8.694793
53.625 9.238666
53.630 9.367089
53.635 9.421907
53.640 8.983134
53.645 9.027375
53.650 9.083736
53.655 9.182812
53.660 8.831519
53.665 8.862719
53.670 8.812768
53.675 8.641354
53.680 8.316788
53.685 8.090442
53.690 8.319779
53.695 8.369918
53.700 8.092969
53.705 8.171945
53.710 8.426056
53.715 8.572951
53.720 8.612089
53.725 8.850698
53.730 9.195736
53.735 9.249864
53.740 9.400743
53.745 9.396614
53.750 9.43027
53.755 9.244453
53.760 9.516248
53.765 9.717439
53.770 10.030004
53.775 9.836163
53.780 9.537887
53.785 9.885929
53.790 9.615933
53.795 8.873687
53.800 8.989502
53.805 9.13491
53.810 9.468323
53.815 9.606977
53.820 9.355667
53.825 9.063818
53.830 9.179194
53.835 8.809991
53.840 8.893789
53.845 8.876751
53.850 9.151525
53.855 9.440592
53.860 9.9934
53.865 9.899976
53.870 9.619038
53.875 9.603501
53.880 9.306814
53.885 8.820819
53.890 8.660151
53.895 8.460159
53.900 8.201255
53.905 8.157572
53.910 8.036516
53.915 8.561142
53.920 8.87568
53.925 9.31788
53.930 9.851898
53.935 10.232087
53.940 10.369902
53.945 10.279248
53.950 10.0568
53.955 9.814749
53.960 9.241414
53.965 9.570934
53.970 9.583294
53.975 9.492382
53.980 9.895394
53.985 10.505116
53.990 10.833105
53.995 11.247621
54.000 10.506419
54.005 10.714622
54.010 10.575244
54.015 10.005677
54.020 9.743224
54.025 9.77885
54.030 9.991472
54.035 10.312237
54.040 10.025457
54.045 10.484779
54.050 10.404807
54.055 9.965493
54.060 9.717256
54.065 9.028228
54.070 8.927637
54.075 9.200858
54.080 9.362051
54.085 9.235695
54.090 9.629499
54.095 9.637141
54.100 10.324012
54.105 10.618271
54.110 10.551828
54.115 10.638043
54.120 11.06039
54.125 10.946774
54.130 11.31751
54.135 11.182822
54.140 10.553922
54.145 10.533139
54.150 9.836817
54.155 9.716978
54.160 9.422922
54.165 9.23978
54.170 9.391431
54.175 9.694644
54.180 9.61937
54.185 9.820947
54.190 9.62394
54.195 9.548304
54.200 9.605813
54.205 9.529343
54.210 9.069831
54.215 9.261532
54.220 9.626121
54.225 9.623407
54.230 9.422888
54.235 9.555717
54.240 9.963192
54.245 10.288148
54.250 10.237042
54.255 10.339322
54.260 10.797715
54.265 10.406272
54.270 9.811741
54.275 10.177065
54.280 10.31186
54.285 10.086164
54.290 10.060129
54.295 10.05397
54.300 10.427019
54.305 10.311035
54.310 9.604915
54.315 9.360385
54.320 9.088984
54.325 9.081364
54.330 9.197157
54.335 8.956385
54.340 8.98823
54.345 9.533032
54.350 9.821961
54.355 10.150757
54.360 9.695831
54.365 9.515956
54.370 9.302108
54.375 8.972343
54.380 8.598666
54.385 8.709668
54.390 8.967758
54.395 9.453813
54.400 9.555493
54.405 10.212895
54.410 10.574924
54.415 10.472256
54.420 10.525773
54.425 10.486383
54.430 10.396428
54.435 10.223897
54.440 10.031246
54.445 9.656507
54.450 9.20462
54.455 9.148128
54.460 8.838686
54.465 8.868007
54.470 9.044173
54.475 9.106305
54.480 9.512531
54.485 9.565603
54.490 9.774463
54.495 10.034117
54.500 10.033857
54.505 9.917655
54.510 9.573323
54.515 9.594712
54.520 9.623289
54.525 9.335047
54.530 9.605597
54.535 9.612252
54.540 10.003805
54.545 10.405197
54.550 10.262185
54.555 9.985202
54.560 9.841524
54.565 9.722315
54.570 10.105105
54.575 10.29594
54.580 10.167887
54.585 10.048167
54.590 9.944199
54.595 9.550695
54.600 9.281186
54.605 8.741352
54.610 8.671953
54.615 8.711411
54.620 9.261618
54.625 9.758376
54.630 10.08548
54.635 10.107594
54.640 10.086025
54.645 9.732463
54.650 9.986548
54.655 9.819884
54.660 10.020725
54.665 10.169512
54.670 10.231117
54.675 10.343673
54.680 10.46852
54.685 10.845418
54.690 11.016645
54.695 10.729752
54.700 10.614148
54.705 10.558046
54.710 10.372869
54.715 10.553263
54.720 10.210287
54.725 10.089892
54.730 10.166515
54.735 10.230062
54.740 10.696444
54.745 11.098627
54.750 10.842726
54.755 10.920707
54.760 11.428107
54.765 11.372615
54.770 11.70479
54.775 11.63758
54.780 11.093898
54.785 11.243361
54.790 10.735562
54.795 10.294152
54.800 10.615898
54.805 10.065467
54.810 9.676538
54.815 9.863053
54.820 9.691619
54.825 9.986919
54.830 9.895556
54.835 9.917583
54.840 10.094214
54.845 10.463906
54.850 10.515591
54.855 10.460196
54.860 10.416199
54.865 10.523536
54.870 10.237865
54.875 10.402816
54.880 10.378534
54.885 10.176114
54.890 10.499228
54.895 10.227131
54.900 10.148732
54.905 10.168392
54.910 10.15058
54.915 10.251402
54.920 9.873734
54.925 9.912708
54.930 10.266047
54.935 9.9784
54.940 9.985523
54.945 10.23711
54.950 10.374672
54.955 10.783126
54.960 10.676095
54.965 10.371819
54.970 10.243268
54.975 10.015907
54.980 9.844369
54.985 9.863434
54.990 10.082729
54.995 10.029928
55.000 10.418875
55.005 10.904106
55.010 11.038587
55.015 11.298319
55.020 11.198243
55.025 10.973764
55.030 11.036057
55.035 11.095862
55.040 11.036708
55.045 11.086783
55.050 10.615233
55.055 10.344662
55.060 10.549229
55.065 10.488781
55.070 10.109637
55.075 10.183954
55.080 10.686658
55.085 10.940077
55.090 11.592556
55.095 11.233747
55.100 11.093387
55.105 11.207705
55.110 10.752403
55.115 10.056003
55.120 10.274322
55.125 10.02684
55.130 10.451491
55.135 10.704983
55.140 10.568355
55.145 10.741008
55.150 10.684479
55.155 10.519957
55.160 10.263028
55.165 10.222839
55.170 10.582911
55.175 10.866304
55.180 10.980658
55.185 11.106569
55.190 11.310534
55.195 11.620046
55.200 11.257336
55.205 10.660907
55.210 10.688484
55.215 10.572906
55.220 10.766441
55.225 10.619184
55.230 10.468568
55.235 11.050682
55.240 11.577403
55.245 11.535638
55.250 11.750916
55.255 11.485685
55.260 11.222942
55.265 11.354606
55.270 11.056241
55.275 11.296331
55.280 11.294582
55.285 11.222809
55.290 11.362306
55.295 11.611096
55.300 11.69958
55.305 11.575236
55.310 11.194763
55.315 11.099573
55.320 11.40367
55.325 11.701234
55.330 11.380566
55.335 11.294866
55.340 11.201653
55.345 11.055173
55.350 11.348256
55.355 10.624255
55.360 10.34116
55.365 10.491378
55.370 10.46063
55.375 10.422746
55.380 10.603539
55.385 10.920788
55.390 11.073809
55.395 11.006676
55.400 10.947763
55.405 10.826645
55.410 11.43638
55.415 10.806552
55.420 10.267799
55.425 10.799881
55.430 11.056692
55.435 11.500909
55.440 11.850307
55.445 11.549164
55.450 11.656381
55.455 11.861009
55.460 11.58867
55.465 11.370736
55.470 11.324278
55.475 10.819079
55.480 10.682198
55.485 10.989394
55.490 10.884127
55.495 10.464482
55.500 10.201558
55.505 10.20177
55.510 10.61703
55.515 10.760202
55.520 10.512485
55.525 10.575807
55.530 10.77651
55.535 10.894692
55.540 10.915437
55.545 11.010382
55.550 10.943733
55.555 11.226933
55.560 11.753525
55.565 11.857534
55.570 11.583014
55.575 11.651905
55.580 12.08556
55.585 12.640217
55.590 12.442685
55.595 12.106451
55.600 12.711675
55.605 12.72915
55.610 12.492138
55.615 12.124363
55.620 11.890322
55.625 11.891162
55.630 11.648588
55.635 11.310513
55.640 11.573948
55.645 11.320009
55.650 11.401426
55.655 11.271146
55.660 11.060756
55.665 11.055972
55.670 10.984774
55.675 11.259651
55.680 11.718851
55.685 12.226325
55.690 12.187821
55.695 12.387932
55.700 12.91858
55.705 12.841449
55.710 12.41923
55.715 12.269511
55.720 12.032407
55.725 12.076027
55.730 11.720825
55.735 11.354528
55.740 11.395923
55.745 10.859912
55.750 10.563475
55.755 10.273987
55.760 10.222054
55.765 10.846295
55.770 11.396869
55.775 11.664887
55.780 12.123203
55.785 12.124454
55.790 12.113809
55.795 11.990768
55.800 11.37552
55.805 10.635486
55.810 10.608678
55.815 10.587818
55.820 10.691793
55.825 10.677369
55.830 10.809182
55.835 10.77001
55.840 10.84596
55.845 11.126023
55.850 11.231629
55.855 11.551644
55.860 11.938022
55.865 12.27572
55.870 12.624246
55.875 12.829869
55.880 12.662682
55.885 12.409339
55.890 12.116274
55.895 12.080251
55.900 11.589712
55.905 11.421254
55.910 11.520211
55.915 11.752761
55.920 12.084738
55.925 12.172814
55.930 12.114164
55.935 12.289081
55.940 12.335651
55.945 12.673359
55.950 12.534051
55.955 12.449968
55.960 12.176417
55.965 12.399172
55.970 12.908977
55.975 12.364183
55.980 11.709723
55.985 11.678358
55.990 11.62294
55.995 11.797277
56.000 11.590438
56.005 11.188234
56.010 11.259686
56.015 11.05036
56.020 10.90167
56.025 11.082945
56.030 11.173711
56.035 11.116406
56.040 11.034949
56.045 11.207007
56.050 11.582922
56.055 11.157966
56.060 10.759768
56.065 10.574599
56.070 10.844943
56.075 11.101765
56.080 10.944761
56.085 10.723814
56.090 11.278151
56.095 11.082816
56.100 10.787226
56.105 10.573641
56.110 10.019031
56.115 9.875298
56.120 9.766176
56.125 10.03678
56.130 10.655092
56.135 10.404168
56.140 10.64398
56.145 11.378426
56.150 11.630965
56.155 11.904133
56.160 11.474075
56.165 11.081569
56.170 10.840907
56.175 10.244754
56.180 10.008538
56.185 9.948046
56.190 9.740368
56.195 9.719568
56.200 9.966138
56.205 10.232722
56.210 10.586741
56.215 10.500631
56.220 11.053257
56.225 11.054094
56.230 11.10264
56.235 11.70719
56.240 11.55585
56.245 11.960884
56.250 11.748459
56.255 11.580556
56.260 11.727913
56.265 11.137712
56.270 10.95485
56.275 10.878457
56.280 10.825683
56.285 11.017948
56.290 10.880241
56.295 11.207479
56.300 11.972669
56.305 11.540504
56.310 11.502921
56.315 11.292183
56.320 11.517064
56.325 11.616067
56.330 11.312863
56.335 11.441813
56.340 12.388853
56.345 12.845971
56.350 12.711932
56.355 12.14162
56.360 11.852044
56.365 11.830422
56.370 11.89249
56.375 11.273282
56.380 11.145717
56.385 11.820086
56.390 12.416927
56.395 12.042529
56.400 11.911789
56.405 11.439859
56.410 11.747572
56.415 11.696781
56.420 10.967172
56.425 11.093413
56.430 11.655119
56.435 12.162868
56.440 12.177578
56.445 12.362276
56.450 12.496944
56.455 12.710597
56.460 12.480112
56.465 12.154771
56.470 12.010528
56.475 11.903119
56.480 11.911691
56.485 11.973626
56.490 12.212498
56.495 12.61245
56.500 12.664175
56.505 12.99778
56.510 12.903757
56.515 12.524418
56.520 12.439848
56.525 12.707463
56.530 12.430337
56.535 12.743267
56.540 12.884419
56.545 13.125067
56.550 13.413753
56.555 13.493738
56.560 13.413863
56.565 13.482552
56.570 13.202927
56.575 13.103844
56.580 12.902241
56.585 13.187195
56.590 12.711322
56.595 12.593674
56.600 12.55655
56.605 12.295871
56.610 11.940214
56.615 11.792791
56.620 11.339728
56.625 11.417952
56.630 11.66292
56.635 12.016831
56.640 12.113354
56.645 12.572042
56.650 12.769739
56.655 12.973316
56.660 12.691762
56.665 12.173022
56.670 11.977573
56.675 11.795725
56.680 11.900258
56.685 11.952418
56.690 11.917539
56.695 11.661014
56.700 11.204279
56.705 11.218554
56.710 11.35604
56.715 10.776017
56.720 10.649846
56.725 10.682642
56.730 11.363009
56.735 11.740859
56.740 11.7501
56.745 11.817365
56.750 12.253977
56.755 12.740541
56.760 12.983472
56.765 13.335129
56.770 13.762249
56.775 13.720791
56.780 13.534085
56.785 13.31878
56.790 12.984736
56.795 12.379812
56.800 11.803677
56.805 12.190689
56.810 12.432609
56.815 12.236512
56.820 12.560917
56.825 12.58996
56.830 13.240887
56.835 13.683301
56.840 13.372123
56.845 13.851011
56.850 14.442143
56.855 14.455756
56.860 14.76758
56.865 15.313492
56.870 15.114368
56.875 14.550712
56.880 14.242586
56.885 14.044381
56.890 13.853007
56.895 13.528722
56.900 12.909031
56.905 12.850668
56.910 13.201571
56.915 13.092441
56.920 13.417578
56.925 13.76814
56.930 14.019301
56.935 13.974675
56.940 14.249536
56.945 14.530137
56.950 14.710149
56.955 14.036205
56.960 13.513242
56.965 12.939607
56.970 12.942709
56.975 13.044388
56.980 13.038197
56.985 12.683293
56.990 12.514417
56.995 12.550427
57.000 12.874754
57.005 13.151258
57.010 12.802449
57.015 12.764398
57.020 13.343693
57.025 13.840095
57.030 13.574338
57.035 13.151121
57.040 13.080339
57.045 12.874606
57.050 12.642093
57.055 12.47578
57.060 12.314047
57.065 12.798794
57.070 13.075349
57.075 12.730357
57.080 12.440902
57.085 12.355133
57.090 12.112715
57.095 12.161814
57.100 11.801399
57.105 11.945409
57.110 12.181849
57.115 12.693408
57.120 12.857855
57.125 12.918048
57.130 13.53998
57.135 14.090254
57.140 13.996274
57.145 14.104177
57.150 14.667295
57.155 14.562866
57.160 14.717457
57.165 14.586389
57.170 14.60847
57.175 14.846479
57.180 13.954557
57.185 12.82011
57.190 12.684294
57.195 12.455719
57.200 12.1957
57.205 12.083852
57.210 12.141258
57.215 13.164552
57.220 13.53996
57.225 13.727921
57.230 13.747137
57.235 13.530236
57.240 13.517103
57.245 13.264647
57.250 13.056456
57.255 13.28538
57.260 13.380279
57.265 13.380934
57.270 13.74738
57.275 13.765366
57.280 13.885478
57.285 13.520985
57.290 13.461893
57.295 13.415064
57.300 13.802098
57.305 13.908689
57.310 13.807305
57.315 13.430819
57.320 13.756549
57.325 13.748184
57.330 13.639722
57.335 13.432612
57.340 13.126246
57.345 13.59687
57.350 14.185571
57.355 14.013586
57.360 14.069373
57.365 14.160224
57.370 14.649561
57.375 14.608301
57.380 14.072833
57.385 13.720502
57.390 13.817321
57.395 13.572593
57.400 13.22096
57.405 12.880577
57.410 12.732304
57.415 12.653522
57.420 12.957836
57.425 13.031659
57.430 13.589316
57.435 14.135275
57.440 14.055391
57.445 14.216158
57.450 14.491103
57.455 14.526592
57.460 14.627729
57.465 14.103201
57.470 13.544546
57.475 13.735372
57.480 14.299702
57.485 14.099933
57.490 13.830589
57.495 13.450785
57.500 13.354384
57.505 13.551357
57.510 13.654588
57.515 12.985989
57.520 13.021842
57.525 13.005124
57.530 12.929232
57.535 13.356892
57.540 13.059308
57.545 13.069263
57.550 13.807301
57.555 14.105631
57.560 14.407782
57.565 14.581984
57.570 14.206166
57.575 14.373041
57.580 14.295794
57.585 13.986297
57.590 13.886294
57.595 13.485553
57.600 13.560187
57.605 13.744332
57.610 13.679074
57.615 13.6573
57.620 13.857043
57.625 14.089638
57.630 14.43206
57.635 14.983974
57.640 15.005308
57.645 15.231856
57.650 15.224761
57.655 15.031563
57.660 15.483985
57.665 15.122702
57.670 14.2806
57.675 14.162489
57.680 13.656725
57.685 13.505673
57.690 13.016423
57.695 12.288645
57.700 12.322646
57.705 12.827915
57.710 12.635227
57.715 12.811399
57.720 12.971341
57.725 13.51722
57.730 13.746263
57.735 14.023286
57.740 13.82335
57.745 14.286981
57.750 14.682964
57.755 14.514348
57.760 13.963408
57.765 13.437646
57.770 13.309834
57.775 13.273884
57.780 12.948298
57.785 12.965808
57.790 13.132486
57.795 13.923435
57.800 15.073176
57.805 14.929805
57.810 15.076502
57.815 15.053456
57.820 15.157537
57.825 15.218723
57.830 14.722751
57.835 14.275705
57.840 13.828981
57.845 13.321668
57.850 13.562388
57.855 13.392009
57.860 13.326678
57.865 13.681789
57.870 13.830639
57.875 14.397307
57.880 14.812509
57.885 14.896067
57.890 14.863399
57.895 14.740776
57.900 14.525242
57.905 14.365252
57.910 14.399674
57.915 14.649243
57.920 14.100215
57.925 13.573952
57.930 13.24078
57.935 12.860282
57.940 12.958742
57.945 12.527999
57.950 11.980692
57.955 11.843455
57.960 12.482378
57.965 13.108922
57.970 13.297854
57.975 12.931714
57.980 12.898829
57.985 12.799636
57.990 13.433668
57.995 13.426799
58.000 12.990492
58.005 12.945653
58.010 13.913442
58.015 14.510366
58.020 15.073263
58.025 14.776346
58.030 14.398803
58.035 15.159605
58.040 15.451221
58.045 14.539633
58.050 14.318526
58.055 14.291955
58.060 14.140865
58.065 14.492852
58.070 14.237725
58.075 14.564631
58.080 14.933315
58.085 14.296049
58.090 13.901525
58.095 14.108458
58.100 13.981864
58.105 14.084311
58.110 14.159986
58.115 13.907697
58.120 14.595228
58.125 14.86504
58.130 14.670791
58.135 14.567516
58.140 14.163602
58.145 13.727828
58.150 13.957923
58.155 13.723476
58.160 13.770584
58.165 13.7888
58.170 13.509601
58.175 13.905105
58.180 14.045833
58.185 14.090633
58.190 14.290692
58.195 14.90369
58.200 15.01481
58.205 14.897367
58.210 14.934995
58.215 15.015311
58.220 14.626493
58.225 14.423222
58.230 14.462805
58.235 15.091391
58.240 15.588288
58.245 15.318751
58.250 16.001902
58.255 16.426003
58.260 16.612165
58.265 16.122015
58.270 15.641022
58.275 15.581942
58.280 15.34759
58.285 14.889957
58.290 14.807904
58.295 14.316522
58.300 14.008648
58.305 13.894883
58.310 14.227571
58.315 14.1296
58.320 13.969775
58.325 13.4588
58.330 13.361231
58.335 13.788144
58.340 13.621206
58.345 13.454265
58.350 14.189394
58.355 14.598866
58.360 15.144373
58.365 15.940436
58.370 16.187271
58.375 15.833526
58.380 15.030076
58.385 14.510263
58.390 14.074677
58.395 13.805337
58.400 13.130799
58.405 12.81151
58.410 13.038599
58.415 13.244419
58.420 13.199476
58.425 13.702865
58.430 14.563626
58.435 14.630389
58.440 14.691577
58.445 14.847103
58.450 14.716811
58.455 15.168515
58.460 14.655794
58.465 13.840405
58.470 13.958714
58.475 14.248207
58.480 14.239815
58.485 14.158958
58.490 13.958681
58.495 14.296367
58.500 14.439876
58.505 14.17008
58.510 13.956942
58.515 14.289225
