!@!!GADDS PLOTSO FILE: Chi integration type
!@!!Title/SampleName: map-bc
!@!!Comment: ?
!@!!User: Bruker Instrument Administrator
!@!!Site: University of Illinois Chicago
!@!!Frame: map-bc_01_000.gfrm
!@!!Wavelengths    1.54184   1.54056   1.54439
!@!!Frame angles: 2Theta: 63.000 Omega: 50.000 Phi: 0.000 Chi: 90.000
!@!!Integration range: 2Theta: 53.000 to 73.000  Gamma: -105.000 to -75.000
!@!!Integration method: bin normalized
!@!N
!@!SS
!@!M
!@!L 0.0 0.0 0.0 0.0
!@!XDegrees
!@!YCounts
53.000 6.911215
53.005 7.22502
53.010 7.009987
53.015 6.853702
53.020 6.693368
53.025 6.966002
53.030 7.515415
53.035 7.497023
53.040 7.540398
53.045 8.286251
53.050 8.48047
53.055 8.421676
53.060 8.212226
53.065 7.993646
53.070 7.922269
53.075 7.634309
53.080 7.056115
53.085 7.350642
53.090 7.501967
53.095 7.3776
53.100 7.44564
53.105 7.667252
53.110 7.271446
53.115 7.519405
53.120 7.362399
53.125 7.156431
53.130 7.60813
53.135 7.423395
53.140 7.475008
53.145 7.875116
53.150 7.633646
53.155 7.776428
53.160 7.791539
53.165 7.773331
53.170 7.564927
53.175 7.237437
53.180 7.148957
53.185 7.140538
53.190 7.404645
53.195 7.424706
53.200 7.42025
53.205 7.745637
53.210 7.92436
53.215 7.980205
53.220 7.747952
53.225 7.701387
53.230 7.589312
53.235 7.526129
53.240 7.433016
53.245 7.18994
53.250 7.235056
53.255 7.382519
53.260 7.224307
53.265 7.183015
53.270 7.201301
53.275 7.383824
53.280 7.60023
53.285 7.12376
53.290 7.403468
53.295 7.278749
53.300 7.325912
53.305 7.610241
53.310 7.334883
53.315 7.560196
53.320 7.593982
53.325 7.12088
53.330 7.42149
53.335 7.486596
53.340 7.814906
53.345 8.192778
53.350 8.373676
53.355 8.540994
53.360 8.920274
53.365 8.993151
53.370 8.904946
53.375 8.602459
53.380 8.440839
53.385 8.079857
53.390 8.025302
53.395 7.905624
53.400 7.810669
53.405 7.852259
53.410 8.178111
53.415 8.362803
53.420 9.198553
53.425 9.153162
53.430 8.709857
53.435 8.810696
53.440 8.847851
53.445 8.353402
53.450 8.271929
53.455 7.805607
53.460 8.188569
53.465 8.309368
53.470 7.658335
53.475 7.785779
53.480 8.074021
53.485 8.053888
53.490 7.97872
53.495 7.548312
53.500 7.735367
53.505 8.075486
53.510 7.848901
53.515 7.699472
53.520 7.952743
53.525 8.292009
53.530 8.388807
53.535 8.851088
53.540 8.878714
53.545 9.004783
53.550 8.905324
53.555 8.173629
53.560 8.071923
53.565 7.965452
53.570 7.470714
53.575 7.538919
53.580 7.420573
53.585 7.419036
53.590 7.569396
53.595 7.263929
53.600 7.626986
53.605 7.816538
53.610 7.896869
53.615 8.072393
53.620 7.886463
53.625 7.703887
53.630 7.946338
53.635 7.770644
53.640 7.657038
53.645 7.526754
53.650 7.456249
53.655 8.000843
53.660 7.879701
53.665 7.583961
53.670 7.198897
53.675 7.010593
53.680 7.146177
53.685 7.363148
53.690 7.914794
53.695 8.405228
53.700 8.922413
53.705 9.551372
53.710 9.707647
53.715 9.981295
53.720 9.923288
53.725 9.808971
53.730 9.759387
53.735 9.361736
53.740 9.32218
53.745 8.776005
53.750 8.32586
53.755 8.033279
53.760 7.886127
53.765 7.795408
53.770 7.445409
53.775 7.102143
53.780 7.525349
53.785 7.852237
53.790 7.875712
53.795 7.68716
53.800 7.916849
53.805 8.303071
53.810 8.454221
53.815 7.745771
53.820 7.478854
53.825 7.496517
53.830 7.472757
53.835 7.346842
53.840 7.247102
53.845 7.454832
53.850 7.978414
53.855 8.094735
53.860 7.973229
53.865 7.939903
53.870 7.873365
53.875 8.543385
53.880 8.838541
53.885 8.76061
53.890 9.09815
53.895 9.423327
53.900 9.435607
53.905 10.153774
53.910 9.62651
53.915 9.1871
53.920 9.391691
53.925 9.310969
53.930 9.322653
53.935 9.446353
53.940 8.853202
53.945 9.123901
53.950 9.79401
53.955 9.640731
53.960 9.542982
53.965 9.441273
53.970 9.405963
53.975 9.536286
53.980 9.294086
53.985 8.816744
53.990 8.849834
53.995 9.15896
54.000 9.018327
54.005 8.734136
54.010 8.912213
54.015 8.776252
54.020 8.756035
54.025 8.566508
54.030 8.430424
54.035 8.768447
54.040 9.066977
54.045 8.919446
54.050 8.793014
54.055 8.506618
54.060 8.317997
54.065 7.959271
54.070 7.602333
54.075 7.446117
54.080 7.370438
54.085 7.337468
54.090 7.752164
54.095 7.770331
54.100 8.178456
54.105 8.102692
54.110 8.341148
54.115 8.627194
54.120 8.443675
54.125 8.168032
54.130 7.933021
54.135 8.133182
54.140 8.909104
54.145 8.721739
54.150 8.758391
54.155 8.974297
54.160 9.106306
54.165 9.472788
54.170 9.038988
54.175 8.465059
54.180 8.561678
54.185 8.483843
54.190 8.553992
54.195 8.75801
54.200 8.970691
54.205 8.957772
54.210 9.087527
54.215 8.865086
54.220 9.312576
54.225 9.527621
54.230 9.204622
54.235 9.309795
54.240 9.628989
54.245 9.407913
54.250 9.478899
54.255 9.139252
54.260 8.821021
54.265 8.941118
54.270 9.000172
54.275 9.029502
54.280 9.274689
54.285 9.754403
54.290 9.74337
54.295 9.684942
54.300 9.520028
54.305 9.30895
54.310 9.187994
54.315 8.963529
54.320 8.919221
54.325 9.150081
54.330 9.438484
54.335 9.6999
54.340 9.408833
54.345 9.252531
54.350 9.275413
54.355 8.947766
54.360 9.11534
54.365 9.303309
54.370 9.427168
54.375 9.874374
54.380 9.435858
54.385 9.447162
54.390 9.524505
54.395 9.085046
54.400 8.775392
54.405 8.459352
54.410 8.672807
54.415 8.707062
54.420 8.499912
54.425 8.381607
54.430 8.425837
54.435 8.623515
54.440 8.554131
54.445 8.619382
54.450 9.142856
54.455 9.292076
54.460 9.282196
54.465 9.29368
54.470 9.442338
54.475 9.646697
54.480 9.822355
54.485 9.497641
54.490 9.379509
54.495 9.189274
54.500 8.834556
54.505 8.552118
54.510 8.029258
54.515 8.207057
54.520 8.261886
54.525 8.806584
54.530 9.078826
54.535 9.113783
54.540 9.021123
54.545 9.313134
54.550 9.128267
54.555 9.289263
54.560 8.82025
54.565 8.695339
54.570 8.817163
54.575 8.926746
54.580 8.946699
54.585 9.014071
54.590 9.447363
54.595 9.873158
54.600 9.872937
54.605 10.166103
54.610 9.825825
54.615 9.720315
54.620 9.255501
54.625 8.836734
54.630 8.912586
54.635 9.088208
54.640 8.623896
54.645 8.678138
54.650 8.438449
54.655 8.720201
54.660 8.799141
54.665 9.074095
54.670 9.009319
54.675 9.438428
54.680 9.506296
54.685 9.374177
54.690 9.403727
54.695 9.200753
54.700 8.614705
54.705 8.261247
54.710 7.963056
54.715 8.306135
54.720 8.639372
54.725 8.537399
54.730 8.774856
54.735 9.045172
54.740 9.14454
54.745 9.455975
54.750 9.241012
54.755 8.93561
54.760 8.959877
54.765 8.882185
54.770 8.845337
54.775 8.867208
54.780 9.052181
54.785 9.083164
54.790 9.00798
54.795 9.161527
54.800 9.41839
54.805 9.975655
54.810 10.210013
54.815 10.379859
54.820 10.298067
54.825 10.734152
54.830 10.518989
54.835 10.097202
54.840 9.72069
54.845 9.405376
54.850 9.388158
54.855 9.205449
54.860 8.825473
54.865 8.848074
54.870 9.008095
54.875 9.271887
54.880 9.306486
54.885 9.31611
54.890 9.473782
54.895 9.455736
54.900 9.502471
54.905 9.388658
54.910 9.406165
54.915 9.861117
54.920 9.885501
54.925 10.227736
54.930 10.369892
54.935 10.237455
54.940 9.935722
54.945 9.976616
54.950 9.804575
54.955 9.758707
54.960 9.719652
54.965 9.751348
54.970 9.600574
54.975 9.792676
54.980 9.329062
54.985 9.439524
54.990 9.604742
54.995 9.330391
55.000 9.499823
55.005 9.943264
55.010 10.218942
55.015 10.036447
55.020 10.02073
55.025 9.574624
55.030 9.910034
55.035 9.9431
55.040 9.590183
55.045 9.077946
55.050 8.91514
55.055 8.375169
55.060 8.434138
55.065 8.219175
55.070 8.445237
55.075 8.623377
55.080 9.049134
55.085 9.212628
55.090 9.355964
55.095 9.522307
55.100 9.779626
55.105 9.519692
55.110 9.4849
55.115 9.450585
55.120 9.509208
55.125 9.554605
55.130 9.062301
55.135 8.961097
55.140 9.146844
55.145 9.321393
55.150 9.649738
55.155 9.562907
55.160 9.751675
55.165 9.954214
55.170 10.058116
55.175 9.965767
55.180 9.777637
55.185 9.693465
55.190 9.821471
55.195 10.144333
55.200 9.805465
55.205 9.650399
55.210 9.84706
55.215 9.90045
55.220 10.053902
55.225 9.797004
55.230 9.665473
55.235 9.655895
55.240 9.834378
55.245 9.92736
55.250 10.311779
55.255 10.522178
55.260 10.902561
55.265 10.733123
55.270 11.032844
55.275 10.905414
55.280 10.80176
55.285 10.355103
55.290 9.881753
55.295 9.696922
55.300 9.608082
55.305 9.646923
55.310 9.460019
55.315 9.369649
55.320 9.21419
55.325 9.494439
55.330 9.762183
55.335 10.463343
55.340 10.41233
55.345 10.655713
55.350 10.628591
55.355 11.122984
55.360 10.919407
55.365 10.298453
55.370 9.785368
55.375 9.83879
55.380 9.729648
55.385 9.61241
55.390 9.294837
55.395 9.411368
55.400 9.251522
55.405 9.198318
55.410 9.322902
55.415 9.293848
55.420 9.490969
55.425 9.358866
55.430 9.137799
55.435 9.355603
55.440 9.381133
55.445 8.935467
55.450 8.772129
55.455 8.796582
55.460 9.369605
55.465 9.591189
55.470 9.755756
55.475 10.100305
55.480 10.750078
55.485 10.774282
55.490 10.359342
55.495 10.489279
55.500 10.720625
55.505 11.033826
55.510 10.854474
55.515 10.610977
55.520 11.446655
55.525 12.009755
55.530 11.502158
55.535 10.958281
55.540 10.973783
55.545 11.18826
55.550 11.169701
55.555 10.641543
55.560 10.586928
55.565 11.002287
55.570 11.328906
55.575 11.318145
55.580 11.394547
55.585 11.41858
55.590 11.093086
55.595 10.994344
55.600 11.003583
55.605 11.059463
55.610 10.402297
55.615 10.140734
55.620 10.281824
55.625 10.252911
55.630 10.235371
55.635 9.856874
55.640 9.848397
55.645 10.013643
55.650 9.895308
55.655 9.626554
55.660 9.460499
55.665 9.701765
55.670 9.709269
55.675 9.416081
55.680 9.48159
55.685 9.685293
55.690 9.745119
55.695 9.826253
55.700 9.969869
55.705 10.425293
55.710 10.636058
55.715 10.987858
55.720 11.227127
55.725 11.552929
55.730 11.688825
55.735 11.678087
55.740 11.444116
55.745 11.465461
55.750 11.356901
55.755 11.058501
55.760 10.890202
55.765 10.873041
55.770 10.88531
55.775 10.929182
55.780 10.577313
55.785 10.434754
55.790 10.436458
55.795 10.535305
55.800 10.306027
55.805 9.8494
55.810 9.860286
55.815 10.340586
55.820 10.276934
55.825 10.327437
55.830 10.161812
55.835 10.887228
55.840 11.507122
55.845 11.477654
55.850 11.000358
55.855 10.78631
55.860 11.062743
55.865 11.080756
55.870 10.041479
55.875 9.624404
55.880 9.730779
55.885 10.259268
55.890 10.298591
55.895 9.950811
55.900 9.880381
55.905 10.289406
55.910 10.38592
55.915 9.92723
55.920 9.629237
55.925 9.718629
55.930 9.970858
55.935 10.162301
55.940 10.417171
55.945 10.91446
55.950 11.253236
55.955 11.36555
55.960 11.280749
55.965 10.980453
55.970 11.115371
55.975 11.229463
55.980 11.37688
55.985 11.217714
55.990 11.084688
55.995 11.72819
56.000 12.324863
56.005 12.010816
56.010 11.637284
56.015 11.660617
56.020 12.011079
56.025 12.140422
56.030 11.780794
56.035 11.41134
56.040 11.111023
56.045 11.115573
56.050 10.819347
56.055 10.261507
56.060 9.97447
56.065 9.882042
56.070 10.104486
56.075 10.476739
56.080 10.029864
56.085 10.24914
56.090 10.283653
56.095 10.105218
56.100 9.819926
56.105 9.780359
56.110 9.889366
56.115 10.059956
56.120 10.266741
56.125 10.411281
56.130 10.606457
56.135 10.787848
56.140 10.972751
56.145 11.127945
56.150 11.029156
56.155 10.592137
56.160 10.49493
56.165 10.591152
56.170 10.479723
56.175 10.188843
56.180 10.115176
56.185 10.379359
56.190 10.199428
56.195 10.192719
56.200 10.11173
56.205 10.029933
56.210 10.101378
56.215 9.845647
56.220 10.052747
56.225 10.297791
56.230 10.433869
56.235 10.746788
56.240 10.858334
56.245 10.97248
56.250 11.365202
56.255 11.320365
56.260 11.458143
56.265 11.59758
56.270 11.73389
56.275 11.665626
56.280 11.419619
56.285 11.13594
56.290 11.424351
56.295 11.50226
56.300 11.365482
56.305 11.275722
56.310 11.704808
56.315 11.640842
56.320 11.749803
56.325 11.578791
56.330 11.617318
56.335 11.654347
56.340 11.640948
56.345 11.197774
56.350 10.789386
56.355 10.223914
56.360 10.142224
56.365 10.567884
56.370 10.58296
56.375 10.453777
56.380 10.666385
56.385 11.280346
56.390 11.700768
56.395 11.684743
56.400 11.363225
56.405 11.176246
56.410 11.354473
56.415 10.934006
56.420 10.279435
56.425 9.978434
56.430 10.156469
56.435 10.492909
56.440 10.864484
56.445 10.922575
56.450 11.376536
56.455 11.578517
56.460 12.024191
56.465 11.68088
56.470 11.197392
56.475 10.675622
56.480 10.769821
56.485 10.957624
56.490 11.266149
56.495 10.956784
56.500 11.389485
56.505 11.503624
56.510 11.962587
56.515 11.851511
56.520 11.593665
56.525 11.128365
56.530 10.750757
56.535 10.552966
56.540 10.55899
56.545 10.471235
56.550 10.374508
56.555 10.934681
56.560 11.318827
56.565 11.479281
56.570 11.150867
56.575 11.141808
56.580 10.929218
56.585 10.84992
56.590 10.404319
56.595 10.33131
56.600 10.331266
56.605 9.910865
56.610 9.820331
56.615 9.657242
56.620 9.670562
56.625 9.723449
56.630 9.198886
56.635 9.002107
56.640 9.260625
56.645 9.430873
56.650 9.496816
56.655 9.72374
56.660 10.183976
56.665 10.759057
56.670 11.172055
56.675 11.333105
56.680 11.331476
56.685 11.619708
56.690 11.802002
56.695 11.846597
56.700 11.854418
56.705 12.309026
56.710 12.704511
56.715 12.858196
56.720 12.886652
56.725 12.967587
56.730 13.015439
56.735 12.453909
56.740 12.066185
56.745 11.716111
56.750 11.473115
56.755 11.483556
56.760 11.350756
56.765 11.502954
56.770 11.73144
56.775 11.655872
56.780 11.938734
56.785 12.003586
56.790 11.775635
56.795 11.536098
56.800 11.630901
56.805 12.200541
56.810 12.367971
56.815 12.129743
56.820 11.68518
56.825 11.779362
56.830 11.688918
56.835 11.207408
56.840 10.669025
56.845 10.602121
56.850 10.831979
56.855 10.626863
56.860 10.39207
56.865 10.563559
56.870 11.166327
56.875 11.428802
56.880 11.416206
56.885 11.324967
56.890 11.597085
56.895 11.575785
56.900 12.016398
56.905 11.842963
56.910 11.66739
56.915 12.098316
56.920 12.435673
56.925 12.57363
56.930 12.734016
56.935 12.241329
56.940 12.259685
56.945 12.497615
56.950 12.282002
56.955 12.514546
56.960 12.564752
56.965 12.657252
56.970 12.709909
56.975 13.118262
56.980 13.216833
56.985 13.367627
56.990 13.034914
56.995 13.120491
57.000 12.957751
57.005 12.966687
57.010 12.899729
57.015 12.522233
57.020 12.466222
57.025 12.530169
57.030 12.501134
57.035 12.716547
57.040 11.982845
57.045 11.391429
57.050 11.778103
57.055 11.39934
57.060 10.975698
57.065 11.071239
57.070 11.11278
57.075 12.334974
57.080 12.860141
57.085 12.425681
57.090 12.761213
57.095 13.37272
57.100 12.955091
57.105 12.440158
57.110 11.381838
57.115 11.320271
57.120 11.443494
57.125 10.883918
57.130 10.572812
57.135 11.255768
57.140 11.748093
57.145 11.808941
57.150 11.502683
57.155 11.581808
57.160 11.944391
57.165 11.90714
57.170 11.292114
57.175 11.132041
57.180 11.649222
57.185 11.639604
57.190 11.832644
57.195 12.267047
57.200 12.053188
57.205 12.509068
57.210 12.702942
57.215 12.284669
57.220 12.439432
57.225 12.224801
57.230 12.156258
57.235 12.344129
57.240 12.453124
57.245 12.312523
57.250 12.335266
57.255 12.307684
57.260 12.312591
57.265 12.296782
57.270 12.594047
57.275 12.462299
57.280 12.101933
57.285 11.843434
57.290 12.373217
57.295 12.61514
57.300 12.517966
57.305 12.440108
57.310 12.231936
57.315 12.419003
57.320 12.683022
57.325 12.517267
57.330 12.501524
57.335 12.410226
57.340 12.459963
57.345 12.084729
57.350 11.872787
57.355 11.85198
57.360 11.357194
57.365 11.176633
57.370 11.234417
57.375 10.963305
57.380 11.522244
57.385 11.834614
57.390 12.412361
57.395 12.707595
57.400 12.913389
57.405 12.96701
57.410 13.291821
57.415 13.465792
57.420 13.567282
57.425 13.132393
57.430 12.879261
57.435 12.558768
57.440 12.600434
57.445 12.169961
57.450 12.071652
57.455 11.490288
57.460 11.43528
57.465 11.264669
57.470 11.214022
57.475 11.093455
57.480 11.229515
57.485 11.641189
57.490 11.883724
57.495 11.639828
57.500 11.647066
57.505 11.930795
57.510 12.275702
57.515 11.817924
57.520 11.764525
57.525 11.496122
57.530 11.85706
57.535 11.759216
57.540 11.378149
57.545 10.789201
57.550 10.512319
57.555 10.389999
57.560 10.696184
57.565 10.59017
57.570 11.105315
57.575 11.717564
57.580 12.655581
57.585 13.199009
57.590 13.458394
57.595 13.698742
57.600 13.698842
57.605 13.672676
57.610 13.200114
57.615 12.958557
57.620 12.96243
57.625 13.135004
57.630 13.385218
57.635 13.183702
57.640 12.90703
57.645 13.187395
57.650 13.149313
57.655 12.888646
57.660 13.151253
57.665 13.216592
57.670 13.489493
57.675 13.832078
57.680 14.038451
57.685 14.16456
57.690 14.102405
57.695 13.264607
57.700 13.237819
57.705 12.930421
57.710 12.426939
57.715 12.692597
57.720 13.012441
57.725 13.359798
57.730 13.831902
57.735 13.908904
57.740 14.220793
57.745 14.446671
57.750 13.724373
57.755 13.17166
57.760 13.101246
57.765 12.997777
57.770 13.140023
57.775 13.360825
57.780 13.547106
57.785 13.691888
57.790 13.461708
57.795 12.938725
57.800 11.962109
57.805 11.412578
57.810 10.868359
57.815 10.869031
57.820 10.911373
57.825 11.308748
57.830 11.971125
57.835 12.658762
57.840 13.094219
57.845 13.187542
57.850 13.213238
57.855 13.321989
57.860 13.403679
57.865 13.962154
57.870 13.842927
57.875 13.932585
57.880 14.202638
57.885 14.543781
57.890 14.67529
57.895 14.886993
57.900 14.502871
57.905 13.94268
57.910 13.988119
57.915 13.693146
57.920 13.830594
57.925 14.350942
57.930 14.233317
57.935 15.09405
57.940 15.527555
57.945 15.150036
57.950 14.819395
57.955 14.730923
57.960 14.499438
57.965 14.230174
57.970 13.451278
57.975 14.094196
57.980 14.287135
57.985 14.637827
57.990 14.383815
57.995 13.859509
58.000 14.02736
58.005 14.446819
58.010 14.120806
58.015 14.956524
58.020 14.828675
58.025 14.978712
58.030 15.164641
58.035 14.80857
58.040 15.059639
58.045 14.761971
58.050 14.094321
58.055 14.208232
58.060 14.305391
58.065 14.326022
58.070 14.517706
58.075 14.6636
58.080 15.189183
58.085 15.096832
58.090 15.196874
58.095 14.886413
58.100 15.213155
58.105 15.14424
58.110 15.204386
58.115 14.915854
58.120 14.765526
58.125 14.707073
58.130 15.10371
58.135 15.071219
58.140 15.223535
58.145 14.835515
58.150 15.073123
58.155 15.464438
58.160 15.437467
58.165 15.21303
58.170 15.467373
58.175 15.742589
58.180 15.617628
58.185 15.346146
58.190 15.57659
58.195 15.59819
58.200 15.727217
58.205 14.678999
58.210 13.900596
58.215 13.760696
58.220 13.778433
58.225 13.723581
58.230 13.723572
58.235 13.72852
58.240 14.619305
58.245 15.140553
58.250 15.793266
58.255 15.992813
58.260 16.088409
58.265 16.239908
58.270 16.183451
58.275 15.368949
58.280 15.123887
58.285 14.539666
58.290 14.356009
58.295 14.03061
58.300 14.231363
58.305 14.851586
58.310 15.42312
58.315 16.100874
58.320 17.032091
58.325 17.595573
58.330 18.125338
58.335 18.994516
58.340 18.924437
58.345 18.82608
58.350 19.078564
58.355 19.208532
58.360 19.030096
58.365 18.860243
58.370 18.176317
58.375 18.424807
58.380 18.716667
58.385 18.107405
58.390 18.014473
58.395 18.620411
58.400 18.652157
58.405 18.843092
58.410 19.058315
58.415 19.145729
58.420 20.035892
58.425 20.573942
58.430 21.011873
58.435 21.337328
58.440 21.273336
58.445 21.159718
58.450 21.158564
58.455 21.780098
58.460 21.825588
58.465 21.824804
58.470 22.752054
58.475 22.804333
58.480 23.737534
58.485 24.479267
58.490 25.011616
58.495 25.67598
58.500 25.769831
58.505 25.71908
58.510 26.316843
58.515 26.417395
58.520 26.507235
58.525 26.438738
58.530 26.458265
58.535 26.786263
58.540 27.714762
58.545 28.236374
58.550 27.922426
58.555 28.28657
58.560 28.657063
58.565 28.943701
58.570 28.912142
58.575 28.356846
58.580 28.681904
