!@!!GADDS PLOTSO FILE: Chi integration type
!@!!Title/SampleName: map-10e
!@!!Comment: ?
!@!!User: Bruker Instrument Administrator
!@!!Site: University of Illinois Chicago
!@!!Frame: map-10e_01_000.gfrm
!@!!Wavelengths    1.54184   1.54056   1.54439
!@!!Frame angles: 2Theta: 63.000 Omega: 50.000 Phi: 0.000 Chi: 90.000
!@!!Integration range: 2Theta: 53.000 to 73.000  Gamma: -105.000 to -75.000
!@!!Integration method: bin normalized
!@!N
!@!SS
!@!M
!@!L 0.0 0.0 0.0 0.0
!@!XDegrees
!@!YCounts
53.000 8.660514
53.005 8.528202
53.010 8.465976
53.015 8.732681
53.020 8.89189
53.025 8.8428
53.030 8.611926
53.035 8.731833
53.040 8.799893
53.045 8.850742
53.050 8.543461
53.055 8.750182
53.060 8.724283
53.065 8.934987
53.070 8.538681
53.075 8.424088
53.080 8.634765
53.085 9.061493
53.090 9.360589
53.095 9.355096
53.100 9.044648
53.105 9.147798
53.110 9.363523
53.115 9.481853
53.120 9.447287
53.125 9.166803
53.130 9.133214
53.135 9.733918
53.140 10.109278
53.145 10.144979
53.150 9.98476
53.155 9.776933
53.160 9.669175
53.165 10.103186
53.170 9.865513
53.175 9.427605
53.180 9.019296
53.185 9.154185
53.190 9.275692
53.195 9.327765
53.200 8.786137
53.205 8.996604
53.210 9.128065
53.215 9.618402
53.220 9.198233
53.225 9.493919
53.230 9.237811
53.235 9.155991
53.240 9.101765
53.245 8.893785
53.250 8.604995
53.255 8.303023
53.260 8.371956
53.265 8.755804
53.270 8.683771
53.275 8.724123
53.280 8.906949
53.285 9.013678
53.290 9.509696
53.295 9.305413
53.300 9.368071
53.305 9.431523
53.310 9.145702
53.315 9.104143
53.320 9.401789
53.325 8.994143
53.330 9.30409
53.335 9.027314
53.340 9.210867
53.345 9.342277
53.350 8.921147
53.355 8.61006
53.360 8.449915
53.365 8.158608
53.370 8.712859
53.375 8.555398
53.380 8.529498
53.385 8.888983
53.390 8.99456
53.395 9.107298
53.400 8.726956
53.405 8.060555
53.410 8.242361
53.415 8.301908
53.420 7.74626
53.425 7.716037
53.430 7.777552
53.435 8.399114
53.440 8.647456
53.445 9.201915
53.450 9.473023
53.455 9.934779
53.460 9.56886
53.465 9.302857
53.470 8.980375
53.475 8.866809
53.480 8.407072
53.485 7.980007
53.490 7.970725
53.495 8.386958
53.500 8.661344
53.505 8.61082
53.510 8.551301
53.515 8.873073
53.520 8.753591
53.525 9.153691
53.530 9.280955
53.535 8.990313
53.540 9.232185
53.545 9.570784
53.550 9.662003
53.555 9.992783
53.560 9.881542
53.565 10.167397
53.570 10.879134
53.575 10.892835
53.580 10.253733
53.585 10.020176
53.590 9.732927
53.595 9.637554
53.600 9.53307
53.605 9.40819
53.610 8.953816
53.615 9.151257
53.620 9.418634
53.625 9.782768
53.630 9.571976
53.635 9.447917
53.640 9.43992
53.645 9.798818
53.650 9.732051
53.655 9.743243
53.660 9.71957
53.665 9.643193
53.670 9.234741
53.675 8.924838
53.680 8.795979
53.685 9.145152
53.690 9.314315
53.695 9.723002
53.700 10.180085
53.705 10.306306
53.710 10.780653
53.715 10.565203
53.720 10.457507
53.725 10.733394
53.730 10.431638
53.735 10.405273
53.740 10.582884
53.745 10.086096
53.750 10.138978
53.755 9.760991
53.760 9.223197
53.765 8.942396
53.770 8.512294
53.775 8.457891
53.780 9.203602
53.785 8.878534
53.790 8.795391
53.795 8.566911
53.800 8.550418
53.805 8.725324
53.810 8.927578
53.815 8.965027
53.820 9.113782
53.825 9.478806
53.830 9.98853
53.835 10.131292
53.840 10.353161
53.845 10.319883
53.850 10.228224
53.855 10.268377
53.860 9.878559
53.865 10.01191
53.870 10.654675
53.875 10.310734
53.880 10.375967
53.885 10.922188
53.890 10.925707
53.895 10.852558
53.900 10.419938
53.905 10.409659
53.910 10.678852
53.915 10.773458
53.920 10.890776
53.925 11.025663
53.930 11.223399
53.935 11.243672
53.940 10.702071
53.945 10.075101
53.950 9.686419
53.955 9.580651
53.960 9.531526
53.965 9.775011
53.970 10.147541
53.975 10.023425
53.980 10.13595
53.985 9.738724
53.990 9.446547
53.995 8.744484
54.000 7.850373
54.005 7.316427
54.010 7.349191
54.015 7.519442
54.020 7.839983
54.025 8.246571
54.030 9.353112
54.035 10.104993
54.040 10.254696
54.045 10.120768
54.050 10.132565
54.055 9.96955
54.060 9.839928
54.065 9.052268
54.070 8.823303
54.075 9.091692
54.080 9.112115
54.085 9.278797
54.090 9.191406
54.095 9.193744
54.100 9.848446
54.105 10.168508
54.110 10.183882
54.115 9.922275
54.120 9.821242
54.125 9.995985
54.130 9.768521
54.135 8.860497
54.140 8.622839
54.145 8.802212
54.150 9.024406
54.155 9.016675
54.160 8.652071
54.165 8.416763
54.170 9.04353
54.175 9.251763
54.180 9.649342
54.185 9.715923
54.190 9.686785
54.195 10.178373
54.200 10.646644
54.205 10.919287
54.210 10.676356
54.215 10.648497
54.220 10.283954
54.225 10.374823
54.230 10.21432
54.235 10.302831
54.240 10.158678
54.245 10.28277
54.250 10.494796
54.255 11.289212
54.260 11.572621
54.265 11.455048
54.270 11.097038
54.275 10.612526
54.280 10.202291
54.285 9.771454
54.290 9.590299
54.295 9.620398
54.300 9.418666
54.305 9.238016
54.310 9.238433
54.315 9.430352
54.320 9.422925
54.325 9.426792
54.330 9.37285
54.335 9.808438
54.340 9.918338
54.345 9.913652
54.350 9.687943
54.355 9.549242
54.360 8.84437
54.365 8.716152
54.370 8.408534
54.375 8.692888
54.380 8.928521
54.385 8.874213
54.390 8.966104
54.395 9.420566
54.400 9.575625
54.405 9.542766
54.410 9.723184
54.415 9.19992
54.420 9.56172
54.425 9.697062
54.430 9.756907
54.435 9.383273
54.440 9.227361
54.445 9.397928
54.450 9.636495
54.455 9.138609
54.460 9.21662
54.465 9.310095
54.470 9.771517
54.475 10.046874
54.480 9.768374
54.485 9.762385
54.490 10.014227
54.495 10.121068
54.500 10.581611
54.505 10.82829
54.510 10.826641
54.515 11.196454
54.520 11.793272
54.525 11.637179
54.530 11.288584
54.535 10.656622
54.540 10.334581
54.545 10.447418
54.550 10.594817
54.555 10.462121
54.560 11.055094
54.565 11.614932
54.570 11.658568
54.575 11.555798
54.580 11.339899
54.585 11.094627
54.590 10.791357
54.595 10.687269
54.600 10.697682
54.605 10.906887
54.610 10.945971
54.615 11.261914
54.620 11.375533
54.625 11.242785
54.630 10.967975
54.635 10.361935
54.640 10.387357
54.645 10.537848
54.650 9.987758
54.655 10.072475
54.660 10.323953
54.665 10.35673
54.670 10.712434
54.675 10.093597
54.680 10.407125
54.685 10.578512
54.690 9.861964
54.695 9.130313
54.700 9.114729
54.705 9.10565
54.710 9.174258
54.715 8.78919
54.720 9.152975
54.725 9.473473
54.730 9.750206
54.735 9.814339
54.740 9.857426
54.745 9.728319
54.750 9.810411
54.755 9.614373
54.760 9.465465
54.765 9.630136
54.770 9.82885
54.775 9.983488
54.780 10.37891
54.785 10.508326
54.790 11.025648
54.795 11.351295
54.800 11.167196
54.805 11.036819
54.810 11.349673
54.815 11.062385
54.820 10.809167
54.825 10.425626
54.830 10.623589
54.835 10.791872
54.840 10.770109
54.845 11.03434
54.850 11.493813
54.855 11.403792
54.860 11.198496
54.865 10.799502
54.870 10.672743
54.875 10.333109
54.880 10.219127
54.885 10.243863
54.890 10.435542
54.895 11.010041
54.900 11.568307
54.905 11.776546
54.910 11.903704
54.915 11.745261
54.920 11.638682
54.925 11.097071
54.930 10.628408
54.935 9.970955
54.940 9.822076
54.945 9.636358
54.950 9.904856
54.955 10.446028
54.960 11.134177
54.965 10.854937
54.970 10.926022
54.975 11.078239
54.980 11.546827
54.985 11.519369
54.990 10.977311
54.995 10.638558
55.000 11.157471
55.005 11.587972
55.010 11.383371
55.015 11.32799
55.020 11.220715
55.025 11.843515
55.030 11.860966
55.035 11.870501
55.040 11.919743
55.045 11.953243
55.050 11.349384
55.055 11.167953
55.060 11.2516
55.065 11.520859
55.070 11.715131
55.075 11.599345
55.080 12.133076
55.085 12.504527
55.090 12.318887
55.095 12.332127
55.100 12.466993
55.105 12.200013
55.110 12.225303
55.115 12.239907
55.120 11.97803
55.125 11.916844
55.130 11.379593
55.135 11.639976
55.140 11.793749
55.145 11.827045
55.150 11.421707
55.155 11.684638
55.160 11.865013
55.165 12.006104
55.170 11.625061
55.175 11.298132
55.180 11.329812
55.185 11.155234
55.190 11.364205
55.195 11.18307
55.200 10.963218
55.205 10.82602
55.210 10.821172
55.215 10.71242
55.220 10.722559
55.225 10.571588
55.230 10.411249
55.235 10.333085
55.240 10.275309
55.245 10.042556
55.250 9.760232
55.255 9.549932
55.260 9.498219
55.265 9.534838
55.270 9.902953
55.275 9.927011
55.280 10.012123
55.285 10.044854
55.290 9.953022
55.295 9.849572
55.300 9.966613
55.305 10.354292
55.310 10.467693
55.315 10.444168
55.320 10.560662
55.325 10.404019
55.330 10.241554
55.335 10.375933
55.340 10.041738
55.345 10.305987
55.350 10.354146
55.355 10.216139
55.360 10.763013
55.365 10.713305
55.370 10.410391
55.375 10.356756
55.380 10.247128
55.385 10.670663
55.390 10.726734
55.395 10.704832
55.400 10.465091
55.405 10.488617
55.410 10.554928
55.415 10.35349
55.420 10.412954
55.425 10.966578
55.430 11.352344
55.435 11.832678
55.440 11.493523
55.445 11.54083
55.450 11.530336
55.455 11.538327
55.460 11.281199
55.465 10.856289
55.470 10.743444
55.475 10.93938
55.480 11.104239
55.485 11.205838
55.490 11.226676
55.495 11.320642
55.500 11.488627
55.505 11.926455
55.510 12.155074
55.515 12.332502
55.520 12.293831
55.525 12.501552
55.530 12.255417
55.535 12.239704
55.540 11.91189
55.545 11.513569
55.550 11.032505
55.555 10.853108
55.560 10.449872
55.565 10.431579
55.570 10.492138
55.575 10.381882
55.580 10.127964
55.585 10.297333
55.590 10.130996
55.595 10.6245
55.600 11.203102
55.605 11.146181
55.610 11.703794
55.615 12.366427
55.620 12.254929
55.625 12.08462
55.630 11.519503
55.635 11.389552
55.640 11.688927
55.645 11.317133
55.650 11.228254
55.655 11.320218
55.660 11.544744
55.665 11.67298
55.670 11.266191
55.675 10.949769
55.680 10.709827
55.685 10.705174
55.690 10.767776
55.695 10.441673
55.700 10.039066
55.705 10.50017
55.710 10.699056
55.715 10.884685
55.720 10.705479
55.725 11.084278
55.730 11.865056
55.735 12.145667
55.740 11.874391
55.745 11.655212
55.750 11.410023
55.755 11.77968
55.760 11.310926
55.765 10.779765
55.770 10.653206
55.775 10.45194
55.780 11.018229
55.785 11.342128
55.790 11.059437
55.795 11.034099
55.800 11.215255
55.805 11.422462
55.810 11.731186
55.815 11.766519
55.820 12.121392
55.825 12.158123
55.830 12.688613
55.835 12.616448
55.840 12.669586
55.845 12.615227
55.850 12.71826
55.855 12.174812
55.860 12.26244
55.865 11.993869
55.870 11.946293
55.875 12.04322
55.880 11.97802
55.885 11.762096
55.890 12.400545
55.895 12.689803
55.900 12.467968
55.905 12.635016
55.910 12.405692
55.915 12.520283
55.920 12.700901
55.925 12.535291
55.930 12.281191
55.935 12.783102
55.940 12.444196
55.945 12.884216
55.950 13.176492
55.955 13.118423
55.960 12.768632
55.965 12.712294
55.970 12.35636
55.975 12.610647
55.980 11.797608
55.985 11.471985
55.990 10.938061
55.995 11.020105
56.000 11.102742
56.005 10.995147
56.010 11.888614
56.015 11.942413
56.020 11.763221
56.025 12.297903
56.030 12.123029
56.035 11.909248
56.040 11.478743
56.045 10.235916
56.050 10.110172
56.055 9.830709
56.060 9.816676
56.065 10.026827
56.070 10.062077
56.075 10.379181
56.080 11.269104
56.085 11.59306
56.090 12.08116
56.095 11.865078
56.100 12.192052
56.105 12.911626
56.110 12.862815
56.115 12.512011
56.120 12.368556
56.125 12.534901
56.130 12.601277
56.135 12.422211
56.140 12.282846
56.145 12.119401
56.150 12.610005
56.155 12.9324
56.160 12.759116
56.165 12.54924
56.170 12.385604
56.175 12.091256
56.180 11.219393
56.185 10.626059
56.190 10.256937
56.195 10.18923
56.200 10.56021
56.205 10.796162
56.210 11.089448
56.215 12.02699
56.220 12.4527
56.225 12.627964
56.230 12.956387
56.235 13.323287
56.240 13.515338
56.245 13.622971
56.250 13.550825
56.255 13.384777
56.260 13.270918
56.265 12.915532
56.270 12.620659
56.275 12.316265
56.280 12.275531
56.285 12.505171
56.290 13.048884
56.295 13.510317
56.300 13.635828
56.305 13.91431
56.310 14.431931
56.315 14.665895
56.320 14.186104
56.325 13.432029
56.330 12.870866
56.335 12.699914
56.340 12.520425
56.345 12.512084
56.350 12.53412
56.355 13.08976
56.360 13.232561
56.365 13.353008
56.370 13.20577
56.375 12.927205
56.380 12.361637
56.385 11.884828
56.390 11.614186
56.395 12.388525
56.400 13.188027
56.405 13.633455
56.410 13.440503
56.415 13.891431
56.420 14.431693
56.425 14.496499
56.430 14.30403
56.435 13.754979
56.440 13.923492
56.445 13.940559
56.450 13.446818
56.455 13.131008
56.460 12.660132
56.465 12.331532
56.470 11.991044
56.475 12.192527
56.480 12.78959
56.485 12.985793
56.490 13.759194
56.495 14.306596
56.500 14.525709
56.505 14.441653
56.510 14.293219
56.515 13.838692
56.520 13.961033
56.525 13.489311
56.530 12.723125
56.535 12.654193
56.540 12.685952
56.545 12.553596
56.550 12.789207
56.555 12.547816
56.560 12.433937
56.565 13.268175
56.570 13.117191
56.575 12.866159
56.580 12.505422
56.585 12.05217
56.590 12.108605
56.595 12.592788
56.600 12.247316
56.605 12.370906
56.610 12.680653
56.615 13.510069
56.620 13.843708
56.625 13.891727
56.630 13.248264
56.635 12.889666
56.640 12.99146
56.645 12.742785
56.650 12.32562
56.655 12.407797
56.660 12.610404
56.665 12.942887
56.670 13.210569
56.675 12.858641
56.680 13.046658
56.685 13.527424
56.690 13.227587
56.695 13.09336
56.700 13.443813
56.705 13.808421
56.710 13.998289
56.715 13.841051
56.720 13.353748
56.725 13.629195
56.730 13.644495
56.735 13.203015
56.740 12.863416
56.745 13.09691
56.750 13.280333
56.755 13.342174
56.760 13.047014
56.765 12.601913
56.770 12.314506
56.775 12.648963
56.780 12.737967
56.785 12.767915
56.790 12.540185
56.795 12.691041
56.800 13.095119
56.805 13.213192
56.810 13.02949
56.815 12.817359
56.820 12.912923
56.825 12.833779
56.830 12.823213
56.835 13.214141
56.840 13.172681
56.845 13.294209
56.850 13.226352
56.855 12.945436
56.860 13.092808
56.865 13.062151
56.870 13.058327
56.875 13.049367
56.880 12.712711
56.885 12.431133
56.890 12.62525
56.895 12.517056
56.900 12.383038
56.905 12.315165
56.910 12.716887
56.915 13.150282
56.920 13.443311
56.925 13.700574
56.930 14.082162
56.935 14.354456
56.940 14.407804
56.945 14.282037
56.950 14.585541
56.955 14.697055
56.960 14.448935
56.965 14.233199
56.970 14.067236
56.975 14.192204
56.980 13.877047
56.985 13.783775
56.990 13.401094
56.995 13.366772
57.000 13.066543
57.005 13.028235
57.010 12.725077
57.015 12.944374
57.020 13.097031
57.025 13.748355
57.030 13.842655
57.035 14.168376
57.040 14.019316
57.045 14.299244
57.050 14.119927
57.055 13.715727
57.060 12.629338
57.065 12.037572
57.070 12.216634
57.075 11.944909
57.080 11.571533
57.085 11.423082
57.090 11.646133
57.095 12.164284
57.100 12.504763
57.105 12.188393
57.110 11.895135
57.115 11.626011
57.120 11.376579
57.125 11.277511
57.130 11.800548
57.135 12.247262
57.140 12.530726
57.145 12.646247
57.150 12.334705
57.155 12.148883
57.160 11.933807
57.165 11.767665
57.170 11.631842
57.175 11.637557
57.180 12.089724
57.185 12.984966
57.190 13.665069
57.195 13.748332
57.200 13.12415
57.205 13.162724
57.210 13.422647
57.215 13.619756
57.220 13.449815
57.225 13.337203
57.230 13.530069
57.235 13.636958
57.240 13.463184
57.245 13.298553
57.250 12.80139
57.255 12.637309
57.260 12.910141
57.265 12.894164
57.270 13.103305
57.275 12.781451
57.280 12.778129
57.285 12.844912
57.290 12.975308
57.295 13.253248
57.300 13.574828
57.305 14.059546
57.310 14.249261
57.315 14.926732
57.320 15.220224
57.325 14.671236
57.330 13.935374
57.335 13.202877
57.340 12.957165
57.345 12.644662
57.350 12.279691
57.355 12.28833
57.360 12.795997
57.365 13.073921
57.370 13.293979
57.375 13.237823
57.380 13.260634
57.385 13.390439
57.390 13.27632
57.395 13.321053
57.400 13.520035
57.405 13.719557
57.410 14.678306
57.415 14.825642
57.420 14.636439
57.425 14.19213
57.430 13.811376
57.435 13.994794
57.440 14.243237
57.445 13.965047
57.450 13.664748
57.455 13.643056
57.460 13.553116
57.465 13.232666
57.470 12.731668
57.475 12.105652
57.480 12.389775
57.485 12.582238
57.490 12.788126
57.495 13.141584
57.500 13.730759
57.505 14.292122
57.510 14.387298
57.515 14.152549
57.520 14.202072
57.525 14.305073
57.530 14.266299
57.535 13.895288
57.540 13.62396
57.545 13.4486
57.550 13.71567
57.555 13.755349
57.560 13.435493
57.565 13.746731
57.570 13.69226
57.575 13.615817
57.580 13.443757
57.585 13.103566
57.590 12.707191
57.595 12.99289
57.600 13.231516
57.605 12.988259
57.610 13.207458
57.615 13.155034
57.620 13.072863
57.625 13.112872
57.630 12.984624
57.635 12.43227
57.640 12.513494
57.645 12.448812
57.650 12.426789
57.655 12.24999
57.660 12.43614
57.665 12.392976
57.670 12.951653
57.675 13.719059
57.680 13.422731
57.685 13.560754
57.690 13.795939
57.695 13.95526
57.700 13.62648
57.705 13.445504
57.710 13.081318
57.715 12.939386
57.720 12.848598
57.725 13.003632
57.730 13.376383
57.735 13.839219
57.740 13.598194
57.745 13.435451
57.750 13.963217
57.755 14.121695
57.760 13.876152
57.765 13.79087
57.770 13.648426
57.775 13.671649
57.780 13.832373
57.785 13.97378
57.790 13.626136
57.795 13.739918
57.800 13.84726
57.805 13.645223
57.810 13.518609
57.815 13.790268
57.820 13.784969
57.825 13.894695
57.830 13.415982
57.835 12.820931
57.840 13.161222
57.845 13.123139
57.850 12.84265
57.855 12.650813
57.860 12.472462
57.865 12.775578
57.870 13.23232
57.875 13.316487
57.880 13.572901
57.885 13.907908
57.890 13.74279
57.895 13.739095
57.900 13.307263
57.905 13.267596
57.910 13.210574
57.915 12.596438
57.920 12.579576
57.925 12.7987
57.930 12.950572
57.935 13.176412
57.940 13.357532
57.945 13.230404
57.950 13.368553
57.955 13.083122
57.960 13.027633
57.965 13.387817
57.970 13.515877
57.975 13.119553
57.980 13.843086
57.985 13.961187
57.990 13.852639
57.995 14.011147
58.000 13.669481
58.005 13.315642
58.010 13.457625
58.015 12.98382
58.020 12.235237
58.025 12.641603
58.030 12.798139
58.035 13.137712
58.040 13.365449
58.045 13.142272
58.050 13.436255
58.055 14.354977
58.060 14.433485
58.065 14.488893
58.070 14.443807
58.075 14.8034
58.080 15.011374
58.085 14.656718
58.090 13.993644
58.095 14.101516
58.100 14.273643
58.105 14.516338
58.110 14.427965
58.115 14.663136
58.120 15.451954
58.125 15.917573
58.130 15.844594
58.135 15.828876
58.140 16.136158
58.145 15.677717
58.150 15.457037
58.155 15.247556
58.160 15.130961
58.165 15.202064
58.170 15.108775
58.175 14.544926
58.180 14.538907
58.185 14.037859
58.190 13.826016
58.195 13.614557
58.200 13.561964
58.205 13.559978
58.210 13.76329
58.215 13.942428
58.220 14.390635
58.225 14.410597
58.230 14.054357
58.235 13.79666
58.240 13.463323
58.245 13.142484
58.250 13.099859
58.255 13.297551
58.260 13.462762
58.265 13.866887
58.270 14.2507
58.275 14.611796
58.280 15.167355
58.285 15.369993
58.290 14.93393
58.295 15.469769
58.300 15.169066
58.305 14.491791
58.310 14.230011
58.315 13.926001
58.320 13.800722
58.325 13.282302
58.330 12.478559
58.335 12.593385
58.340 12.663138
58.345 12.8384
58.350 12.812692
58.355 13.422501
58.360 13.785384
58.365 13.993194
58.370 13.915274
58.375 13.958592
58.380 14.035133
58.385 13.442722
58.390 12.694496
58.395 12.821818
58.400 12.359069
58.405 12.571813
58.410 12.316095
58.415 12.288239
58.420 13.330091
58.425 13.741594
58.430 13.725812
58.435 14.079213
58.440 14.288511
58.445 14.643294
58.450 14.7632
58.455 15.183737
58.460 14.783398
58.465 15.220179
58.470 14.963946
58.475 14.547884
58.480 14.265935
58.485 13.753105
58.490 13.389567
58.495 13.705473
58.500 13.555445
58.505 13.647733
58.510 14.124368
