!@!!GADDS PLOTSO FILE: Chi integration type
!@!!Title/SampleName: map-28
!@!!Comment: ?
!@!!User: Bruker Instrument Administrator
!@!!Site: University of Illinois Chicago
!@!!Frame: map-28_01_000.gfrm
!@!!Wavelengths    1.54184   1.54056   1.54439
!@!!Frame angles: 2Theta: 63.000 Omega: 50.000 Phi: 0.000 Chi: 90.000
!@!!Integration range: 2Theta: 53.000 to 73.000  Gamma: -105.000 to -75.000
!@!!Integration method: bin normalized
!@!N
!@!SS
!@!M
!@!L 0.0 0.0 0.0 0.0
!@!XDegrees
!@!YCounts
53.000 7.038546
53.005 6.653991
53.010 6.644907
53.015 6.550864
53.020 6.991397
53.025 7.427179
53.030 7.642552
53.035 7.834448
53.040 8.059441
53.045 8.291991
53.050 8.283475
53.055 7.48506
53.060 7.090619
53.065 7.229651
53.070 7.462501
53.075 7.720597
53.080 7.486789
53.085 7.577103
53.090 8.092323
53.095 8.367443
53.100 8.273252
53.105 8.095517
53.110 7.807428
53.115 8.290185
53.120 8.026258
53.125 7.877036
53.130 7.817355
53.135 7.820487
53.140 8.030186
53.145 8.294134
53.150 8.06086
53.155 8.095272
53.160 7.897568
53.165 7.9845
53.170 8.092907
53.175 7.831348
53.180 7.489291
53.185 7.528826
53.190 7.758298
53.195 8.166046
53.200 8.020111
53.205 8.028303
53.210 8.219584
53.215 8.176143
53.220 8.245531
53.225 8.059239
53.230 7.760536
53.235 7.746303
53.240 7.496018
53.245 6.598441
53.250 6.629582
53.255 6.608572
53.260 6.85054
53.265 6.971143
53.270 7.123201
53.275 7.489292
53.280 8.187003
53.285 8.564345
53.290 8.816453
53.295 9.201504
53.300 9.345968
53.305 9.244582
53.310 9.144226
53.315 8.80763
53.320 8.70395
53.325 8.649787
53.330 8.149035
53.335 7.923335
53.340 7.902528
53.345 7.730274
53.350 8.010333
53.355 8.234584
53.360 8.061527
53.365 8.025987
53.370 8.298865
53.375 8.489028
53.380 8.705151
53.385 8.073036
53.390 7.639206
53.395 7.758324
53.400 7.748085
53.405 7.784063
53.410 7.612091
53.415 7.772076
53.420 7.887577
53.425 7.914142
53.430 8.018682
53.435 8.564233
53.440 8.875651
53.445 8.922771
53.450 8.756915
53.455 8.772644
53.460 8.848431
53.465 8.665399
53.470 7.96636
53.475 7.365983
53.480 7.490535
53.485 7.510186
53.490 7.765934
53.495 7.658736
53.500 7.688853
53.505 7.969162
53.510 8.246861
53.515 8.216849
53.520 7.934518
53.525 7.854562
53.530 7.793054
53.535 7.551887
53.540 7.550556
53.545 7.484898
53.550 7.623843
53.555 7.675423
53.560 7.931914
53.565 7.606997
53.570 7.647398
53.575 7.827026
53.580 7.730806
53.585 7.518584
53.590 7.285151
53.595 7.391191
53.600 7.916159
53.605 7.812087
53.610 7.490552
53.615 7.344681
53.620 7.992849
53.625 8.115977
53.630 7.944959
53.635 7.819304
53.640 7.982138
53.645 8.901416
53.650 8.756627
53.655 8.011235
53.660 8.105073
53.665 8.041867
53.670 8.3119
53.675 8.358328
53.680 8.161036
53.685 8.855227
53.690 9.317676
53.695 9.038632
53.700 9.063049
53.705 8.724359
53.710 8.668198
53.715 8.594691
53.720 8.561887
53.725 9.190277
53.730 9.492537
53.735 9.545397
53.740 9.725444
53.745 9.930325
53.750 9.812052
53.755 9.610759
53.760 8.914875
53.765 8.608245
53.770 8.645384
53.775 8.167447
53.780 7.944222
53.785 7.949294
53.790 8.067746
53.795 8.281296
53.800 8.716149
53.805 8.717005
53.810 8.727787
53.815 8.717674
53.820 8.39907
53.825 7.934196
53.830 8.199387
53.835 8.107512
53.840 8.253714
53.845 8.568825
53.850 8.819929
53.855 8.838396
53.860 8.661152
53.865 8.33478
53.870 8.118091
53.875 7.653217
53.880 7.526227
53.885 7.929054
53.890 8.208967
53.895 8.209546
53.900 8.100871
53.905 8.66851
53.910 8.77702
53.915 8.417633
53.920 8.151409
53.925 8.152925
53.930 8.81956
53.935 8.7306
53.940 8.557936
53.945 8.512538
53.950 8.475121
53.955 8.26255
53.960 8.458528
53.965 8.510271
53.970 8.758538
53.975 8.68695
53.980 8.797877
53.985 8.909144
53.990 8.756994
53.995 8.403668
54.000 7.971239
54.005 7.868714
54.010 7.955751
54.015 7.86446
54.020 8.067724
54.025 8.363159
54.030 8.406489
54.035 8.575106
54.040 8.611372
54.045 8.839126
54.050 8.879954
54.055 8.571399
54.060 8.31939
54.065 8.558374
54.070 8.6146
54.075 8.751056
54.080 8.771998
54.085 8.765565
54.090 8.884726
54.095 9.366423
54.100 9.551063
54.105 9.460932
54.110 9.419821
54.115 9.527353
54.120 9.833849
54.125 9.888433
54.130 9.973983
54.135 9.980615
54.140 9.87088
54.145 9.765232
54.150 9.814415
54.155 9.710622
54.160 10.146865
54.165 9.774337
54.170 10.17872
54.175 10.419601
54.180 10.361807
54.185 10.674965
54.190 11.048691
54.195 10.745113
54.200 10.263925
54.205 9.303521
54.210 9.268577
54.215 9.087358
54.220 8.834393
54.225 8.705827
54.230 8.686597
54.235 9.521365
54.240 9.958969
54.245 10.027143
54.250 10.055546
54.255 9.80829
54.260 9.729693
54.265 9.812449
54.270 9.637527
54.275 9.909607
54.280 10.252481
54.285 10.381694
54.290 10.562524
54.295 10.339855
54.300 9.892525
54.305 9.614066
54.310 9.367818
54.315 8.963895
54.320 8.324667
54.325 8.004982
54.330 7.890976
54.335 8.062769
54.340 8.212431
54.345 8.131462
54.350 8.600884
54.355 8.934774
54.360 9.340651
54.365 9.523918
54.370 9.548878
54.375 9.330196
54.380 8.896334
54.385 8.951546
54.390 9.009801
54.395 8.847528
54.400 8.983908
54.405 9.079541
54.410 9.267102
54.415 9.422408
54.420 9.234213
54.425 9.248466
54.430 9.307473
54.435 9.379968
54.440 9.831723
54.445 10.065347
54.450 10.329656
54.455 10.225708
54.460 10.278314
54.465 10.378736
54.470 10.463489
54.475 10.019733
54.480 10.069147
54.485 9.686591
54.490 9.685893
54.495 9.366141
54.500 8.959702
54.505 9.092008
54.510 9.226694
54.515 9.586868
54.520 9.74931
54.525 9.913142
54.530 10.281347
54.535 10.403475
54.540 10.549304
54.545 10.541367
54.550 10.417459
54.555 10.415797
54.560 10.37373
54.565 10.495107
54.570 10.245678
54.575 10.205559
54.580 10.031825
54.585 9.882337
54.590 10.004333
54.595 9.97532
54.600 10.238858
54.605 10.40406
54.610 10.059749
54.615 9.799405
54.620 9.919272
54.625 10.150874
54.630 9.822579
54.635 9.632046
54.640 9.592286
54.645 9.639024
54.650 9.916343
54.655 9.774474
54.660 9.590416
54.665 9.637531
54.670 9.391213
54.675 9.183619
54.680 9.336263
54.685 9.043811
54.690 8.755454
54.695 8.806654
54.700 8.863526
54.705 9.005796
54.710 9.358755
54.715 9.356513
54.720 9.38383
54.725 9.285675
54.730 9.657557
54.735 9.690979
54.740 9.786754
54.745 9.797859
54.750 9.785892
54.755 10.038611
54.760 9.879946
54.765 9.41478
54.770 9.891236
54.775 10.332556
54.780 10.686272
54.785 10.719531
54.790 10.750535
54.795 11.104791
54.800 11.314341
54.805 11.181723
54.810 10.568511
54.815 10.153767
54.820 9.917719
54.825 9.936686
54.830 9.546711
54.835 9.004198
54.840 8.541799
54.845 8.601365
54.850 8.741562
54.855 8.920954
54.860 8.910027
54.865 8.816702
54.870 9.255357
54.875 9.553669
54.880 9.776883
54.885 9.386104
54.890 9.217965
54.895 9.535411
54.900 9.699871
54.905 9.419532
54.910 9.428654
54.915 10.075828
54.920 10.314796
54.925 10.256935
54.930 9.937791
54.935 10.013556
54.940 10.178627
54.945 10.035966
54.950 9.618839
54.955 10.133598
54.960 10.312628
54.965 10.5231
54.970 10.806637
54.975 10.648868
54.980 10.27114
54.985 10.496793
54.990 10.405243
54.995 10.1689
55.000 10.141354
55.005 10.23046
55.010 10.538198
55.015 10.554909
55.020 10.438659
55.025 10.832129
55.030 11.214504
55.035 11.011018
55.040 10.937004
55.045 11.148768
55.050 11.301971
55.055 10.78697
55.060 10.671862
55.065 10.414458
55.070 10.25703
55.075 9.933146
55.080 9.643658
55.085 9.317561
55.090 9.703707
55.095 9.403025
55.100 9.617445
55.105 9.77133
55.110 9.834115
55.115 10.2925
55.120 10.287436
55.125 9.87663
55.130 9.973008
55.135 10.026277
55.140 10.236008
55.145 10.524034
55.150 10.229418
55.155 10.316038
55.160 10.800184
55.165 10.871196
55.170 10.558326
55.175 10.283834
55.180 9.902518
55.185 10.101898
55.190 10.551235
55.195 10.360713
55.200 10.517956
55.205 10.780156
55.210 10.655398
55.215 10.862178
55.220 11.197507
55.225 11.008013
55.230 11.093288
55.235 10.811259
55.240 10.767854
55.245 10.692211
55.250 10.738481
55.255 10.602822
55.260 10.650699
55.265 10.798259
55.270 10.848586
55.275 10.855832
55.280 11.424641
55.285 11.280599
55.290 11.1203
55.295 10.864085
55.300 11.027531
55.305 11.056231
55.310 11.258927
55.315 11.09726
55.320 11.03189
55.325 11.164726
55.330 10.874004
55.335 10.729141
55.340 11.087818
55.345 10.967022
55.350 10.737034
55.355 10.549367
55.360 10.597158
55.365 10.89851
55.370 10.649065
55.375 10.220206
55.380 9.910642
55.385 10.200741
55.390 10.256873
55.395 9.720448
55.400 9.246792
55.405 9.389786
55.410 9.644872
55.415 9.695153
55.420 9.151621
55.425 9.038214
55.430 9.342536
55.435 9.428452
55.440 9.114305
55.445 9.132549
55.450 9.630259
55.455 9.748139
55.460 10.248393
55.465 10.471547
55.470 10.674876
55.475 10.808876
55.480 10.835987
55.485 10.889461
55.490 11.488571
55.495 11.67256
55.500 11.933376
55.505 12.298745
55.510 12.179118
55.515 12.310597
55.520 12.285431
55.525 11.701332
55.530 11.40363
55.535 11.327896
55.540 10.892062
55.545 11.163621
55.550 11.223455
55.555 11.342053
55.560 11.344991
55.565 11.331347
55.570 10.825088
55.575 10.885114
55.580 10.811037
55.585 10.913153
55.590 10.767203
55.595 10.599989
55.600 10.593359
55.605 10.584166
55.610 10.768672
55.615 10.448794
55.620 10.29445
55.625 10.252997
55.630 10.12164
55.635 10.316043
55.640 10.768649
55.645 10.897773
55.650 10.651109
55.655 10.152719
55.660 9.799892
55.665 10.107963
55.670 10.060675
55.675 9.831606
55.680 9.828065
55.685 10.123734
55.690 10.48094
55.695 10.626987
55.700 10.510984
55.705 10.564994
55.710 10.469119
55.715 10.661061
55.720 10.436844
55.725 10.517163
55.730 10.746975
55.735 10.734899
55.740 10.835709
55.745 10.857825
55.750 10.552813
55.755 10.989927
55.760 11.203985
55.765 11.642443
55.770 11.957892
55.775 12.272989
55.780 12.961143
55.785 12.926974
55.790 12.828209
55.795 12.643927
55.800 12.174426
55.805 11.679231
55.810 11.187966
55.815 10.78687
55.820 10.727619
55.825 10.995871
55.830 10.954582
55.835 11.272951
55.840 11.259851
55.845 11.375444
55.850 11.895169
55.855 12.170591
55.860 11.915225
55.865 12.22632
55.870 12.14317
55.875 12.699416
55.880 12.47069
55.885 11.848145
55.890 11.409442
55.895 10.887361
55.900 10.368937
55.905 10.085088
55.910 9.340584
55.915 9.440737
55.920 9.958401
55.925 10.54052
55.930 11.126922
55.935 11.325613
55.940 11.731267
55.945 11.886832
55.950 11.839371
55.955 11.448756
55.960 11.304898
55.965 11.149315
55.970 10.933669
55.975 10.484778
55.980 10.788734
55.985 11.070861
55.990 11.241529
55.995 11.669818
56.000 12.095171
56.005 12.725045
56.010 12.812911
56.015 12.650635
56.020 12.28746
56.025 12.389656
56.030 11.943282
56.035 11.455089
56.040 11.395703
56.045 11.626808
56.050 11.699472
56.055 11.392594
56.060 11.127859
56.065 11.298321
56.070 10.992062
56.075 10.095887
56.080 9.640478
56.085 10.037068
56.090 10.387282
56.095 10.561659
56.100 10.65781
56.105 11.042822
56.110 11.848816
56.115 12.269518
56.120 12.445861
56.125 12.627664
56.130 12.342977
56.135 12.097655
56.140 11.864993
56.145 11.886539
56.150 11.348304
56.155 10.578557
56.160 10.56165
56.165 10.341825
56.170 10.317844
56.175 10.142751
56.180 9.493773
56.185 9.539351
56.190 9.919813
56.195 10.023313
56.200 10.377919
56.205 10.34331
56.210 11.204739
56.215 12.045979
56.220 12.113385
56.225 11.530735
56.230 11.750419
56.235 11.935508
56.240 12.286904
56.245 12.08838
56.250 11.815968
56.255 12.119381
56.260 12.570656
56.265 12.321643
56.270 12.059757
56.275 11.944366
56.280 11.755101
56.285 11.650011
56.290 11.772777
56.295 12.078204
56.300 12.428966
56.305 12.773814
56.310 12.778246
56.315 12.644894
56.320 12.594564
56.325 11.976924
56.330 11.625415
56.335 11.813156
56.340 11.696643
56.345 11.943996
56.350 12.459266
56.355 12.381679
56.360 12.764376
56.365 12.387844
56.370 11.946115
56.375 11.802217
56.380 11.140486
56.385 10.928665
56.390 11.439439
56.395 11.092211
56.400 11.069437
56.405 10.712447
56.410 10.377179
56.415 10.57102
56.420 10.433526
56.425 9.903993
56.430 10.213542
56.435 10.507053
56.440 10.294033
56.445 10.793107
56.450 10.915537
56.455 10.175674
56.460 10.008282
56.465 10.11584
56.470 10.051892
56.475 10.746805
56.480 10.823789
56.485 10.93917
56.490 12.031862
56.495 12.33463
56.500 12.662755
56.505 12.970251
56.510 12.551187
56.515 12.451264
56.520 12.508209
56.525 12.33563
56.530 12.521955
56.535 12.066976
56.540 12.085416
56.545 12.213214
56.550 12.433267
56.555 12.382439
56.560 12.089036
56.565 11.844451
56.570 12.075266
56.575 11.656693
56.580 11.28694
56.585 11.24549
56.590 11.519168
56.595 11.221371
56.600 11.012368
56.605 11.086166
56.610 11.701852
56.615 12.264031
56.620 11.95042
56.625 11.794656
56.630 12.34005
56.635 12.539576
56.640 12.116525
56.645 12.053001
56.650 11.859771
56.655 11.916469
56.660 11.956216
56.665 11.572704
56.670 11.569318
56.675 11.60577
56.680 11.416881
56.685 11.74527
56.690 11.659459
56.695 11.326854
56.700 11.169304
56.705 11.061405
56.710 11.030872
56.715 10.805813
56.720 10.443165
56.725 10.857888
56.730 11.642941
56.735 12.103854
56.740 12.295398
56.745 12.991515
56.750 13.093629
56.755 13.543162
56.760 13.337452
56.765 12.866462
56.770 12.771287
56.775 12.88805
56.780 13.258653
56.785 13.282778
56.790 13.211207
56.795 13.120543
56.800 13.279214
56.805 13.204418
56.810 12.830113
56.815 12.028661
56.820 12.146658
56.825 12.317084
56.830 12.776542
56.835 12.726285
56.840 12.874521
56.845 12.811989
56.850 12.57186
56.855 12.037933
56.860 11.414595
56.865 11.178167
56.870 11.37742
56.875 11.186427
56.880 11.514668
56.885 12.494273
56.890 12.878838
56.895 13.171249
56.900 12.83696
56.905 12.925616
56.910 13.343311
56.915 13.158744
56.920 12.692916
56.925 12.868978
56.930 12.815277
56.935 12.906251
56.940 12.475142
56.945 12.278647
56.950 12.454198
56.955 12.510675
56.960 12.182405
56.965 12.228338
56.970 12.375836
56.975 12.454609
56.980 12.158335
56.985 12.071802
56.990 12.356156
56.995 12.62886
57.000 12.306057
57.005 12.324389
57.010 12.816375
57.015 12.958575
57.020 13.016109
57.025 13.134055
57.030 13.205338
57.035 13.471519
57.040 13.659872
57.045 13.349216
57.050 13.390046
57.055 13.14819
57.060 13.323462
57.065 13.643659
57.070 13.622849
57.075 13.697453
57.080 14.119052
57.085 13.962874
57.090 13.773958
57.095 13.130276
57.100 12.229775
57.105 12.118436
57.110 11.175666
57.115 10.964863
57.120 11.358493
57.125 11.673161
57.130 12.00498
57.135 12.818696
57.140 13.040154
57.145 13.28198
57.150 13.092762
57.155 13.204819
57.160 13.224916
57.165 12.686241
57.170 11.929128
57.175 11.880197
57.180 11.851052
57.185 11.929524
57.190 11.590579
57.195 11.496048
57.200 11.602406
57.205 11.471347
57.210 12.26623
57.215 12.225306
57.220 12.01404
57.225 12.045441
57.230 12.206655
57.235 12.601413
57.240 12.731731
57.245 11.621737
57.250 11.319323
57.255 10.969069
57.260 10.661735
57.265 10.320002
57.270 10.179963
57.275 10.462641
57.280 11.201574
57.285 11.576467
57.290 12.124601
57.295 12.606127
57.300 12.762353
57.305 13.24523
57.310 13.073881
57.315 12.989128
57.320 13.343737
57.325 13.72065
57.330 13.806029
57.335 13.816051
57.340 14.180172
57.345 14.407229
57.350 14.741016
57.355 14.553932
57.360 14.257511
57.365 14.171959
57.370 14.439208
57.375 13.940769
57.380 14.175065
57.385 14.280228
57.390 14.164224
57.395 14.032556
57.400 14.111094
57.405 13.947254
57.410 13.972337
57.415 13.84993
57.420 14.088293
57.425 14.579602
57.430 14.622119
57.435 14.830621
57.440 14.693862
57.445 14.103121
57.450 13.6885
57.455 12.897098
57.460 12.305181
57.465 11.948215
57.470 11.918239
57.475 12.229824
57.480 12.624342
57.485 13.192348
57.490 13.29968
57.495 13.567211
57.500 13.731451
57.505 13.039577
57.510 12.542601
57.515 12.80752
57.520 12.191409
57.525 12.283903
57.530 12.222958
57.535 12.367217
57.540 13.019541
57.545 13.158134
57.550 12.599331
57.555 12.494832
57.560 12.657974
57.565 12.655042
57.570 12.783343
57.575 12.595232
57.580 12.596747
57.585 12.583854
57.590 12.334783
57.595 12.28615
57.600 12.488663
57.605 12.816799
57.610 13.060635
57.615 13.500813
57.620 14.077858
57.625 14.654829
57.630 14.434104
57.635 14.20116
57.640 13.786255
57.645 13.747848
57.650 13.643681
57.655 13.234657
57.660 12.916999
57.665 13.125763
57.670 12.693608
57.675 12.401418
57.680 12.200325
57.685 12.02805
57.690 12.219571
57.695 12.102695
57.700 12.275519
57.705 12.701349
57.710 13.264259
57.715 14.018614
57.720 13.882257
57.725 13.779701
57.730 13.898241
57.735 13.951015
57.740 13.706133
57.745 13.678276
57.750 13.266228
57.755 13.80345
57.760 14.004766
57.765 14.242635
57.770 14.253925
57.775 14.658154
57.780 14.444626
57.785 14.326408
57.790 13.900385
57.795 13.815228
57.800 13.814158
57.805 14.230234
57.810 14.15216
57.815 13.989164
57.820 13.665697
57.825 13.625584
57.830 13.385722
57.835 12.806758
57.840 12.522079
57.845 12.672864
57.850 12.560094
57.855 13.15284
57.860 13.643432
57.865 14.041194
57.870 13.980318
57.875 13.948201
57.880 13.818505
57.885 14.209429
57.890 14.06273
57.895 13.578341
57.900 13.4869
57.905 13.382385
57.910 12.846907
57.915 12.744611
57.920 12.85761
57.925 12.740882
57.930 12.765553
57.935 12.876417
57.940 12.946568
57.945 13.038667
57.950 13.171052
57.955 12.677917
57.960 12.450984
57.965 12.241761
57.970 12.482419
57.975 12.663611
57.980 13.189644
57.985 13.633679
57.990 14.150962
57.995 14.033589
58.000 14.215211
58.005 13.953097
58.010 13.723454
58.015 13.219565
58.020 12.762287
58.025 12.958302
58.030 13.476766
58.035 12.944549
58.040 13.323623
58.045 13.362449
58.050 13.622244
58.055 13.044351
58.060 12.677849
58.065 12.616384
58.070 12.529184
58.075 12.624882
58.080 13.10954
58.085 13.322975
58.090 13.44137
58.095 13.108726
58.100 13.734785
58.105 14.065947
58.110 14.204047
58.115 13.900609
58.120 13.902675
58.125 14.518574
58.130 14.983274
58.135 14.7117
58.140 14.489686
58.145 14.284236
58.150 14.417761
58.155 14.410617
58.160 14.22312
58.165 14.45055
58.170 14.922605
58.175 15.412938
58.180 14.87039
58.185 14.452211
58.190 14.430534
58.195 14.413692
58.200 13.703923
58.205 13.279658
58.210 12.808297
58.215 13.175402
58.220 12.821744
58.225 13.223212
58.230 13.476235
58.235 13.356392
58.240 13.21638
58.245 12.916301
58.250 12.68311
58.255 13.677693
58.260 13.847936
58.265 14.123998
58.270 14.502453
58.275 15.075003
58.280 15.023365
58.285 14.930778
58.290 13.985365
58.295 13.305349
58.300 13.278401
58.305 13.231647
58.310 12.868713
58.315 13.194473
58.320 13.412708
58.325 13.639792
58.330 13.35335
58.335 12.433187
58.340 12.337042
58.345 13.03861
58.350 13.036703
58.355 12.878454
58.360 12.744196
58.365 13.121338
58.370 13.615291
58.375 13.515097
58.380 12.891372
58.385 13.160884
58.390 13.480056
58.395 13.585889
58.400 13.569438
58.405 14.180557
58.410 14.41506
58.415 14.490629
58.420 14.161285
58.425 14.038224
58.430 14.064161
58.435 13.850096
58.440 13.219138
58.445 12.884085
58.450 12.784203
58.455 13.3496
58.460 13.811215
58.465 14.031679
58.470 13.999161
58.475 14.306499
58.480 14.63889
58.485 14.778616
58.490 14.496524
58.495 15.032489
58.500 14.840013
58.505 15.096288
58.510 15.358557
58.515 15.532465
58.520 16.227377
58.525 15.915928
58.530 15.055779
58.535 15.126435
58.540 15.108882
58.545 14.916749
