!@!!GADDS PLOTSO FILE: Chi integration type
!@!!Title/SampleName: map-16d
!@!!Comment: ?
!@!!User: Bruker Instrument Administrator
!@!!Site: University of Illinois Chicago
!@!!Frame: map-16d_01_000.gfrm
!@!!Wavelengths    1.54184   1.54056   1.54439
!@!!Frame angles: 2Theta: 63.000 Omega: 50.000 Phi: 0.000 Chi: 90.000
!@!!Integration range: 2Theta: 53.000 to 73.000  Gamma: -105.000 to -75.000
!@!!Integration method: bin normalized
!@!N
!@!SS
!@!M
!@!L 0.0 0.0 0.0 0.0
!@!XDegrees
!@!YCounts
53.000 3.526945
53.005 3.559766
53.010 3.498989
53.015 3.101094
53.020 3.176846
53.025 3.340053
53.030 3.660371
53.035 4.038545
53.040 4.136798
53.045 4.173411
53.050 4.085501
53.055 4.070831
53.060 4.050601
53.065 3.763604
53.070 3.299148
53.075 3.560292
53.080 4.057855
53.085 4.390633
53.090 4.386495
53.095 4.265784
53.100 4.196368
53.105 4.088713
53.110 3.694134
53.115 3.428163
53.120 3.09361
53.125 3.045527
53.130 3.247469
53.135 3.546964
53.140 3.718585
53.145 3.458526
53.150 3.240223
53.155 3.29634
53.160 3.64389
53.165 3.86081
53.170 4.051939
53.175 4.259189
53.180 4.481195
53.185 4.583671
53.190 4.566703
53.195 4.279699
53.200 4.069118
53.205 3.805065
53.210 3.641672
53.215 3.813892
53.220 3.939844
53.225 4.058634
53.230 4.312571
53.235 4.166364
53.240 4.047689
53.245 4.078772
53.250 3.909471
53.255 3.830247
53.260 3.649841
53.265 3.430663
53.270 3.58476
53.275 3.771485
53.280 3.761466
53.285 4.08458
53.290 3.971895
53.295 3.952123
53.300 4.049584
53.305 3.834558
53.310 3.558367
53.315 3.512609
53.320 3.293491
53.325 3.367487
53.330 3.210796
53.335 3.058817
53.340 3.365754
53.345 3.616924
53.350 3.482044
53.355 3.754313
53.360 3.610957
53.365 3.748748
53.370 3.898511
53.375 3.962048
53.380 4.024604
53.385 4.038225
53.390 3.881586
53.395 4.113418
53.400 3.844609
53.405 3.519603
53.410 3.241421
53.415 3.253402
53.420 3.571718
53.425 3.624837
53.430 3.840466
53.435 3.900163
53.440 4.05983
53.445 3.986521
53.450 3.860541
53.455 3.632393
53.460 3.67285
53.465 3.564584
53.470 3.904875
53.475 3.886989
53.480 3.998193
53.485 4.32555
53.490 4.398205
53.495 4.385524
53.500 4.256201
53.505 4.182706
53.510 4.267944
53.515 4.282008
53.520 3.824026
53.525 4.035148
53.530 4.305346
53.535 4.145435
53.540 4.1215
53.545 4.10699
53.550 3.991954
53.555 3.996332
53.560 3.700857
53.565 3.413281
53.570 3.370041
53.575 3.009899
53.580 2.812387
53.585 2.706628
53.590 2.902463
53.595 3.032213
53.600 3.314188
53.605 3.647082
53.610 3.806764
53.615 3.997004
53.620 4.211786
53.625 4.026614
53.630 4.007673
53.635 3.948988
53.640 3.855857
53.645 4.000304
53.650 4.050856
53.655 3.748974
53.660 3.667149
53.665 3.463943
53.670 3.43628
53.675 3.297162
53.680 3.046018
53.685 2.895524
53.690 2.980077
53.695 3.235332
53.700 3.477428
53.705 3.451561
53.710 3.551877
53.715 3.618301
53.720 3.57958
53.725 3.476292
53.730 3.06525
53.735 3.016339
53.740 3.01355
53.745 3.041174
53.750 3.069939
53.755 3.462676
53.760 3.692389
53.765 4.051222
53.770 4.205799
53.775 4.323933
53.780 4.541959
53.785 4.784734
53.790 5.153019
53.795 5.358102
53.800 5.074378
53.805 4.807492
53.810 4.92871
53.815 4.767806
53.820 4.452364
53.825 3.707766
53.830 3.455315
53.835 3.325325
53.840 3.262726
53.845 2.943186
53.850 2.861319
53.855 2.648341
53.860 2.626144
53.865 2.683583
53.870 2.699658
53.875 2.634111
53.880 2.874138
53.885 2.969511
53.890 3.111686
53.895 3.419706
53.900 3.589349
53.905 3.859573
53.910 3.95854
53.915 3.80372
53.920 4.055244
53.925 3.887887
53.930 3.68912
53.935 3.568475
53.940 3.571103
53.945 3.410552
53.950 3.393548
53.955 3.149272
53.960 3.310618
53.965 3.410998
53.970 3.283475
53.975 3.382613
53.980 3.465522
53.985 3.416008
53.990 3.53512
53.995 3.597926
54.000 3.598098
54.005 3.588288
54.010 3.747005
54.015 3.924284
54.020 4.016792
54.025 4.138782
54.030 4.300632
54.035 4.420125
54.040 4.673048
54.045 4.300333
54.050 4.089408
54.055 4.04554
54.060 3.553136
54.065 3.267874
54.070 3.038219
54.075 2.837924
54.080 3.025639
54.085 3.067967
54.090 3.014396
54.095 3.142642
54.100 3.291456
54.105 3.44244
54.110 3.488442
54.115 3.597037
54.120 3.533747
54.125 3.570476
54.130 3.541637
54.135 3.499865
54.140 3.450864
54.145 3.422198
54.150 3.442048
54.155 3.568167
54.160 3.608648
54.165 3.604744
54.170 3.913467
54.175 4.338764
54.180 4.256454
54.185 4.337451
54.190 4.406641
54.195 4.580033
54.200 4.690396
54.205 4.450352
54.210 4.551046
54.215 5.025723
54.220 5.228268
54.225 5.281562
54.230 5.274765
54.235 5.234246
54.240 4.937726
54.245 4.539187
54.250 4.3723
54.255 3.983794
54.260 3.899943
54.265 3.570412
54.270 3.556835
54.275 3.753794
54.280 3.539558
54.285 3.777339
54.290 3.881121
54.295 4.006936
54.300 4.216832
54.305 4.258926
54.310 4.359188
54.315 4.277531
54.320 4.089942
54.325 3.976672
54.330 3.73498
54.335 3.726444
54.340 3.508251
54.345 3.496577
54.350 3.500686
54.355 3.439775
54.360 3.354693
54.365 3.260164
54.370 3.451701
54.375 3.314159
54.380 3.249406
54.385 3.145928
54.390 3.03516
54.395 3.258105
54.400 3.125733
54.405 2.915624
54.410 2.948241
54.415 2.771512
54.420 2.612804
54.425 2.718548
54.430 2.764169
54.435 3.033559
54.440 3.217798
54.445 3.274479
54.450 3.476384
54.455 3.810847
54.460 3.790444
54.465 3.698604
54.470 3.713313
54.475 3.585067
54.480 3.602876
54.485 3.51587
54.490 3.36726
54.495 3.265363
54.500 3.161684
54.505 3.168225
54.510 3.440536
54.515 3.840814
54.520 4.05878
54.525 4.033309
54.530 4.251637
54.535 4.288805
54.540 4.061776
54.545 3.723588
54.550 3.531346
54.555 3.430308
54.560 3.46946
54.565 3.317862
54.570 3.305721
54.575 3.46885
54.580 3.522645
54.585 3.619449
54.590 3.826224
54.595 4.080432
54.600 4.160664
54.605 4.443603
54.610 4.548545
54.615 4.501558
54.620 4.337971
54.625 4.033035
54.630 3.830098
54.635 3.756874
54.640 3.604893
54.645 3.738518
54.650 3.593644
54.655 3.844725
54.660 4.113301
54.665 4.214869
54.670 4.419019
54.675 4.486799
54.680 4.477171
54.685 4.564752
54.690 4.27205
54.695 4.328417
54.700 4.242021
54.705 4.201583
54.710 3.856458
54.715 4.145871
54.720 4.714234
54.725 4.768315
54.730 4.620897
54.735 4.594791
54.740 4.500175
54.745 4.264517
54.750 3.995096
54.755 3.595553
54.760 3.426777
54.765 3.431625
54.770 3.45761
54.775 3.425683
54.780 3.786774
54.785 3.715156
54.790 3.684517
54.795 3.68883
54.800 3.858741
54.805 4.089546
54.810 4.339047
54.815 4.018826
54.820 3.979951
54.825 3.97457
54.830 4.072402
54.835 4.073414
54.840 4.044297
54.845 4.234997
54.850 4.407326
54.855 4.456448
54.860 4.463108
54.865 4.260772
54.870 3.996616
54.875 3.870398
54.880 3.969119
54.885 3.72662
54.890 3.627231
54.895 3.722118
54.900 3.826454
54.905 3.940962
54.910 3.776605
54.915 3.544174
54.920 3.52696
54.925 3.86573
54.930 3.8434
54.935 3.637278
54.940 3.465071
54.945 3.441018
54.950 3.906906
54.955 3.988836
54.960 3.74038
54.965 3.788171
54.970 3.985806
54.975 4.143384
54.980 4.167396
54.985 3.882896
54.990 3.816481
54.995 4.021034
55.000 4.011941
55.005 3.828258
55.010 3.778216
55.015 3.542169
55.020 3.627421
55.025 3.585135
55.030 3.335624
55.035 3.226068
55.040 3.145798
55.045 3.210618
55.050 3.465494
55.055 3.623672
55.060 3.682373
55.065 3.678711
55.070 4.047169
55.075 4.286789
55.080 4.026554
55.085 3.756734
55.090 3.72604
55.095 3.710696
55.100 3.636606
55.105 3.458756
55.110 3.317351
55.115 3.525375
55.120 3.427688
55.125 3.210185
55.130 3.198018
55.135 3.412339
55.140 3.415972
55.145 3.622261
55.150 3.885636
55.155 3.994959
55.160 4.23968
55.165 4.223089
55.170 4.043646
55.175 4.189556
55.180 3.98199
55.185 3.55132
55.190 3.250556
55.195 2.892418
55.200 3.023283
55.205 2.835624
55.210 2.749275
55.215 2.785039
55.220 3.216815
55.225 3.684286
55.230 3.897645
55.235 3.908295
55.240 4.061942
55.245 3.990196
55.250 3.947119
55.255 3.760753
55.260 3.715196
55.265 3.687729
55.270 3.59021
55.275 3.587532
55.280 3.750284
55.285 3.816875
55.290 3.904148
55.295 3.966305
55.300 4.110443
55.305 4.213271
55.310 4.041597
55.315 4.08067
55.320 4.008564
55.325 3.789835
55.330 3.58827
55.335 3.726979
55.340 3.991224
55.345 4.299576
55.350 4.280894
55.355 4.401551
55.360 4.555246
55.365 4.503552
55.370 4.22181
55.375 4.107546
55.380 4.104444
55.385 4.050198
55.390 4.118357
55.395 4.078857
55.400 4.117145
55.405 4.063724
55.410 4.060715
55.415 3.932937
55.420 4.203587
55.425 4.383661
55.430 4.411357
55.435 4.555763
55.440 4.746063
55.445 4.86162
55.450 4.86679
55.455 4.413359
55.460 4.032959
55.465 3.71119
55.470 3.374506
55.475 2.963759
55.480 2.885892
55.485 2.866245
55.490 3.189007
55.495 3.307039
55.500 3.483206
55.505 3.67905
55.510 3.969503
55.515 3.611861
55.520 3.565068
55.525 3.663631
55.530 4.177897
55.535 4.427757
55.540 4.333443
55.545 4.322001
55.550 4.507759
55.555 4.689237
55.560 4.39282
55.565 4.070545
55.570 3.993346
55.575 3.975934
55.580 4.07611
55.585 4.06999
55.590 3.778669
55.595 3.979135
55.600 3.697077
55.605 3.785761
55.610 3.738769
55.615 3.859619
55.620 3.941717
55.625 4.062814
55.630 3.981466
55.635 3.898828
55.640 3.742336
55.645 3.784889
55.650 3.659284
55.655 3.82849
55.660 3.561642
55.665 3.613745
55.670 3.837576
55.675 3.90217
55.680 3.767809
55.685 3.72355
55.690 3.938981
55.695 4.038724
55.700 4.020693
55.705 3.924397
55.710 3.870559
55.715 3.837925
55.720 3.703758
55.725 3.489229
55.730 3.638736
55.735 3.839765
55.740 3.944646
55.745 4.25065
55.750 4.603786
55.755 4.524666
55.760 4.431759
55.765 4.113884
55.770 3.749267
55.775 3.805992
55.780 3.604304
55.785 3.118655
55.790 3.207016
55.795 3.173465
55.800 3.367317
55.805 3.782914
55.810 4.016606
55.815 4.195165
55.820 4.511092
55.825 4.486791
55.830 4.483237
55.835 4.822728
55.840 4.585335
55.845 4.599994
55.850 4.703718
55.855 4.945506
55.860 4.928521
55.865 5.129498
55.870 5.087311
55.875 5.024426
55.880 4.637156
55.885 4.430457
55.890 4.126053
55.895 4.321983
55.900 4.1104
55.905 3.473459
55.910 3.365681
55.915 3.497772
55.920 3.329229
55.925 3.114327
55.930 3.071305
55.935 3.160143
55.940 3.558214
55.945 3.703842
55.950 3.687469
55.955 4.031983
55.960 4.22725
55.965 4.424677
55.970 4.51741
55.975 4.107787
55.980 3.930347
55.985 4.226161
55.990 3.960577
55.995 3.740901
56.000 3.470248
56.005 3.354108
56.010 3.712724
56.015 3.954284
56.020 3.88321
56.025 4.167567
56.030 4.214528
56.035 3.968753
56.040 3.846906
56.045 3.657904
56.050 3.252844
56.055 3.122597
56.060 3.036282
56.065 3.082234
56.070 3.309959
56.075 3.792453
56.080 4.508412
56.085 4.657037
56.090 4.590005
56.095 4.74327
56.100 4.634633
56.105 4.441397
56.110 3.900151
56.115 3.289418
56.120 3.229336
56.125 3.099548
56.130 3.12729
56.135 3.689672
56.140 3.770881
56.145 4.080396
56.150 4.390289
56.155 4.527767
56.160 4.687903
56.165 4.422014
56.170 4.124041
56.175 4.225293
56.180 4.10473
56.185 4.055179
56.190 4.32838
56.195 4.248481
56.200 4.544359
56.205 4.831694
56.210 4.910548
56.215 4.939633
56.220 4.789107
56.225 4.537333
56.230 4.732128
56.235 4.689668
56.240 4.529396
56.245 4.920101
56.250 5.208958
56.255 5.263028
56.260 5.312413
56.265 4.970095
56.270 4.790734
56.275 4.524301
56.280 3.912762
56.285 3.719433
56.290 3.8098
56.295 3.700189
56.300 3.773787
56.305 3.927508
56.310 4.335313
56.315 4.272086
56.320 4.08581
56.325 3.787458
56.330 3.878501
56.335 3.851538
56.340 3.652609
56.345 3.247788
56.350 3.165553
56.355 3.017925
56.360 3.163413
56.365 3.004449
56.370 2.807753
56.375 2.842942
56.380 3.168887
56.385 3.594289
56.390 3.708807
56.395 3.744709
56.400 3.909731
56.405 4.099531
56.410 4.036897
56.415 4.006124
56.420 3.866677
56.425 4.190349
56.430 4.264316
56.435 4.380387
56.440 4.402586
56.445 4.314009
56.450 4.232015
56.455 4.151317
56.460 3.687104
56.465 3.455425
56.470 3.361876
56.475 3.688377
56.480 3.706848
56.485 3.544829
56.490 3.747086
56.495 3.828202
56.500 3.842437
56.505 3.950746
56.510 3.723796
56.515 3.862431
56.520 4.088751
56.525 3.876173
56.530 4.142424
56.535 4.589344
56.540 4.170138
56.545 4.056475
56.550 3.955482
56.555 3.902928
56.560 4.279531
56.565 3.927716
56.570 3.819588
56.575 3.96072
56.580 3.949518
56.585 4.052088
56.590 3.98345
56.595 4.028372
56.600 3.916593
56.605 3.743648
56.610 3.797544
56.615 3.740846
56.620 3.676364
56.625 3.492308
56.630 3.34439
56.635 3.408273
56.640 3.37324
56.645 3.156405
56.650 3.128458
56.655 3.230209
56.660 3.264536
56.665 3.491971
56.670 3.484649
56.675 3.635268
56.680 3.982221
56.685 4.117521
56.690 4.090214
56.695 4.32731
56.700 4.274903
56.705 4.388005
56.710 4.39095
56.715 4.39631
56.720 4.581698
56.725 4.50872
56.730 4.252537
56.735 4.487738
56.740 4.588953
56.745 4.750249
56.750 4.57023
56.755 4.292854
56.760 4.336602
56.765 4.523167
56.770 4.473728
56.775 4.331904
56.780 4.156709
56.785 4.252959
56.790 4.570417
56.795 4.582192
56.800 4.33287
56.805 4.333921
56.810 4.456306
56.815 4.479872
56.820 4.592042
56.825 4.484469
56.830 4.518006
56.835 4.601315
56.840 4.523569
56.845 4.5249
56.850 4.565404
56.855 4.514502
56.860 4.536866
56.865 4.51989
56.870 4.492143
56.875 4.547945
56.880 4.63826
56.885 4.506636
56.890 4.435767
56.895 4.273939
56.900 4.253222
56.905 4.32254
56.910 4.286333
56.915 4.295625
56.920 4.346315
56.925 4.35053
56.930 4.36265
56.935 4.191446
56.940 3.990715
56.945 4.064625
56.950 3.994866
56.955 4.271469
56.960 4.548961
56.965 4.748626
56.970 4.886053
56.975 4.76043
56.980 4.578452
56.985 4.62178
56.990 4.434157
56.995 4.188148
57.000 4.193549
57.005 4.220485
57.010 4.144473
57.015 4.159092
57.020 4.055159
57.025 4.214794
57.030 4.409466
57.035 4.116172
57.040 4.162209
57.045 4.575102
57.050 4.620958
57.055 4.63345
57.060 4.227664
57.065 4.181026
57.070 4.438085
57.075 4.263495
57.080 4.073867
57.085 4.002382
57.090 3.898184
57.095 3.967822
57.100 3.936698
57.105 3.789156
57.110 3.744354
57.115 3.833657
57.120 3.80099
57.125 3.684721
57.130 3.78113
57.135 3.723891
57.140 3.524921
57.145 3.673979
57.150 3.838377
57.155 3.987648
57.160 4.124185
57.165 4.05774
57.170 4.17004
57.175 4.321421
57.180 4.333598
57.185 4.191596
57.190 4.155039
57.195 3.944308
57.200 3.960086
57.205 4.202348
57.210 4.225389
57.215 3.933125
57.220 3.859003
57.225 4.095099
57.230 4.187681
57.235 4.135709
57.240 3.95074
57.245 3.929727
57.250 4.13803
57.255 4.220109
57.260 4.287995
57.265 4.420953
57.270 4.225679
57.275 4.224732
57.280 4.14851
57.285 4.059946
57.290 3.569542
57.295 3.414008
57.300 3.609676
57.305 3.937842
57.310 4.084188
57.315 4.460202
57.320 4.40134
57.325 4.833548
57.330 4.727602
57.335 4.548148
57.340 4.373792
57.345 4.541467
57.350 4.758135
57.355 4.759011
57.360 4.773227
57.365 4.77562
57.370 4.886746
57.375 4.850045
57.380 5.012012
57.385 5.22576
57.390 5.474306
57.395 5.357467
57.400 5.370625
57.405 5.483562
57.410 5.574578
57.415 4.787136
57.420 4.265706
57.425 4.249036
57.430 4.337593
57.435 4.471087
57.440 4.208403
57.445 3.98745
57.450 4.348207
57.455 4.711678
57.460 4.856571
57.465 5.130031
57.470 5.275695
57.475 5.552171
57.480 5.985721
57.485 5.931814
57.490 5.57306
57.495 5.519561
57.500 5.472969
57.505 5.255538
57.510 4.973967
57.515 4.783786
57.520 4.637906
57.525 4.409563
57.530 4.159591
57.535 3.855656
57.540 3.850853
57.545 3.978554
57.550 3.842245
57.555 4.209089
57.560 4.511352
57.565 4.485614
57.570 4.676738
57.575 4.812884
57.580 4.738024
57.585 4.358894
57.590 4.021878
57.595 4.077493
57.600 3.790438
57.605 3.487915
57.610 3.368437
57.615 3.564198
57.620 3.802641
57.625 3.90142
57.630 4.107914
57.635 4.398372
57.640 4.605049
57.645 4.488982
57.650 4.59021
57.655 4.607041
57.660 4.540434
57.665 4.534808
57.670 4.559506
57.675 4.479931
57.680 4.431834
57.685 4.441822
57.690 4.707177
57.695 4.362214
57.700 4.068824
57.705 4.298028
57.710 4.418243
57.715 4.517013
57.720 4.524991
57.725 4.440355
57.730 4.686173
57.735 4.661042
57.740 4.44647
57.745 4.254565
57.750 4.030797
57.755 3.904772
57.760 3.984321
57.765 4.072824
57.770 3.955577
57.775 3.751826
57.780 3.834504
57.785 3.80883
57.790 3.694759
57.795 3.665432
57.800 3.820264
57.805 3.974935
57.810 4.352767
57.815 4.362442
57.820 4.618351
57.825 4.570109
57.830 4.572795
57.835 4.530193
57.840 4.731513
57.845 4.612051
57.850 4.873263
57.855 4.85267
57.860 5.031626
57.865 5.241914
57.870 4.961984
57.875 4.823617
57.880 4.810371
57.885 4.573851
57.890 4.438849
57.895 4.313126
57.900 4.380562
57.905 4.622218
57.910 4.522772
57.915 4.528939
57.920 4.639759
57.925 4.600656
57.930 4.646111
57.935 4.391166
57.940 4.031665
57.945 3.789446
57.950 3.601474
57.955 3.725309
57.960 3.777127
57.965 3.834181
57.970 4.20499
57.975 4.542899
57.980 4.776396
57.985 4.775104
57.990 5.11726
57.995 5.090565
58.000 4.900901
58.005 4.475
58.010 4.745139
58.015 4.783354
58.020 4.9758
58.025 4.848036
58.030 4.835632
58.035 4.873791
58.040 5.148466
58.045 4.7618
58.050 4.784316
58.055 4.439177
58.060 4.178638
58.065 4.114066
58.070 4.037798
58.075 3.794254
58.080 3.986284
58.085 3.807065
58.090 4.094026
58.095 4.584204
58.100 4.951351
58.105 5.121232
58.110 5.131919
58.115 4.927747
58.120 4.880498
58.125 4.419739
58.130 3.885944
58.135 3.590558
58.140 3.541826
58.145 3.876184
58.150 4.17315
58.155 4.291685
58.160 4.497441
58.165 4.642146
58.170 4.629333
58.175 4.374113
58.180 4.061884
58.185 3.837546
58.190 3.785502
58.195 3.75227
58.200 3.918575
58.205 3.776213
58.210 3.888787
58.215 3.80874
58.220 4.01433
58.225 4.329415
58.230 4.163703
58.235 4.03717
58.240 4.443548
58.245 4.68098
58.250 4.785209
58.255 4.57811
58.260 4.507697
58.265 4.620154
58.270 4.544867
58.275 4.26798
58.280 3.847668
58.285 3.744866
58.290 3.719965
58.295 3.554285
58.300 3.381423
58.305 3.495348
58.310 3.959895
58.315 4.336949
58.320 4.431715
58.325 4.3952
58.330 4.312715
58.335 4.511914
58.340 4.186065
58.345 3.532924
58.350 3.55659
58.355 3.632902
58.360 3.79609
58.365 4.154035
58.370 4.300611
58.375 4.570873
58.380 4.669254
58.385 4.662892
58.390 4.670152
58.395 4.667791
58.400 4.631025
58.405 4.519972
58.410 4.600818
58.415 4.617007
58.420 4.546846
58.425 4.430454
58.430 4.262072
58.435 4.199337
58.440 4.214859
58.445 4.169115
58.450 4.255223
58.455 4.256221
58.460 4.517948
58.465 4.753756
58.470 4.973469
58.475 4.921392
58.480 4.957428
58.485 4.988679
58.490 5.127278
58.495 5.08694
58.500 5.169374
58.505 4.926311
58.510 5.115362
58.515 5.060404
58.520 4.917131
58.525 4.717284
58.530 4.467517
58.535 4.360097
58.540 4.457379
58.545 4.455763
58.550 4.558642
58.555 4.81476
58.560 4.987671
58.565 5.07395
58.570 4.985812
58.575 5.011506
58.580 5.370731
58.585 5.517036
58.590 5.348967
58.595 5.28761
58.600 5.162249
58.605 5.272682
58.610 4.998013
58.615 4.579764
58.620 4.282183
58.625 4.36507
58.630 4.253625
58.635 4.633662
58.640 4.629882
58.645 4.555114
58.650 4.622471
58.655 4.59456
58.660 4.642465
58.665 4.820335
58.670 4.43187
58.675 4.423937
58.680 4.693018
58.685 4.667754
58.690 5.090418
58.695 4.954962
58.700 4.941719
58.705 5.071458
58.710 5.051347
58.715 5.167727
58.720 5.213212
58.725 4.762106
58.730 4.562102
58.735 4.611627
58.740 4.433872
58.745 4.109666
58.750 3.942283
58.755 3.95714
58.760 4.016385
58.765 3.820338
