!@!!GADDS PLOTSO FILE: Chi integration type
!@!!Title/SampleName: map-115
!@!!Comment: ?
!@!!User: Bruker Instrument Administrator
!@!!Site: University of Illinois Chicago
!@!!Frame: map-115_01_000.gfrm
!@!!Wavelengths    1.54184   1.54056   1.54439
!@!!Frame angles: 2Theta: 63.000 Omega: 50.000 Phi: 0.000 Chi: 90.000
!@!!Integration range: 2Theta: 53.000 to 73.000  Gamma: -105.000 to -75.000
!@!!Integration method: bin normalized
!@!N
!@!SS
!@!M
!@!L 0.0 0.0 0.0 0.0
!@!XDegrees
!@!YCounts
53.000 7.300706
53.005 7.194816
53.010 7.092974
53.015 6.902274
53.020 6.988551
53.025 6.72234
53.030 6.396969
53.035 6.565564
53.040 6.927737
53.045 7.452779
53.050 7.792179
53.055 7.775226
53.060 7.561332
53.065 8.174675
53.070 8.330729
53.075 8.041216
53.080 7.792172
53.085 7.651669
53.090 7.695651
53.095 7.887956
53.100 7.344029
53.105 7.403938
53.110 7.666677
53.115 7.456005
53.120 7.614136
53.125 7.914247
53.130 7.996881
53.135 8.211783
53.140 7.94537
53.145 7.886971
53.150 8.000278
53.155 7.956879
53.160 7.797349
53.165 8.045077
53.170 7.835334
53.175 8.017604
53.180 8.136929
53.185 8.137237
53.190 7.955945
53.195 7.723355
53.200 7.24508
53.205 7.013499
53.210 6.753119
53.215 6.867686
53.220 6.967017
53.225 7.485654
53.230 7.866131
53.235 8.016538
53.240 8.118701
53.245 8.559319
53.250 8.870805
53.255 9.018268
53.260 8.51943
53.265 7.938455
53.270 7.843239
53.275 7.961259
53.280 7.830577
53.285 7.182385
53.290 7.048653
53.295 7.363425
53.300 7.495862
53.305 7.581415
53.310 7.076066
53.315 6.803159
53.320 6.920709
53.325 6.279415
53.330 6.090782
53.335 6.131709
53.340 6.332432
53.345 6.925245
53.350 7.132381
53.355 7.014425
53.360 7.47916
53.365 7.598481
53.370 8.085744
53.375 8.367899
53.380 8.270973
53.385 8.048356
53.390 8.329475
53.395 8.817904
53.400 8.871799
53.405 8.528334
53.410 8.448871
53.415 8.425228
53.420 8.684941
53.425 8.518437
53.430 7.870392
53.435 7.959554
53.440 7.561186
53.445 7.628796
53.450 7.515318
53.455 7.746407
53.460 7.665137
53.465 7.862814
53.470 7.825377
53.475 7.672112
53.480 7.430419
53.485 7.883941
53.490 7.786604
53.495 7.585578
53.500 7.654448
53.505 8.113008
53.510 8.413419
53.515 8.317759
53.520 7.928977
53.525 8.051577
53.530 8.625585
53.535 8.398317
53.540 8.54831
53.545 8.57813
53.550 8.56459
53.555 8.426355
53.560 8.538141
53.565 8.448718
53.570 8.220605
53.575 7.540172
53.580 7.174572
53.585 7.204595
53.590 7.706097
53.595 7.497549
53.600 7.258473
53.605 7.505506
53.610 8.070408
53.615 8.470784
53.620 8.64301
53.625 8.515613
53.630 8.412014
53.635 8.755884
53.640 8.489491
53.645 8.288932
53.650 7.804734
53.655 7.404968
53.660 7.122004
53.665 7.142385
53.670 6.78072
53.675 6.710114
53.680 6.914826
53.685 7.491912
53.690 7.613758
53.695 7.600132
53.700 7.641269
53.705 7.89722
53.710 7.777008
53.715 7.592949
53.720 7.218728
53.725 7.073194
53.730 7.007106
53.735 7.025589
53.740 7.336325
53.745 7.512826
53.750 7.37747
53.755 7.472482
53.760 7.522876
53.765 7.780232
53.770 7.652853
53.775 7.471832
53.780 7.55118
53.785 7.862324
53.790 7.715935
53.795 7.895951
53.800 7.920486
53.805 7.806915
53.810 7.989892
53.815 7.761189
53.820 7.558648
53.825 7.48249
53.830 7.148398
53.835 6.727751
53.840 6.603381
53.845 6.636984
53.850 6.854603
53.855 7.010238
53.860 7.294299
53.865 7.535237
53.870 8.06732
53.875 7.915387
53.880 7.857957
53.885 7.803203
53.890 7.60514
53.895 7.392967
53.900 7.412038
53.905 7.738078
53.910 7.974755
53.915 8.11956
53.920 7.986597
53.925 8.254806
53.930 8.609536
53.935 8.346591
53.940 7.803731
53.945 7.739203
53.950 7.625637
53.955 7.951324
53.960 7.75355
53.965 7.980582
53.970 8.411756
53.975 8.339343
53.980 8.53752
53.985 8.705613
53.990 8.471362
53.995 8.402169
54.000 7.954082
54.005 7.927489
54.010 7.815242
54.015 7.148664
54.020 7.083447
54.025 7.275366
54.030 7.385606
54.035 7.718074
54.040 7.871762
54.045 8.254457
54.050 8.877901
54.055 9.392492
54.060 9.322953
54.065 9.184602
54.070 8.780017
54.075 9.0253
54.080 8.835687
54.085 8.195931
54.090 7.531356
54.095 7.305599
54.100 7.101683
54.105 7.086843
54.110 6.8841
54.115 7.105408
54.120 7.460093
54.125 7.266649
54.130 7.547393
54.135 7.552952
54.140 7.089218
54.145 7.077829
54.150 6.763837
54.155 6.457177
54.160 6.640898
54.165 6.820558
54.170 7.139786
54.175 7.6053
54.180 8.076469
54.185 8.335057
54.190 8.482543
54.195 8.606725
54.200 9.113418
54.205 8.934985
54.210 8.577128
54.215 8.202674
54.220 8.275738
54.225 8.509765
54.230 8.301856
54.235 8.181705
54.240 8.21126
54.245 8.065764
54.250 7.865503
54.255 7.566319
54.260 7.999325
54.265 7.697186
54.270 7.567612
54.275 7.314251
54.280 7.536281
54.285 7.793018
54.290 7.993977
54.295 7.71989
54.300 7.762456
54.305 7.846718
54.310 8.051729
54.315 8.322941
54.320 8.437438
54.325 8.506429
54.330 8.304632
54.335 8.327436
54.340 8.478446
54.345 8.30452
54.350 8.087629
54.355 8.271015
54.360 8.25934
54.365 8.315595
54.370 7.793263
54.375 7.728636
54.380 7.990839
54.385 7.880431
54.390 7.602545
54.395 7.288931
54.400 7.025825
54.405 6.933394
54.410 6.947028
54.415 6.760453
54.420 6.642767
54.425 6.66872
54.430 7.214237
54.435 7.573478
54.440 8.045243
54.445 8.581209
54.450 8.895428
54.455 8.809567
54.460 8.949424
54.465 8.954122
54.470 8.920606
54.475 8.414226
54.480 8.028201
54.485 8.086479
54.490 8.375019
54.495 8.514405
54.500 8.391801
54.505 8.603795
54.510 8.616763
54.515 8.70553
54.520 8.369226
54.525 7.777586
54.530 7.624455
54.535 7.831085
54.540 8.108679
54.545 7.987951
54.550 8.216258
54.555 8.458274
54.560 8.587197
54.565 8.831968
54.570 8.541819
54.575 8.09171
54.580 8.578858
54.585 8.211026
54.590 8.324983
54.595 8.338198
54.600 8.030402
54.605 7.86215
54.610 7.528107
54.615 7.344002
54.620 7.602351
54.625 7.838892
54.630 7.423675
54.635 7.467041
54.640 7.723426
54.645 7.894418
54.650 7.603179
54.655 7.3783
54.660 7.440904
54.665 7.807518
54.670 7.726967
54.675 7.977671
54.680 8.178525
54.685 8.190337
54.690 7.928985
54.695 7.80823
54.700 8.26838
54.705 8.293938
54.710 8.090505
54.715 8.175225
54.720 8.134685
54.725 8.465703
54.730 8.051907
54.735 7.887773
54.740 8.335668
54.745 8.255257
54.750 8.175366
54.755 7.809766
54.760 7.45122
54.765 7.526772
54.770 7.147198
54.775 6.856368
54.780 6.923363
54.785 6.781838
54.790 7.044585
54.795 7.478098
54.800 8.369147
54.805 8.584391
54.810 8.894728
54.815 8.830581
54.820 8.9402
54.825 9.135258
54.830 8.769654
54.835 8.510557
54.840 8.16505
54.845 7.997898
54.850 8.146366
54.855 8.105357
54.860 8.206762
54.865 8.234598
54.870 8.268088
54.875 8.794313
54.880 8.688142
54.885 8.942785
54.890 9.318216
54.895 9.332591
54.900 9.310109
54.905 9.033495
54.910 9.169785
54.915 9.361495
54.920 8.724821
54.925 8.361266
54.930 7.97707
54.935 7.709542
54.940 7.262143
54.945 6.888281
54.950 6.45556
54.955 6.909681
54.960 7.300913
54.965 7.936891
54.970 8.417288
54.975 8.810199
54.980 8.816772
54.985 9.126881
54.990 9.057057
54.995 8.731888
55.000 8.351898
55.005 8.002892
55.010 7.794207
55.015 8.078277
55.020 7.843608
55.025 7.924434
55.030 8.0829
55.035 8.228305
55.040 8.335818
55.045 8.388001
55.050 8.61181
55.055 8.873295
55.060 8.717231
55.065 8.794434
55.070 9.054972
55.075 9.182989
55.080 8.916734
55.085 8.968118
55.090 8.539527
55.095 8.463869
55.100 8.239198
55.105 7.852804
55.110 7.596567
55.115 7.889628
55.120 8.302262
55.125 8.533442
55.130 8.782358
55.135 8.896261
55.140 9.074997
55.145 9.266326
55.150 9.150012
55.155 8.6435
55.160 8.201062
55.165 7.9591
55.170 8.026821
55.175 8.120719
55.180 8.047994
55.185 8.246894
55.190 8.750474
55.195 8.993692
55.200 8.911806
55.205 8.966618
55.210 9.264174
55.215 9.32541
55.220 9.174001
55.225 9.180086
55.230 9.255744
55.235 9.240723
55.240 8.564346
55.245 8.673773
55.250 8.504334
55.255 8.138098
55.260 7.877484
55.265 7.817468
55.270 7.399658
55.275 7.375215
55.280 6.994763
55.285 7.098811
55.290 7.551077
55.295 7.948056
55.300 8.231877
55.305 8.661782
55.310 8.816513
55.315 8.770983
55.320 8.530838
55.325 8.200577
55.330 7.800974
55.335 7.745311
55.340 7.533741
55.345 7.744058
55.350 8.003533
55.355 8.174714
55.360 8.456535
55.365 8.707501
55.370 8.652695
55.375 8.754156
55.380 8.567656
55.385 8.527212
55.390 8.30776
55.395 7.895446
55.400 7.578942
55.405 7.397072
55.410 7.58718
55.415 7.508436
55.420 7.21051
55.425 7.541103
55.430 8.052072
55.435 8.172321
55.440 8.494868
55.445 8.350476
55.450 8.499286
55.455 8.460104
55.460 8.09846
55.465 7.936104
55.470 7.700327
55.475 7.93329
55.480 8.055296
55.485 8.135794
55.490 8.113297
55.495 7.983304
55.500 8.499261
55.505 8.774587
55.510 8.449295
55.515 8.255715
55.520 8.148928
55.525 8.565076
55.530 9.145452
55.535 9.108666
55.540 8.951432
55.545 9.045231
55.550 9.530344
55.555 9.615103
55.560 9.537687
55.565 9.379138
55.570 9.075531
55.575 9.121509
55.580 9.192524
55.585 8.893176
55.590 8.561782
55.595 8.494061
55.600 8.384196
55.605 8.550466
55.610 9.078549
55.615 8.957901
55.620 8.74642
55.625 8.936772
55.630 8.301541
55.635 8.186893
55.640 7.753777
55.645 7.086323
55.650 7.255491
55.655 7.214947
55.660 7.313424
55.665 7.590342
55.670 7.32336
55.675 7.304657
55.680 7.541914
55.685 7.243174
55.690 7.833269
55.695 7.684701
55.700 7.970903
55.705 8.06397
55.710 7.998834
55.715 8.175264
55.720 8.427392
55.725 7.960149
55.730 7.944007
55.735 7.779566
55.740 8.109112
55.745 8.60609
55.750 8.580792
55.755 8.842033
55.760 8.881875
55.765 8.724139
55.770 8.531678
55.775 8.628192
55.780 8.644489
55.785 8.74803
55.790 8.341565
55.795 8.636808
55.800 8.943714
55.805 9.10532
55.810 8.696826
55.815 8.365036
55.820 8.168442
55.825 8.486901
55.830 8.535884
55.835 8.593087
55.840 8.650618
55.845 9.30232
55.850 9.750429
55.855 9.797571
55.860 9.820564
55.865 9.753455
55.870 9.784408
55.875 9.510385
55.880 8.76206
55.885 8.582311
55.890 8.705544
55.895 8.527752
55.900 8.628987
55.905 8.307178
55.910 8.218546
55.915 8.497541
55.920 8.863213
55.925 9.089284
55.930 9.042389
55.935 9.159823
55.940 9.574181
55.945 10.102301
55.950 9.763207
55.955 9.236093
55.960 9.055034
55.965 8.739096
55.970 8.301478
55.975 8.320634
55.980 8.58227
55.985 8.796329
55.990 8.677778
55.995 8.633013
56.000 8.697606
56.005 8.495017
56.010 7.968327
56.015 7.631908
56.020 7.447562
56.025 7.841087
56.030 8.540972
56.035 8.787071
56.040 9.233722
56.045 9.685388
56.050 9.623158
56.055 9.537903
56.060 9.167033
56.065 8.684276
56.070 9.008165
56.075 8.732171
56.080 8.65491
56.085 8.747427
56.090 9.062615
56.095 9.154027
56.100 9.282318
56.105 9.240254
56.110 9.21187
56.115 9.021046
56.120 9.400114
56.125 9.368372
56.130 9.179956
56.135 9.308576
56.140 9.215526
56.145 10.01311
56.150 10.184507
56.155 10.032626
56.160 10.123828
56.165 10.416514
56.170 9.89676
56.175 9.948593
56.180 9.386773
56.185 9.202275
56.190 9.138188
56.195 9.148659
56.200 9.068839
56.205 9.198539
56.210 9.14992
56.215 9.427515
56.220 9.292999
56.225 9.306166
56.230 9.334682
56.235 9.350924
56.240 9.312091
56.245 9.223882
56.250 8.953678
56.255 9.162455
56.260 8.979936
56.265 8.709435
56.270 8.858476
56.275 8.594128
56.280 8.393234
56.285 8.277502
56.290 8.232388
56.295 9.010946
56.300 9.285781
56.305 9.492783
56.310 9.691885
56.315 9.624717
56.320 9.916017
56.325 9.911716
56.330 9.416233
56.335 9.149277
56.340 8.849389
56.345 8.889802
56.350 9.279082
56.355 9.259384
56.360 9.23571
56.365 9.136393
56.370 8.868233
56.375 9.358974
56.380 9.840518
56.385 9.798564
56.390 9.680975
56.395 9.557946
56.400 9.6731
56.405 9.692901
56.410 9.446422
56.415 9.310126
56.420 9.550244
56.425 9.766437
56.430 9.938376
56.435 10.025253
56.440 10.411571
56.445 10.302638
56.450 10.071313
56.455 9.992208
56.460 10.00668
56.465 9.466159
56.470 9.278474
56.475 9.052534
56.480 8.936576
56.485 9.046834
56.490 9.715309
56.495 10.048008
56.500 10.549499
56.505 10.97546
56.510 11.267978
56.515 11.567416
56.520 11.80527
56.525 11.581332
56.530 11.723027
56.535 11.285297
56.540 10.787775
56.545 10.606888
56.550 10.020617
56.555 9.462151
56.560 9.190784
56.565 9.322044
56.570 9.541844
56.575 9.462009
56.580 9.285551
56.585 9.104277
56.590 9.175774
56.595 8.971928
56.600 8.677878
56.605 8.66242
56.610 9.064845
56.615 10.112653
56.620 10.799328
56.625 10.85925
56.630 10.945443
56.635 11.334466
56.640 11.596463
56.645 11.655209
56.650 11.109039
56.655 11.100482
56.660 10.837267
56.665 10.582434
56.670 10.393803
56.675 10.176651
56.680 9.673669
56.685 9.701468
56.690 10.057563
56.695 10.523926
56.700 10.848566
56.705 10.816262
56.710 10.795416
56.715 10.901211
56.720 10.67949
56.725 9.991934
56.730 9.764773
56.735 9.865885
56.740 10.119574
56.745 9.916586
56.750 9.689878
56.755 9.704792
56.760 10.172693
56.765 10.231664
56.770 10.267062
56.775 10.325245
56.780 10.466564
56.785 10.565712
56.790 10.72184
56.795 10.521607
56.800 9.702449
56.805 9.108128
56.810 9.224383
56.815 9.573942
56.820 9.4897
56.825 9.014315
56.830 8.893751
56.835 9.51935
56.840 9.588084
56.845 9.709352
56.850 9.863173
56.855 10.165838
56.860 10.386521
56.865 10.595873
56.870 10.306842
56.875 10.335559
56.880 9.7545
56.885 9.548891
56.890 9.161695
56.895 9.10801
56.900 8.97388
56.905 9.254483
56.910 9.423536
56.915 9.510875
56.920 9.70155
56.925 10.148699
56.930 10.100982
56.935 9.829105
56.940 9.69919
56.945 9.994985
56.950 10.400021
56.955 10.041898
56.960 9.697806
56.965 9.538353
56.970 9.725379
56.975 9.585775
56.980 9.529431
56.985 9.567993
56.990 9.766569
56.995 9.862597
57.000 10.039343
57.005 9.917722
57.010 9.98176
57.015 9.77105
57.020 9.297502
57.025 9.077043
57.030 8.98204
57.035 8.90558
57.040 9.21231
57.045 9.22367
57.050 9.991776
57.055 10.397059
57.060 10.70242
57.065 11.380407
57.070 11.729034
57.075 11.512174
57.080 11.097346
57.085 10.118068
57.090 9.603982
57.095 9.468834
57.100 9.093204
57.105 8.916527
57.110 8.723214
57.115 8.587297
57.120 8.426765
57.125 8.545895
57.130 8.531519
57.135 8.246481
57.140 8.365955
57.145 8.657944
57.150 9.083872
57.155 10.210124
57.160 10.527516
57.165 10.439113
57.170 10.90171
57.175 11.255743
57.180 11.351273
57.185 11.587939
57.190 10.774169
57.195 10.662893
57.200 11.179219
57.205 10.952748
57.210 11.111159
57.215 10.97172
57.220 10.35595
57.225 10.517184
57.230 10.087277
57.235 9.397402
57.240 9.021278
57.245 8.935753
57.250 9.069523
57.255 9.152779
57.260 9.045177
57.265 9.407614
57.270 9.82
57.275 10.525224
57.280 10.51779
57.285 10.653979
57.290 10.960712
57.295 10.895843
57.300 11.139101
57.305 10.716873
57.310 10.120706
57.315 10.076722
57.320 9.869412
57.325 10.358472
57.330 10.720642
57.335 10.688588
57.340 11.015127
57.345 11.045663
57.350 10.935958
57.355 10.920387
57.360 10.174881
57.365 10.15002
57.370 10.242099
57.375 10.441178
57.380 10.52367
57.385 10.418189
57.390 10.657237
57.395 11.224424
57.400 11.528512
57.405 11.379573
57.410 11.058163
57.415 11.332159
57.420 11.308069
57.425 10.983478
57.430 10.683035
57.435 10.419518
57.440 10.665136
57.445 10.412539
57.450 10.008795
57.455 10.123471
57.460 10.072326
57.465 10.375715
57.470 10.567687
57.475 10.985337
57.480 11.230174
57.485 11.402842
57.490 11.706728
57.495 11.797548
57.500 11.636757
57.505 11.749273
57.510 11.350386
57.515 11.109735
57.520 10.963295
57.525 10.911438
57.530 11.0942
57.535 11.110812
57.540 11.398499
57.545 11.666015
57.550 11.977575
57.555 12.206038
57.560 12.165227
57.565 11.924068
57.570 11.844421
57.575 11.687138
57.580 11.539858
57.585 11.924505
57.590 11.909086
57.595 12.166427
57.600 11.983392
57.605 11.41294
57.610 11.034696
57.615 11.075743
57.620 10.934757
57.625 11.453586
57.630 10.836227
57.635 10.560749
57.640 10.403604
57.645 10.572544
57.650 10.28579
57.655 9.891327
57.660 8.848822
57.665 9.152345
57.670 9.353133
57.675 9.561767
57.680 9.152386
57.685 9.163523
57.690 9.403586
57.695 9.911467
57.700 9.799501
57.705 10.024297
57.710 10.163427
57.715 10.068632
57.720 9.91814
57.725 10.342474
57.730 10.780423
57.735 11.067944
57.740 11.318069
57.745 11.560214
57.750 12.129782
57.755 12.126205
57.760 11.254732
57.765 10.651174
57.770 10.767467
57.775 10.331635
57.780 10.038561
57.785 9.789341
57.790 10.288641
57.795 10.669301
57.800 10.823531
57.805 10.400898
57.810 10.373609
57.815 10.383964
57.820 10.084697
57.825 9.591054
57.830 9.802496
57.835 10.011968
57.840 10.780267
57.845 10.793076
57.850 10.732863
57.855 11.37211
57.860 11.494894
57.865 11.301075
57.870 11.254316
57.875 10.826483
57.880 11.167537
57.885 11.73871
57.890 11.262547
57.895 10.819929
57.900 10.549674
57.905 10.210293
57.910 10.388219
57.915 10.279392
57.920 10.030576
57.925 10.289637
57.930 10.162911
57.935 10.430949
57.940 10.974319
57.945 11.068103
57.950 11.007759
57.955 11.22003
57.960 11.485526
57.965 12.249659
57.970 12.306799
57.975 11.824765
57.980 11.827301
57.985 11.511373
57.990 10.935037
57.995 10.915479
58.000 10.615555
58.005 10.473886
58.010 10.688077
58.015 11.070515
58.020 12.072458
58.025 12.424282
58.030 12.408527
58.035 12.532557
58.040 13.047365
58.045 12.635372
58.050 12.183366
58.055 11.530962
58.060 11.852939
58.065 11.988063
58.070 12.052863
58.075 11.686654
58.080 11.908829
58.085 12.079404
58.090 11.891309
58.095 11.367687
58.100 11.460832
58.105 11.50759
58.110 11.388749
58.115 11.391109
58.120 11.885968
58.125 12.37144
58.130 12.379644
58.135 12.107901
58.140 12.134631
58.145 12.385677
58.150 11.991275
58.155 11.44445
58.160 11.254215
58.165 11.91636
58.170 12.037166
58.175 12.211388
58.180 12.633613
58.185 13.214597
58.190 13.756605
58.195 13.49454
58.200 13.386333
58.205 13.832798
58.210 14.261143
58.215 14.167774
58.220 14.044659
58.225 13.860245
58.230 14.458306
58.235 14.079219
58.240 13.555436
58.245 13.366405
58.250 13.582195
58.255 13.519258
58.260 13.610251
58.265 13.612937
58.270 14.245212
58.275 14.326623
58.280 14.490741
58.285 14.563682
58.290 14.640763
58.295 14.886438
58.300 14.9068
58.305 14.431952
58.310 14.895348
58.315 15.19885
58.320 15.213113
58.325 15.318738
58.330 15.144189
58.335 15.418817
58.340 15.722453
58.345 16.181658
58.350 16.089333
58.355 15.92867
58.360 16.066616
58.365 15.901334
58.370 15.504625
58.375 15.469111
58.380 14.703343
58.385 14.321825
58.390 14.916367
58.395 15.34376
58.400 16.346056
58.405 16.963612
58.410 17.279102
58.415 17.530704
58.420 18.137514
58.425 18.572308
58.430 18.443592
58.435 18.119097
58.440 18.021736
58.445 18.346226
58.450 18.458694
58.455 18.233725
58.460 17.84383
58.465 17.614815
58.470 17.893196
58.475 18.073269
58.480 17.660992
58.485 18.026001
58.490 18.597319
58.495 18.879774
58.500 19.093832
58.505 18.998812
58.510 18.897038
58.515 19.155485
58.520 18.923882
58.525 18.562927
58.530 18.311716
58.535 18.072813
58.540 17.588491
58.545 17.558422
58.550 17.027435
58.555 17.031078
58.560 16.70046
58.565 16.686846
58.570 16.994146
58.575 17.377617
58.580 17.414669
58.585 17.570408
58.590 17.219601
58.595 17.893148
58.600 17.718868
58.605 17.461908
58.610 17.058453
58.615 16.971865
58.620 16.943096
58.625 17.068003
58.630 16.959938
58.635 16.863249
58.640 16.95204
58.645 17.063272
58.650 16.779274
58.655 16.550869
58.660 16.706282
