!@!!GADDS PLOTSO FILE: Chi integration type
!@!!Title/SampleName: map-6d
!@!!Comment: ?
!@!!User: Bruker Instrument Administrator
!@!!Site: University of Illinois Chicago
!@!!Frame: map-6d_01_000.gfrm
!@!!Wavelengths    1.54184   1.54056   1.54439
!@!!Frame angles: 2Theta: 63.000 Omega: 50.000 Phi: 0.000 Chi: 90.000
!@!!Integration range: 2Theta: 53.000 to 73.000  Gamma: -105.000 to -75.000
!@!!Integration method: bin normalized
!@!N
!@!SS
!@!M
!@!L 0.0 0.0 0.0 0.0
!@!XDegrees
!@!YCounts
53.000 9.692404
53.005 9.789282
53.010 9.623167
53.015 9.212903
53.020 9.615773
53.025 9.693793
53.030 10.046124
53.035 10.181684
53.040 9.977971
53.045 9.893613
53.050 10.35906
53.055 10.540595
53.060 10.006708
53.065 9.827419
53.070 9.630663
53.075 9.861897
53.080 9.91134
53.085 9.365683
53.090 9.445583
53.095 9.899333
53.100 10.07754
53.105 10.235254
53.110 10.43348
53.115 10.442243
53.120 10.380826
53.125 10.232968
53.130 10.271792
53.135 10.225183
53.140 9.940672
53.145 9.6849
53.150 9.790616
53.155 9.676342
53.160 9.334938
53.165 8.698035
53.170 8.547664
53.175 8.283175
53.180 8.049022
53.185 7.556794
53.190 7.71027
53.195 8.401226
53.200 8.873626
53.205 9.05392
53.210 9.241616
53.215 9.454801
53.220 9.643523
53.225 9.523083
53.230 9.181696
53.235 9.00811
53.240 9.223276
53.245 9.538716
53.250 9.705158
53.255 9.615209
53.260 9.721985
53.265 9.852098
53.270 9.445059
53.275 9.33069
53.280 9.687191
53.285 10.231843
53.290 10.481756
53.295 10.08738
53.300 10.45916
53.305 10.97175
53.310 10.904746
53.315 10.480597
53.320 10.090931
53.325 10.453209
53.330 10.257214
53.335 9.656857
53.340 9.631293
53.345 9.169628
53.350 9.359615
53.355 9.517795
53.360 9.323882
53.365 9.53364
53.370 9.422782
53.375 9.469018
53.380 9.912943
53.385 9.488898
53.390 9.648793
53.395 10.228631
53.400 10.39818
53.405 10.796268
53.410 10.725107
53.415 10.633035
53.420 10.814672
53.425 10.091372
53.430 9.482832
53.435 9.349463
53.440 9.28058
53.445 9.311007
53.450 9.502656
53.455 10.507905
53.460 11.285229
53.465 11.462966
53.470 11.755461
53.475 11.877699
53.480 11.885546
53.485 11.331256
53.490 10.709434
53.495 10.547767
53.500 10.603237
53.505 10.466933
53.510 10.571137
53.515 10.735243
53.520 11.021152
53.525 11.456146
53.530 11.92787
53.535 12.35363
53.540 12.420016
53.545 12.535416
53.550 12.187955
53.555 11.409314
53.560 10.769307
53.565 10.168569
53.570 10.118367
53.575 9.906989
53.580 9.65227
53.585 9.924712
53.590 10.24846
53.595 10.21064
53.600 10.402183
53.605 10.187888
53.610 10.666157
53.615 10.713081
53.620 10.523541
53.625 10.492567
53.630 10.548321
53.635 10.574958
53.640 10.268727
53.645 9.835517
53.650 9.961111
53.655 10.043382
53.660 9.953305
53.665 10.232886
53.670 10.225591
53.675 10.73149
53.680 11.107801
53.685 11.108944
53.690 11.113602
53.695 11.105779
53.700 11.020729
53.705 11.227891
53.710 10.505431
53.715 10.147243
53.720 10.19203
53.725 10.270459
53.730 10.381859
53.735 10.103889
53.740 9.994426
53.745 10.42841
53.750 10.759279
53.755 11.289072
53.760 11.298103
53.765 11.296567
53.770 10.906069
53.775 10.926634
53.780 10.701562
53.785 10.546554
53.790 9.832107
53.795 9.696902
53.800 9.615771
53.805 9.798297
53.810 9.888362
53.815 9.501784
53.820 9.53187
53.825 9.579885
53.830 9.887545
53.835 9.855982
53.840 10.146519
53.845 10.661822
53.850 11.019483
53.855 11.026281
53.860 10.747229
53.865 10.418681
53.870 10.160844
53.875 9.86045
53.880 9.311891
53.885 9.196475
53.890 9.463475
53.895 10.199017
53.900 10.346251
53.905 10.942451
53.910 10.861797
53.915 11.028397
53.920 11.166554
53.925 11.133855
53.930 10.971957
53.935 11.130088
53.940 10.848483
53.945 10.842335
53.950 11.031903
53.955 11.156096
53.960 11.29636
53.965 11.259098
53.970 11.105166
53.975 11.142945
53.980 11.488792
53.985 11.2107
53.990 11.17946
53.995 11.061637
54.000 10.762741
54.005 10.899158
54.010 10.951309
54.015 10.694346
54.020 10.407041
54.025 10.845448
54.030 10.649221
54.035 11.101871
54.040 11.148579
54.045 11.198897
54.050 11.26786
54.055 11.449617
54.060 11.157113
54.065 11.403846
54.070 10.868069
54.075 10.793301
54.080 10.93048
54.085 11.135026
54.090 10.639933
54.095 10.693324
54.100 10.626195
54.105 11.244563
54.110 11.721374
54.115 11.968845
54.120 11.971927
54.125 11.964301
54.130 11.856587
54.135 11.737056
54.140 11.086085
54.145 10.626856
54.150 10.451751
54.155 10.606689
54.160 11.317021
54.165 11.038461
54.170 11.27064
54.175 11.70867
54.180 11.762411
54.185 12.144595
54.190 11.919657
54.195 11.24566
54.200 12.175174
54.205 12.040432
54.210 11.714184
54.215 11.496766
54.220 11.095556
54.225 10.921974
54.230 11.037207
54.235 10.770557
54.240 10.845782
54.245 10.945484
54.250 10.682685
54.255 10.573211
54.260 10.974591
54.265 11.100458
54.270 10.908843
54.275 10.756395
54.280 11.264299
54.285 11.432582
54.290 11.215908
54.295 11.25954
54.300 11.183007
54.305 11.233776
54.310 11.063041
54.315 10.392288
54.320 10.387474
54.325 10.678115
54.330 10.563982
54.335 10.163891
54.340 10.220281
54.345 10.353762
54.350 11.020467
54.355 11.293897
54.360 11.543591
54.365 11.625056
54.370 12.407827
54.375 12.597257
54.380 12.65176
54.385 12.32125
54.390 11.526596
54.395 10.911515
54.400 10.616567
54.405 9.987844
54.410 9.787364
54.415 10.136435
54.420 10.934896
54.425 11.748299
54.430 11.851247
54.435 11.912578
54.440 11.938334
54.445 11.886033
54.450 11.896246
54.455 11.183969
54.460 10.8998
54.465 10.711482
54.470 10.589117
54.475 10.810821
54.480 10.771018
54.485 10.266476
54.490 11.219359
54.495 11.346685
54.500 11.560618
54.505 11.483303
54.510 10.968674
54.515 11.089944
54.520 11.156264
54.525 10.53951
54.530 10.376502
54.535 10.49115
54.540 10.072864
54.545 9.939741
54.550 9.460101
54.555 9.029467
54.560 9.180167
54.565 9.403318
54.570 9.906965
54.575 10.619902
54.580 11.701013
54.585 12.094638
54.590 12.253196
54.595 12.268232
54.600 12.082709
54.605 11.759138
54.610 11.198893
54.615 10.392864
54.620 10.474871
54.625 10.124118
54.630 10.264257
54.635 10.256276
54.640 9.877909
54.645 9.906198
54.650 9.788716
54.655 9.937744
54.660 9.898707
54.665 9.452343
54.670 9.728249
54.675 10.08701
54.680 10.436227
54.685 10.895928
54.690 11.049739
54.695 10.980975
54.700 11.10987
54.705 11.021609
54.710 10.899901
54.715 10.241882
54.720 9.639872
54.725 9.461575
54.730 9.525315
54.735 9.910513
54.740 10.286974
54.745 10.802423
54.750 10.687716
54.755 10.648985
54.760 10.796802
54.765 11.117891
54.770 10.405582
54.775 10.476114
54.780 10.628058
54.785 11.153243
54.790 11.247004
54.795 11.07823
54.800 10.947552
54.805 11.16342
54.810 11.578599
54.815 11.920977
54.820 12.45988
54.825 12.860452
54.830 12.624077
54.835 12.633344
54.840 12.777322
54.845 12.32475
54.850 12.227557
54.855 12.009197
54.860 12.139348
54.865 12.764494
54.870 13.198056
54.875 12.566322
54.880 12.550127
54.885 12.123431
54.890 11.855161
54.895 11.605726
54.900 11.552559
54.905 11.576347
54.910 11.90972
54.915 11.952364
54.920 12.277098
54.925 12.237108
54.930 12.535026
54.935 12.531421
54.940 12.401454
54.945 12.671699
54.950 13.191247
54.955 12.805305
54.960 13.017104
54.965 12.644824
54.970 12.353845
54.975 12.175661
54.980 11.8553
54.985 11.349254
54.990 11.156045
54.995 10.92702
55.000 10.772029
55.005 10.868847
55.010 11.214581
55.015 11.218863
55.020 11.311571
55.025 11.609422
55.030 11.843542
55.035 11.727857
55.040 11.645826
55.045 11.80407
55.050 11.220686
55.055 11.41544
55.060 11.557541
55.065 11.614427
55.070 11.626062
55.075 11.426561
55.080 11.339811
55.085 11.59591
55.090 11.179637
55.095 10.813854
55.100 10.579208
55.105 10.81656
55.110 11.006665
55.115 11.347267
55.120 11.913436
55.125 12.455558
55.130 12.443661
55.135 12.842347
55.140 13.300741
55.145 13.19877
55.150 13.085649
55.155 12.597417
55.160 12.277448
55.165 12.44444
55.170 12.431696
55.175 11.919436
55.180 11.615735
55.185 11.331589
55.190 11.299496
55.195 11.26094
55.200 11.211081
55.205 11.131724
55.210 11.587758
55.215 11.416458
55.220 11.783935
55.225 12.541193
55.230 12.748646
55.235 12.75686
55.240 12.862098
55.245 13.057623
55.250 13.764647
55.255 13.477645
55.260 13.545637
55.265 13.170726
55.270 12.887104
55.275 12.353734
55.280 12.054388
55.285 11.734424
55.290 12.150482
55.295 12.000614
55.300 12.163324
55.305 12.470637
55.310 12.979642
55.315 12.946647
55.320 12.464664
55.325 12.28658
55.330 12.69991
55.335 12.63399
55.340 12.24685
55.345 11.705355
55.350 11.870624
55.355 12.136106
55.360 11.739865
55.365 11.640639
55.370 11.946872
55.375 12.339125
55.380 12.728888
55.385 12.798414
55.390 13.261023
55.395 13.567231
55.400 13.168869
55.405 13.009733
55.410 12.450428
55.415 11.998711
55.420 11.700585
55.425 11.283383
55.430 10.972519
55.435 10.80266
55.440 11.10148
55.445 11.63708
55.450 11.99554
55.455 11.574122
55.460 11.263591
55.465 11.855987
55.470 12.060404
55.475 12.298326
55.480 12.310768
55.485 12.5186
55.490 13.050505
55.495 12.870113
55.500 12.646071
55.505 12.111776
55.510 11.651718
55.515 11.239076
55.520 10.976387
55.525 10.73932
55.530 10.622341
55.535 11.103591
55.540 11.780712
55.545 11.679944
55.550 11.900194
55.555 12.50189
55.560 12.893641
55.565 13.443913
55.570 12.820016
55.575 12.351481
55.580 12.314192
55.585 12.541189
55.590 12.336614
55.595 12.462219
55.600 12.69148
55.605 12.901123
55.610 13.373079
55.615 13.476449
55.620 13.040074
55.625 12.631038
55.630 12.64432
55.635 12.586345
55.640 12.2523
55.645 12.152355
55.650 11.656499
55.655 12.198004
55.660 12.539172
55.665 11.944871
55.670 11.598649
55.675 11.789358
55.680 11.631457
55.685 11.969131
55.690 11.338619
55.695 11.264933
55.700 11.898326
55.705 12.237599
55.710 12.474784
55.715 12.892429
55.720 13.002218
55.725 13.528865
55.730 13.672312
55.735 13.265843
55.740 13.120023
55.745 12.484546
55.750 12.626627
55.755 12.600089
55.760 12.13315
55.765 11.793299
55.770 11.610437
55.775 11.577654
55.780 11.713705
55.785 11.54689
55.790 11.103126
55.795 11.215487
55.800 11.332052
55.805 11.506352
55.810 11.673821
55.815 11.281204
55.820 10.78161
55.825 11.228256
55.830 11.396585
55.835 11.247302
55.840 11.4338
55.845 11.595725
55.850 12.124483
55.855 12.69
55.860 12.338272
55.865 12.155611
55.870 12.176129
55.875 11.995341
55.880 12.804191
55.885 12.707893
55.890 12.64195
55.895 12.719356
55.900 12.995987
55.905 12.998508
55.910 12.846365
55.915 12.17475
55.920 12.383215
55.925 12.703906
55.930 12.708117
55.935 13.024845
55.940 13.234464
55.945 13.548372
55.950 13.891321
55.955 13.750795
55.960 13.498024
55.965 13.404711
55.970 13.501619
55.975 13.393669
55.980 13.085904
55.985 12.613693
55.990 12.365435
55.995 12.847574
56.000 12.898526
56.005 12.655007
56.010 12.510846
56.015 12.920584
56.020 13.685529
56.025 14.046947
56.030 13.665672
56.035 13.564074
56.040 13.382133
56.045 13.407016
56.050 13.433896
56.055 13.116173
56.060 12.897236
56.065 13.367638
56.070 13.140478
56.075 13.211664
56.080 13.294956
56.085 12.939301
56.090 12.674698
56.095 12.494081
56.100 12.051341
56.105 12.198814
56.110 12.375027
56.115 12.14479
56.120 11.868279
56.125 12.239701
56.130 12.217164
56.135 12.684169
56.140 12.92415
56.145 12.932929
56.150 13.188468
56.155 13.491112
56.160 13.501464
56.165 13.690566
56.170 13.769525
56.175 13.946403
56.180 13.885699
56.185 13.936086
56.190 13.689013
56.195 13.764311
56.200 13.773085
56.205 13.626204
56.210 13.331515
56.215 13.434831
56.220 13.418137
56.225 13.844588
56.230 13.882065
56.235 14.191236
56.240 14.482267
56.245 14.624707
56.250 14.795815
56.255 15.101022
56.260 15.014301
56.265 14.760731
56.270 13.877843
56.275 13.248237
56.280 13.105632
56.285 12.658267
56.290 12.751384
56.295 12.748493
56.300 12.792086
56.305 13.354928
56.310 13.546772
56.315 14.16906
56.320 14.130242
56.325 13.383518
56.330 12.960474
56.335 13.330105
56.340 13.172099
56.345 13.224848
56.350 12.912383
56.355 13.151369
56.360 13.761572
56.365 14.02393
56.370 13.809624
56.375 13.95078
56.380 13.847466
56.385 13.912843
56.390 14.011336
56.395 13.905865
56.400 13.82002
56.405 13.970592
56.410 13.608138
56.415 13.187157
56.420 13.19139
56.425 12.674787
56.430 12.782129
56.435 12.732
56.440 12.898486
56.445 12.847841
56.450 12.632557
56.455 12.251408
56.460 12.447386
56.465 12.462031
56.470 12.625933
56.475 12.11319
56.480 12.419153
56.485 12.924347
56.490 13.722826
56.495 13.750403
56.500 13.475854
56.505 13.309395
56.510 13.483698
56.515 13.904282
56.520 13.849885
56.525 13.477194
56.530 13.224844
56.535 12.91865
56.540 13.374707
56.545 13.55452
56.550 13.215306
56.555 13.237596
56.560 13.238084
56.565 13.77145
56.570 13.934521
56.575 13.731818
56.580 13.635898
56.585 14.117714
56.590 13.94747
56.595 13.65744
56.600 13.500555
56.605 14.219276
56.610 14.446188
56.615 14.508319
56.620 14.467393
56.625 14.361107
56.630 14.279331
56.635 14.307502
56.640 13.587264
56.645 13.208261
56.650 13.124242
56.655 12.942104
56.660 13.286036
56.665 13.089457
56.670 13.272989
56.675 13.659897
56.680 13.888857
56.685 13.868614
56.690 14.109952
56.695 14.094129
56.700 14.078756
56.705 14.116308
56.710 14.288514
56.715 14.351446
56.720 14.550203
56.725 14.71797
56.730 15.267357
56.735 15.680057
56.740 15.358453
56.745 15.297719
56.750 15.560146
56.755 15.344757
56.760 14.577207
56.765 13.965748
56.770 13.473063
56.775 13.396532
56.780 13.263676
56.785 13.322637
56.790 13.424769
56.795 13.93508
56.800 14.008821
56.805 14.323701
56.810 14.477648
56.815 14.142605
56.820 13.667718
56.825 14.055008
56.830 14.002762
56.835 14.426656
56.840 13.925263
56.845 13.69089
56.850 13.730567
56.855 13.314926
56.860 12.702104
56.865 12.462405
56.870 12.0173
56.875 12.355037
56.880 12.234326
56.885 12.125776
56.890 12.223838
56.895 12.26771
56.900 12.500366
56.905 12.799407
56.910 12.968397
56.915 13.243254
56.920 13.757877
56.925 14.172756
56.930 14.167542
56.935 14.056138
56.940 14.494515
56.945 14.230907
56.950 14.320097
56.955 14.071604
56.960 13.878439
56.965 14.05796
56.970 13.879309
56.975 14.304206
56.980 14.278294
56.985 13.889031
56.990 14.113035
56.995 13.962678
57.000 13.58909
57.005 13.519778
57.010 13.054774
57.015 13.412535
57.020 13.455097
57.025 13.11016
57.030 13.513968
57.035 14.120827
57.040 14.375321
57.045 14.370514
57.050 14.449837
57.055 14.21524
57.060 13.830751
57.065 13.979504
57.070 13.948917
57.075 14.260517
57.080 14.893192
57.085 15.296094
57.090 16.026608
57.095 16.450302
57.100 15.900665
57.105 15.406079
57.110 15.108917
57.115 14.434002
57.120 14.135169
57.125 13.97234
57.130 13.779384
57.135 13.997847
57.140 13.634212
57.145 13.282714
57.150 13.334912
57.155 13.272763
57.160 13.261467
57.165 13.271695
57.170 13.255177
57.175 13.440493
57.180 13.845977
57.185 14.180154
57.190 14.302557
57.195 14.138783
57.200 14.179706
57.205 14.230284
57.210 13.981662
57.215 13.217793
57.220 13.089642
57.225 13.135982
57.230 13.397796
57.235 13.544868
57.240 13.609578
57.245 14.130345
57.250 14.287016
57.255 14.581594
57.260 14.761133
57.265 15.081914
57.270 14.854006
57.275 14.803246
57.280 15.19692
57.285 15.440658
57.290 14.943692
57.295 14.777345
57.300 14.745947
57.305 14.801589
57.310 15.009887
57.315 14.631161
57.320 14.649824
57.325 14.583921
57.330 14.340065
57.335 14.151547
57.340 13.986676
57.345 13.592101
57.350 13.1869
57.355 13.140351
57.360 13.191559
57.365 13.151949
57.370 13.214485
57.375 13.798435
57.380 14.499285
57.385 15.195856
57.390 15.195462
57.395 15.26994
57.400 15.589683
57.405 15.022675
57.410 14.702307
57.415 14.141742
57.420 13.201546
57.425 12.882645
57.430 12.94453
57.435 12.87214
57.440 13.288488
57.445 13.610804
57.450 13.98751
57.455 15.083846
57.460 15.551157
57.465 15.741192
57.470 15.562746
57.475 15.231544
57.480 14.774977
57.485 14.972338
57.490 14.314796
57.495 14.20061
57.500 14.0916
57.505 14.69606
57.510 14.738904
57.515 14.662345
57.520 13.966375
57.525 14.112783
57.530 13.660274
57.535 13.681218
57.540 13.468381
57.545 13.765221
57.550 14.290863
57.555 14.296524
57.560 14.099552
57.565 14.475145
57.570 14.213298
57.575 14.197531
57.580 14.017375
57.585 13.664901
57.590 14.130445
57.595 14.066311
57.600 13.924141
57.605 14.047987
57.610 14.334163
57.615 14.40286
57.620 14.505264
57.625 14.306968
57.630 14.268347
57.635 14.182025
57.640 14.000072
57.645 13.514982
57.650 13.079496
57.655 12.529396
57.660 12.482921
57.665 12.923885
57.670 13.267422
57.675 13.373958
57.680 13.590394
57.685 13.93255
57.690 14.266149
57.695 14.468639
57.700 14.148454
57.705 13.652759
57.710 13.485085
57.715 13.757308
57.720 14.256212
57.725 14.499795
57.730 14.758162
57.735 15.137946
57.740 15.766294
57.745 15.805559
57.750 15.589639
57.755 15.232728
57.760 14.659842
57.765 14.727771
57.770 14.686944
57.775 14.464845
57.780 14.700507
57.785 14.537559
57.790 14.261566
57.795 14.222557
57.800 13.819102
57.805 13.767656
57.810 14.23828
57.815 14.615928
57.820 15.156592
57.825 15.300406
57.830 15.553595
57.835 15.751165
57.840 15.472919
57.845 14.92353
57.850 14.639555
57.855 14.925103
57.860 14.798727
57.865 14.554164
57.870 14.37201
57.875 14.594951
57.880 15.248388
57.885 15.082141
57.890 14.674671
57.895 14.957038
57.900 15.197471
57.905 15.214987
57.910 15.324773
57.915 15.260791
57.920 15.217602
57.925 15.157982
57.930 15.20802
57.935 15.954187
57.940 16.316721
57.945 16.060307
57.950 15.75995
57.955 15.710902
57.960 16.00297
57.965 16.349483
57.970 16.34174
57.975 16.642895
57.980 17.189236
57.985 17.577568
57.990 17.776503
57.995 18.205896
58.000 18.0611
58.005 17.756548
58.010 17.345242
58.015 16.224115
58.020 16.071686
58.025 16.067369
58.030 16.074486
58.035 16.119389
58.040 16.171339
58.045 16.505079
58.050 17.024929
58.055 17.354704
58.060 17.25923
58.065 16.808014
58.070 17.112812
58.075 17.256031
58.080 16.995903
58.085 16.577448
58.090 16.549263
58.095 16.597538
58.100 16.391356
58.105 15.643234
58.110 15.132598
58.115 15.626826
58.120 16.504219
58.125 16.473703
58.130 16.77586
58.135 17.377207
58.140 18.205927
58.145 19.214354
58.150 19.242285
58.155 19.020935
58.160 18.84144
58.165 18.999256
58.170 18.753347
58.175 17.994627
58.180 17.292065
58.185 17.682919
58.190 18.03455
58.195 18.296713
58.200 18.299141
58.205 18.729761
58.210 18.38586
58.215 17.741386
58.220 17.316902
58.225 17.533903
58.230 17.521101
58.235 17.084768
58.240 16.862741
58.245 17.326754
58.250 17.420641
58.255 16.906672
58.260 16.425053
58.265 16.039968
58.270 16.639896
58.275 16.851938
58.280 17.646421
58.285 18.875381
58.290 18.955391
58.295 19.355715
58.300 19.705433
58.305 18.994116
58.310 18.69202
58.315 18.225502
58.320 18.111038
58.325 18.851019
58.330 18.459202
58.335 18.569237
58.340 19.022322
58.345 18.871117
58.350 18.830101
58.355 18.333435
58.360 17.836136
58.365 18.109791
58.370 17.881283
58.375 18.258337
58.380 18.799988
58.385 19.374954
58.390 20.292521
58.395 20.470247
58.400 21.097128
58.405 21.926643
58.410 21.805202
58.415 21.32461
58.420 21.289753
58.425 21.307365
58.430 22.476227
58.435 22.590485
58.440 22.378016
58.445 22.958757
58.450 23.47047
58.455 23.646929
58.460 23.848534
58.465 23.816151
58.470 24.169394
58.475 24.180382
