!@!!GADDS PLOTSO FILE: Chi integration type
!@!!Title/SampleName: map-71
!@!!Comment: ?
!@!!User: Bruker Instrument Administrator
!@!!Site: University of Illinois Chicago
!@!!Frame: map-71_01_000.gfrm
!@!!Wavelengths    1.54184   1.54056   1.54439
!@!!Frame angles: 2Theta: 63.000 Omega: 50.000 Phi: 0.000 Chi: 90.000
!@!!Integration range: 2Theta: 53.000 to 73.000  Gamma: -105.000 to -75.000
!@!!Integration method: bin normalized
!@!N
!@!SS
!@!M
!@!L 0.0 0.0 0.0 0.0
!@!XDegrees
!@!YCounts
53.000 8.180983
53.005 7.991458
53.010 8.196696
53.015 8.469382
53.020 8.801259
53.025 9.188196
53.030 9.404103
53.035 9.46457
53.040 9.46148
53.045 9.618313
53.050 10.167977
53.055 9.830634
53.060 10.06368
53.065 9.985976
53.070 10.173362
53.075 10.233607
53.080 10.013364
53.085 10.18744
53.090 10.342186
53.095 10.334097
53.100 10.908223
53.105 11.322037
53.110 11.650501
53.115 11.948918
53.120 11.849159
53.125 11.353568
53.130 10.664531
53.135 10.067175
53.140 9.961932
53.145 9.646797
53.150 8.650285
53.155 8.578359
53.160 8.995791
53.165 9.425585
53.170 9.459472
53.175 9.226413
53.180 9.209012
53.185 9.316442
53.190 9.013698
53.195 9.347482
53.200 9.258335
53.205 8.868074
53.210 9.079129
53.215 8.953475
53.220 8.899032
53.225 9.216728
53.230 9.207067
53.235 9.591988
53.240 10.199121
53.245 10.382293
53.250 10.881866
53.255 10.830427
53.260 10.506004
53.265 10.146379
53.270 9.991549
53.275 9.592708
53.280 9.335474
53.285 9.257537
53.290 9.619923
53.295 9.867274
53.300 9.619984
53.305 9.547254
53.310 9.35802
53.315 9.245188
53.320 9.206239
53.325 9.109974
53.330 9.040398
53.335 9.281052
53.340 9.502299
53.345 9.868309
53.350 9.830237
53.355 9.506393
53.360 9.368433
53.365 9.332662
53.370 9.209363
53.375 9.151281
53.380 8.687012
53.385 8.756041
53.390 8.884381
53.395 8.815804
53.400 9.223377
53.405 9.30465
53.410 9.651318
53.415 10.191164
53.420 10.503947
53.425 10.748887
53.430 11.003615
53.435 10.872712
53.440 10.631372
53.445 10.098792
53.450 10.073664
53.455 9.819956
53.460 9.404905
53.465 9.059169
53.470 9.125535
53.475 9.574876
53.480 9.655952
53.485 9.467657
53.490 9.545352
53.495 10.011963
53.500 10.706626
53.505 10.543623
53.510 10.803974
53.515 11.560476
53.520 11.966834
53.525 11.965723
53.530 11.456721
53.535 10.857616
53.540 10.486596
53.545 10.045582
53.550 9.463868
53.555 9.251695
53.560 9.15358
53.565 9.005528
53.570 8.936028
53.575 9.56447
53.580 9.687211
53.585 9.895101
53.590 10.00616
53.595 10.149554
53.600 10.418823
53.605 10.019359
53.610 9.572871
53.615 9.400267
53.620 9.42688
53.625 9.244784
53.630 9.755863
53.635 10.062758
53.640 10.412792
53.645 10.361499
53.650 10.42791
53.655 10.507562
53.660 10.908914
53.665 10.60147
53.670 10.329913
53.675 10.760637
53.680 10.762876
53.685 10.675918
53.690 10.687538
53.695 10.338202
53.700 10.675779
53.705 11.047171
53.710 10.710161
53.715 10.95964
53.720 10.780285
53.725 10.755257
53.730 10.703485
53.735 10.494123
53.740 10.119576
53.745 10.374262
53.750 10.57878
53.755 10.721271
53.760 10.78418
53.765 11.158593
53.770 11.202013
53.775 10.780154
53.780 10.377145
53.785 10.445833
53.790 10.406985
53.795 10.21093
53.800 9.870004
53.805 10.208277
53.810 10.69806
53.815 10.830961
53.820 10.651722
53.825 11.154157
53.830 11.140156
53.835 11.608725
53.840 11.72821
53.845 11.633909
53.850 11.247217
53.855 11.246497
53.860 11.420177
53.865 11.262731
53.870 10.55262
53.875 10.586724
53.880 10.805979
53.885 10.989416
53.890 10.867146
53.895 10.721885
53.900 10.858927
53.905 10.914058
53.910 10.756727
53.915 11.155522
53.920 11.201703
53.925 10.912461
53.930 11.092428
53.935 11.4105
53.940 11.846812
53.945 12.294061
53.950 11.900821
53.955 12.052572
53.960 12.24011
53.965 12.027367
53.970 11.791114
53.975 11.443521
53.980 10.973389
53.985 11.047397
53.990 11.160604
53.995 11.128115
54.000 10.842016
54.005 10.556429
54.010 10.555717
54.015 10.521985
54.020 10.503561
54.025 10.380093
54.030 10.384732
54.035 10.633119
54.040 10.587836
54.045 10.72991
54.050 11.002932
54.055 11.506989
54.060 11.89098
54.065 11.792336
54.070 11.799715
54.075 11.466777
54.080 11.303003
54.085 10.90799
54.090 10.15073
54.095 10.337109
54.100 10.826903
54.105 10.944741
54.110 11.545634
54.115 11.63807
54.120 11.70375
54.125 11.565632
54.130 11.790778
54.135 12.159003
54.140 12.444654
54.145 12.30578
54.150 11.995277
54.155 12.062919
54.160 11.945514
54.165 11.033766
54.170 10.644865
54.175 10.412278
54.180 10.353426
54.185 10.382141
54.190 10.666519
54.195 11.013927
54.200 11.381738
54.205 11.652656
54.210 12.119763
54.215 11.951731
54.220 12.050674
54.225 11.919928
54.230 11.825558
54.235 11.915852
54.240 11.382845
54.245 11.466063
54.250 11.14172
54.255 10.971622
54.260 10.773555
54.265 10.838491
54.270 10.766637
54.275 10.409595
54.280 10.563454
54.285 10.897916
54.290 11.054039
54.295 10.959003
54.300 10.955315
54.305 11.371136
54.310 11.255715
54.315 10.695333
54.320 10.557868
54.325 10.744928
54.330 10.527919
54.335 9.707618
54.340 10.082208
54.345 10.537192
54.350 10.958193
54.355 10.704662
54.360 10.991607
54.365 11.23284
54.370 11.622224
54.375 11.398509
54.380 11.669092
54.385 11.352782
54.390 11.45609
54.395 11.465961
54.400 11.521173
54.405 11.168476
54.410 10.679823
54.415 10.305462
54.420 10.532699
54.425 10.748821
54.430 10.624804
54.435 10.629786
54.440 10.809975
54.445 11.111084
54.450 11.225299
54.455 11.326281
54.460 11.187329
54.465 11.445195
54.470 11.75511
54.475 11.590184
54.480 11.881064
54.485 11.898424
54.490 11.63963
54.495 11.720304
54.500 11.677849
54.505 11.622994
54.510 11.249424
54.515 10.925001
54.520 10.941895
54.525 10.96115
54.530 10.709531
54.535 10.599186
54.540 10.660824
54.545 10.467146
54.550 10.098533
54.555 9.85947
54.560 9.577974
54.565 9.505118
54.570 9.44367
54.575 9.963003
54.580 10.54411
54.585 11.12198
54.590 11.228211
54.595 11.498436
54.600 11.452473
54.605 11.695391
54.610 10.814258
54.615 10.774764
54.620 10.939703
54.625 11.030303
54.630 10.990709
54.635 10.765192
54.640 10.534234
54.645 10.802797
54.650 10.482495
54.655 10.695238
54.660 11.065122
54.665 11.409076
54.670 11.68267
54.675 11.750019
54.680 11.954192
54.685 12.17027
54.690 11.773607
54.695 11.082518
54.700 10.815262
54.705 10.518834
54.710 11.002682
54.715 10.748308
54.720 10.569628
54.725 10.886311
54.730 11.19754
54.735 11.271158
54.740 11.052225
54.745 11.157151
54.750 11.351955
54.755 11.483096
54.760 11.353282
54.765 11.467899
54.770 11.949885
54.775 12.207989
54.780 11.909916
54.785 12.285561
54.790 12.459211
54.795 12.767342
54.800 12.412521
54.805 12.232667
54.810 12.357883
54.815 12.280103
54.820 12.119559
54.825 11.96436
54.830 11.641191
54.835 11.937432
54.840 11.87544
54.845 11.485981
54.850 11.644585
54.855 11.977494
54.860 11.755862
54.865 11.736106
54.870 11.768562
54.875 11.681499
54.880 12.415068
54.885 11.975549
54.890 11.468759
54.895 11.974304
54.900 11.918999
54.905 11.674809
54.910 11.832954
54.915 11.326397
54.920 11.506172
54.925 11.447639
54.930 11.101179
54.935 11.509904
54.940 11.499713
54.945 11.207015
54.950 11.097416
54.955 10.956504
54.960 11.46605
54.965 11.360845
54.970 10.939694
54.975 10.65339
54.980 10.833261
54.985 11.578752
54.990 11.5887
54.995 11.313097
55.000 11.432774
55.005 11.634677
55.010 11.678305
55.015 12.042809
55.020 11.530922
55.025 11.281672
55.030 11.272249
55.035 11.33841
55.040 11.596665
55.045 11.585343
55.050 11.011477
55.055 11.238688
55.060 11.803597
55.065 12.039469
55.070 12.114746
55.075 12.091888
55.080 12.319141
55.085 12.264114
55.090 12.348464
55.095 12.481134
55.100 12.114776
55.105 11.854653
55.110 11.904406
55.115 12.346401
55.120 12.711111
55.125 12.671098
55.130 12.41543
55.135 12.771804
55.140 12.563759
55.145 12.278341
55.150 11.502892
55.155 11.257923
55.160 11.263122
55.165 10.759172
55.170 10.790979
55.175 10.985458
55.180 11.470072
55.185 11.669927
55.190 11.614667
55.195 11.563733
55.200 11.725692
55.205 11.248527
55.210 10.996628
55.215 11.011161
55.220 10.831948
55.225 10.589997
55.230 10.360401
55.235 10.175434
55.240 10.240792
55.245 10.818795
55.250 10.201884
55.255 10.197921
55.260 10.234793
55.265 11.122004
55.270 11.832165
55.275 11.801473
55.280 11.836058
55.285 12.674488
55.290 12.994044
55.295 12.938381
55.300 12.638978
55.305 12.492632
55.310 12.565787
55.315 11.961535
55.320 11.425816
55.325 11.438959
55.330 11.810978
55.335 11.73136
55.340 11.863786
55.345 11.50113
55.350 11.803125
55.355 12.009011
55.360 12.24869
55.365 11.442521
55.370 11.435163
55.375 11.534595
55.380 11.636645
55.385 11.57954
55.390 11.235128
55.395 11.134149
55.400 11.354149
55.405 11.188858
55.410 11.270458
55.415 11.479947
55.420 11.594506
55.425 11.670602
55.430 11.512907
55.435 11.577244
55.440 11.307098
55.445 11.06594
55.450 10.928173
55.455 10.757141
55.460 10.744541
55.465 11.327254
55.470 11.615718
55.475 12.016942
55.480 12.320137
55.485 12.362287
55.490 13.014033
55.495 13.312314
55.500 13.339083
55.505 13.537808
55.510 13.469993
55.515 13.787894
55.520 13.848112
55.525 13.359883
55.530 13.145998
55.535 13.011643
55.540 13.205731
55.545 12.984722
55.550 12.654525
55.555 12.340321
55.560 12.575288
55.565 12.728251
55.570 12.626008
55.575 12.707124
55.580 12.92784
55.585 13.256133
55.590 13.464561
55.595 13.625451
55.600 13.050747
55.605 12.656822
55.610 12.537832
55.615 12.052875
55.620 11.893419
55.625 11.726746
55.630 12.008569
55.635 12.282382
55.640 12.070892
55.645 12.005164
55.650 12.055738
55.655 12.596996
55.660 12.886057
55.665 12.411892
55.670 12.366473
55.675 12.155065
55.680 12.078183
55.685 12.252204
55.690 11.521864
55.695 11.25574
55.700 11.6499
55.705 11.587182
55.710 11.492828
55.715 11.624496
55.720 11.819172
55.725 11.727225
55.730 11.294025
55.735 10.553331
55.740 10.520267
55.745 10.416345
55.750 10.171955
55.755 10.104662
55.760 10.478535
55.765 10.895666
55.770 11.931088
55.775 12.325725
55.780 12.642395
55.785 12.165343
55.790 11.702823
55.795 11.608688
55.800 11.415998
55.805 11.084826
55.810 11.924743
55.815 12.183752
55.820 12.676817
55.825 13.171528
55.830 13.702533
55.835 13.729339
55.840 13.278152
55.845 13.169431
55.850 13.172366
55.855 13.215564
55.860 12.775277
55.865 12.422405
55.870 12.485643
55.875 12.570843
55.880 12.468378
55.885 12.798018
55.890 13.091781
55.895 13.168445
55.900 12.943287
55.905 12.599105
55.910 12.850603
55.915 12.72354
55.920 12.979239
55.925 12.959267
55.930 12.914508
55.935 13.273933
55.940 13.51647
55.945 13.474686
55.950 13.47186
55.955 13.029295
55.960 13.295362
55.965 13.506049
55.970 13.689165
55.975 13.593469
55.980 13.013791
55.985 12.70128
55.990 12.418553
55.995 11.531958
56.000 11.413435
56.005 10.972868
56.010 11.113374
56.015 11.347278
56.020 11.205658
56.025 11.162981
56.030 11.956214
56.035 12.367443
56.040 12.430526
56.045 12.554604
56.050 12.312654
56.055 12.393828
56.060 12.480234
56.065 12.093319
56.070 12.211339
56.075 11.982685
56.080 12.238914
56.085 12.655951
56.090 12.888627
56.095 12.853138
56.100 12.783936
56.105 12.877426
56.110 13.132029
56.115 12.502424
56.120 11.74768
56.125 12.048883
56.130 12.432446
56.135 12.422502
56.140 12.813347
56.145 12.3382
56.150 12.405162
56.155 12.952335
56.160 12.16285
56.165 11.910299
56.170 11.973508
56.175 11.197505
56.180 11.377191
56.185 11.402266
56.190 11.519769
56.195 12.056065
56.200 12.255461
56.205 12.504899
56.210 12.948339
56.215 14.087687
56.220 14.794558
56.225 15.214268
56.230 15.321182
56.235 15.282037
56.240 15.092922
56.245 15.148352
56.250 14.214333
56.255 13.741679
56.260 13.154114
56.265 13.004498
56.270 13.189154
56.275 13.572791
56.280 13.664509
56.285 14.314921
56.290 14.598352
56.295 14.647432
56.300 14.388731
56.305 13.863118
56.310 13.776203
56.315 13.834856
56.320 13.488119
56.325 13.382563
56.330 12.889488
56.335 13.284898
56.340 13.712947
56.345 13.624022
56.350 13.522709
56.355 13.450091
56.360 13.865389
56.365 14.184585
56.370 14.008251
56.375 13.765051
56.380 13.586299
56.385 13.278016
56.390 13.112627
56.395 12.556594
56.400 12.567945
56.405 12.936195
56.410 12.637321
56.415 12.37114
56.420 12.918947
56.425 12.792161
56.430 13.142382
56.435 13.080617
56.440 12.895826
56.445 13.398887
56.450 13.672467
56.455 13.267507
56.460 13.376423
56.465 13.192572
56.470 12.767371
56.475 12.48819
56.480 12.363249
56.485 12.279709
56.490 12.390628
56.495 12.362464
56.500 12.072743
56.505 11.746351
56.510 11.888454
56.515 11.994025
56.520 11.799712
56.525 11.540088
56.530 11.769304
56.535 12.033671
56.540 12.65566
56.545 12.331773
56.550 12.370622
56.555 12.748091
56.560 12.605635
56.565 12.530454
56.570 12.693053
56.575 12.651476
56.580 12.656287
56.585 12.374534
56.590 12.339128
56.595 12.598119
56.600 13.055598
56.605 13.70404
56.610 13.766392
56.615 13.934426
56.620 13.895672
56.625 13.581369
56.630 13.471289
56.635 13.168407
56.640 12.163949
56.645 11.702939
56.650 11.907022
56.655 12.131672
56.660 12.448459
56.665 12.246649
56.670 11.662952
56.675 12.418437
56.680 12.811956
56.685 12.504077
56.690 12.496534
56.695 13.029484
56.700 12.880671
56.705 12.959584
56.710 12.549256
56.715 12.661786
56.720 12.814063
56.725 12.193849
56.730 12.005725
56.735 12.986128
56.740 12.922236
56.745 12.527063
56.750 13.04388
56.755 13.168481
56.760 13.571339
56.765 13.15558
56.770 13.11418
56.775 13.728328
56.780 13.977166
56.785 13.785294
56.790 14.141932
56.795 14.14467
56.800 14.389522
56.805 13.987442
56.810 13.956257
56.815 13.928436
56.820 13.679098
56.825 13.236935
56.830 13.012534
56.835 13.074254
56.840 13.492303
56.845 13.858225
56.850 14.101151
56.855 14.024967
56.860 13.976741
56.865 13.937877
56.870 13.396214
56.875 13.204234
56.880 13.363385
56.885 13.600891
56.890 13.386605
56.895 13.453464
56.900 13.489198
56.905 13.623083
56.910 13.812913
56.915 14.250488
56.920 13.799078
56.925 14.238804
56.930 14.429643
56.935 14.777881
56.940 14.951045
56.945 13.852803
56.950 13.110619
56.955 13.440594
56.960 13.997364
56.965 13.527196
56.970 13.353992
56.975 13.179605
56.980 13.113729
56.985 13.100602
56.990 12.628422
56.995 12.548987
57.000 13.227661
57.005 13.028832
57.010 13.218946
57.015 13.586205
57.020 13.810258
57.025 13.897631
57.030 13.784283
57.035 13.876773
57.040 14.046357
57.045 13.656744
57.050 13.663192
57.055 13.880735
57.060 13.56504
57.065 13.565947
57.070 13.532275
57.075 13.968137
57.080 14.514215
57.085 14.112096
57.090 14.134647
57.095 14.605196
57.100 14.562688
57.105 14.45486
57.110 14.214871
57.115 14.440432
57.120 15.058501
57.125 15.243235
57.130 15.36376
57.135 15.099876
57.140 15.05359
57.145 14.747832
57.150 14.282809
57.155 13.425982
57.160 12.499135
57.165 11.799589
57.170 11.591813
57.175 11.585762
57.180 11.886504
57.185 12.013019
57.190 12.499905
57.195 12.887658
57.200 13.594867
57.205 13.75173
57.210 13.972181
57.215 14.328382
57.220 14.476954
57.225 14.304874
57.230 14.588219
57.235 14.184701
57.240 14.359691
57.245 14.808982
57.250 15.022381
57.255 15.554135
57.260 15.370564
57.265 15.221828
57.270 15.673841
57.275 15.661564
57.280 15.257805
57.285 15.083931
57.290 14.363514
57.295 14.561472
57.300 14.529238
57.305 14.441307
57.310 13.808446
57.315 13.614226
57.320 13.49473
57.325 13.72223
57.330 13.975986
57.335 13.963838
57.340 13.817706
57.345 14.208968
57.350 13.834877
57.355 13.906728
57.360 14.310029
57.365 14.025627
57.370 13.950553
57.375 14.841897
57.380 15.272157
57.385 15.593614
57.390 15.705796
57.395 15.309852
57.400 15.435912
57.405 15.250905
57.410 14.726093
57.415 14.216653
57.420 14.404637
57.425 14.55246
57.430 14.621238
57.435 14.775067
57.440 14.993674
57.445 14.974843
57.450 14.969656
57.455 14.702851
57.460 14.679461
57.465 14.404965
57.470 14.068021
57.475 14.381079
57.480 15.12049
57.485 15.262933
57.490 14.987891
57.495 14.928871
57.500 15.083176
57.505 14.725644
57.510 14.375057
57.515 13.818042
57.520 13.745047
57.525 14.09275
57.530 14.135316
57.535 14.404662
57.540 14.984935
57.545 14.517331
57.550 14.125944
57.555 14.87611
57.560 14.890662
57.565 14.770956
57.570 14.684855
57.575 14.296867
57.580 14.536119
57.585 14.998837
57.590 14.051156
57.595 14.492496
57.600 15.033026
57.605 14.950141
57.610 14.814037
57.615 14.434716
57.620 14.666176
57.625 15.412678
57.630 15.731126
57.635 15.806464
57.640 16.08197
57.645 16.669333
57.650 16.903273
57.655 16.195398
57.660 16.229641
57.665 15.865988
57.670 15.539551
57.675 15.964558
57.680 16.011501
57.685 16.400101
57.690 16.526764
57.695 15.875316
57.700 16.707003
57.705 16.588806
57.710 16.010836
57.715 16.05518
57.720 15.99169
57.725 16.274508
57.730 16.578403
57.735 15.06127
57.740 15.07193
57.745 14.592914
57.750 14.714004
57.755 14.725431
57.760 14.532828
57.765 15.059975
57.770 15.818079
57.775 16.463945
57.780 16.835649
57.785 16.717892
57.790 16.588182
57.795 16.37994
57.800 15.390385
57.805 14.899888
57.810 14.619672
57.815 14.597939
57.820 14.828694
57.825 14.957184
57.830 15.129249
57.835 15.381429
57.840 15.602311
57.845 15.412775
57.850 15.061295
57.855 14.755235
57.860 15.28454
57.865 15.500666
57.870 15.980966
57.875 15.974607
57.880 16.370281
57.885 16.995356
57.890 17.601662
57.895 17.125782
57.900 17.172092
57.905 16.85825
57.910 16.892412
57.915 17.014708
57.920 16.972862
57.925 16.795259
57.930 16.405268
57.935 15.76931
57.940 16.018381
57.945 16.082287
57.950 16.268465
57.955 15.959068
57.960 15.674045
57.965 16.239452
57.970 16.832541
57.975 16.830191
57.980 16.613699
57.985 16.323748
57.990 16.176041
57.995 16.474068
58.000 16.200239
58.005 15.618849
58.010 15.77223
58.015 15.662902
58.020 15.231502
58.025 15.587992
58.030 15.905031
58.035 16.301062
58.040 16.57992
58.045 16.205519
58.050 16.679802
58.055 17.200045
58.060 17.109905
58.065 16.567682
58.070 16.10821
58.075 15.732985
58.080 15.605639
58.085 14.997663
58.090 14.755904
58.095 14.535055
58.100 14.469763
58.105 15.282593
58.110 16.316334
58.115 16.776604
58.120 17.611895
58.125 18.099041
58.130 18.428841
58.135 18.862263
58.140 18.436367
58.145 17.956514
58.150 17.947502
58.155 17.704777
58.160 17.769089
58.165 17.919668
58.170 18.095385
58.175 18.319286
58.180 17.75481
58.185 17.902199
58.190 17.649818
58.195 17.299603
58.200 16.61846
58.205 15.771755
58.210 15.532032
58.215 15.906738
58.220 16.303644
58.225 17.191322
58.230 17.370951
58.235 17.643026
58.240 17.784304
58.245 18.16581
58.250 18.665199
58.255 17.741333
58.260 16.884752
58.265 16.980417
58.270 17.063087
58.275 17.913559
58.280 18.115517
58.285 18.151108
58.290 18.554136
58.295 19.22081
58.300 19.091412
58.305 19.431396
58.310 19.568001
58.315 19.838091
58.320 19.878351
58.325 20.217688
58.330 20.771481
58.335 21.52013
58.340 21.644825
58.345 21.126862
58.350 20.929096
58.355 20.891493
58.360 20.849939
58.365 20.486124
58.370 20.118469
58.375 19.963642
58.380 20.019497
58.385 20.50761
58.390 20.882225
58.395 21.395607
58.400 21.986401
58.405 22.509214
58.410 23.172768
58.415 23.845387
58.420 24.883129
58.425 25.05879
58.430 25.199089
58.435 25.393362
58.440 26.295057
58.445 26.632734
58.450 26.843086
58.455 26.517014
58.460 27.287836
