!@!!GADDS PLOTSO FILE: Chi integration type
!@!!Title/SampleName: map-2f
!@!!Comment: ?
!@!!User: Bruker Instrument Administrator
!@!!Site: University of Illinois Chicago
!@!!Frame: map-2f_01_000.gfrm
!@!!Wavelengths    1.54184   1.54056   1.54439
!@!!Frame angles: 2Theta: 63.000 Omega: 50.000 Phi: 0.000 Chi: 90.000
!@!!Integration range: 2Theta: 53.000 to 73.000  Gamma: -105.000 to -75.000
!@!!Integration method: bin normalized
!@!N
!@!SS
!@!M
!@!L 0.0 0.0 0.0 0.0
!@!XDegrees
!@!YCounts
53.000 9.59967
53.005 9.634123
53.010 9.521731
53.015 9.314094
53.020 9.311546
53.025 9.533168
53.030 9.380966
53.035 9.13845
53.040 8.908707
53.045 9.043797
53.050 9.315014
53.055 9.023088
53.060 9.363878
53.065 9.730912
53.070 9.616571
53.075 9.649266
53.080 9.33912
53.085 9.342032
53.090 9.565183
53.095 9.457749
53.100 9.864006
53.105 10.358416
53.110 10.960405
53.115 11.0438
53.120 10.848077
53.125 11.369682
53.130 11.421818
53.135 11.981411
53.140 11.833336
53.145 11.530869
53.150 11.227406
53.155 11.467165
53.160 11.111824
53.165 10.27847
53.170 9.45126
53.175 9.480209
53.180 9.782018
53.185 10.305933
53.190 9.722867
53.195 9.93523
53.200 10.055099
53.205 10.286167
53.210 9.95148
53.215 9.721771
53.220 9.535252
53.225 9.399005
53.230 9.577886
53.235 9.673815
53.240 9.34716
53.245 9.583851
53.250 9.770355
53.255 9.41549
53.260 9.269904
53.265 8.788847
53.270 8.567628
53.275 8.859294
53.280 9.062049
53.285 9.943172
53.290 10.630365
53.295 11.06496
53.300 11.493927
53.305 11.659058
53.310 11.462526
53.315 11.108723
53.320 10.963555
53.325 11.339668
53.330 11.540393
53.335 11.823801
53.340 11.926153
53.345 11.908744
53.350 11.859595
53.355 11.245368
53.360 11.001145
53.365 11.140194
53.370 11.268629
53.375 11.743494
53.380 11.783612
53.385 11.975863
53.390 11.712151
53.395 11.505033
53.400 11.130454
53.405 10.668036
53.410 10.590691
53.415 11.362827
53.420 11.680242
53.425 11.755332
53.430 11.432159
53.435 11.406318
53.440 11.209143
53.445 10.769068
53.450 9.99926
53.455 9.870178
53.460 10.078764
53.465 9.796077
53.470 10.05363
53.475 10.234479
53.480 10.556724
53.485 10.605762
53.490 10.993689
53.495 11.187753
53.500 11.799102
53.505 11.963004
53.510 12.390094
53.515 12.387626
53.520 12.324429
53.525 11.946608
53.530 11.622316
53.535 11.201558
53.540 11.388181
53.545 11.104679
53.550 11.176708
53.555 10.878995
53.560 10.943672
53.565 11.508418
53.570 11.579211
53.575 11.334676
53.580 11.242307
53.585 11.269325
53.590 11.526115
53.595 10.984386
53.600 10.552861
53.605 10.196245
53.610 10.234081
53.615 10.123817
53.620 9.945305
53.625 10.21742
53.630 10.69257
53.635 10.825351
53.640 11.261724
53.645 11.426193
53.650 11.523584
53.655 11.380556
53.660 10.974892
53.665 11.189407
53.670 11.322948
53.675 10.974038
53.680 10.301844
53.685 10.151045
53.690 10.413573
53.695 10.513536
53.700 10.782803
53.705 10.994302
53.710 11.018018
53.715 11.35836
53.720 11.524546
53.725 11.176348
53.730 11.321944
53.735 10.830332
53.740 10.620158
53.745 10.584442
53.750 10.356125
53.755 10.157043
53.760 10.171263
53.765 10.344482
53.770 10.328745
53.775 10.584576
53.780 11.087101
53.785 11.279002
53.790 11.07675
53.795 10.891827
53.800 10.717535
53.805 10.702482
53.810 10.359784
53.815 10.07851
53.820 9.772653
53.825 10.216928
53.830 9.853372
53.835 9.290948
53.840 9.468329
53.845 9.915328
53.850 10.320786
53.855 10.758924
53.860 11.192644
53.865 11.861305
53.870 12.478491
53.875 12.728619
53.880 12.647336
53.885 12.892658
53.890 12.919691
53.895 12.650522
53.900 12.274326
53.905 12.034352
53.910 11.705956
53.915 11.382616
53.920 10.987001
53.925 11.053452
53.930 10.891723
53.935 10.741135
53.940 10.690171
53.945 10.889828
53.950 11.137654
53.955 11.483475
53.960 11.437858
53.965 11.972449
53.970 12.044708
53.975 11.902333
53.980 11.850426
53.985 11.903365
53.990 11.801502
53.995 11.847567
54.000 11.286372
54.005 11.237941
54.010 11.133721
54.015 11.019038
54.020 11.293787
54.025 10.825738
54.030 10.782728
54.035 11.531546
54.040 11.817831
54.045 12.036262
54.050 11.719662
54.055 11.853621
54.060 12.238034
54.065 11.998869
54.070 11.545178
54.075 11.702308
54.080 12.250143
54.085 12.409921
54.090 12.384843
54.095 12.930376
54.100 12.796981
54.105 13.169685
54.110 12.982735
54.115 12.489665
54.120 12.414322
54.125 11.957952
54.130 11.860732
54.135 11.856312
54.140 11.78576
54.145 11.522642
54.150 11.625729
54.155 11.464207
54.160 11.526628
54.165 11.428322
54.170 11.320717
54.175 11.085438
54.180 11.592043
54.185 11.717983
54.190 12.008916
54.195 11.710479
54.200 11.023046
54.205 10.975725
54.210 10.759492
54.215 10.602314
54.220 10.326829
54.225 10.184961
54.230 10.572062
54.235 11.674484
54.240 12.195848
54.245 12.836345
54.250 12.918993
54.255 13.090549
54.260 13.303081
54.265 13.20262
54.270 13.342317
54.275 13.241215
54.280 12.918328
54.285 12.72597
54.290 12.939458
54.295 12.857259
54.300 13.361211
54.305 12.67586
54.310 12.171139
54.315 11.984289
54.320 11.521097
54.325 11.268656
54.330 11.205617
54.335 10.885861
54.340 11.11978
54.345 11.256778
54.350 11.22591
54.355 11.746661
54.360 12.099087
54.365 12.015491
54.370 12.117752
54.375 11.923946
54.380 12.011602
54.385 12.91554
54.390 12.647915
54.395 12.148713
54.400 11.79995
54.405 11.630282
54.410 11.470072
54.415 11.134522
54.420 10.441572
54.425 10.050254
54.430 10.265218
54.435 9.855352
54.440 9.88941
54.445 10.35225
54.450 10.616598
54.455 10.759389
54.460 11.101955
54.465 11.612062
54.470 11.58882
54.475 11.389135
54.480 11.168147
54.485 10.932936
54.490 10.602864
54.495 10.392986
54.500 9.934301
54.505 10.149814
54.510 10.235826
54.515 10.000449
54.520 10.206787
54.525 10.550854
54.530 10.505083
54.535 10.88573
54.540 10.951472
54.545 11.030165
54.550 11.343874
54.555 11.335692
54.560 11.402139
54.565 11.63284
54.570 11.671321
54.575 11.718899
54.580 11.348365
54.585 11.255548
54.590 11.228687
54.595 10.913218
54.600 10.840516
54.605 11.065701
54.610 11.565969
54.615 12.016376
54.620 11.78198
54.625 12.047245
54.630 12.338597
54.635 12.289501
54.640 12.074043
54.645 11.685709
54.650 11.982597
54.655 11.587249
54.660 11.251659
54.665 11.573682
54.670 11.703688
54.675 11.959719
54.680 12.319034
54.685 12.531761
54.690 13.169425
54.695 13.049663
54.700 12.392563
54.705 12.023745
54.710 11.98541
54.715 11.523796
54.720 10.963038
54.725 10.924319
54.730 11.359804
54.735 11.972985
54.740 12.620506
54.745 12.353683
54.750 12.713963
54.755 13.481283
54.760 13.731786
54.765 13.635898
54.770 13.212949
54.775 12.437712
54.780 12.605597
54.785 12.71969
54.790 11.736215
54.795 11.652237
54.800 11.722244
54.805 12.017168
54.810 12.508204
54.815 12.268793
54.820 12.024954
54.825 11.945212
54.830 11.318382
54.835 11.229114
54.840 11.397541
54.845 11.346536
54.850 11.720757
54.855 11.862191
54.860 12.308155
54.865 13.014904
54.870 13.313688
54.875 13.145566
54.880 12.843073
54.885 12.623355
54.890 12.695902
54.895 12.956923
54.900 12.549253
54.905 11.783725
54.910 11.689782
54.915 11.411
54.920 11.815651
54.925 11.902233
54.930 11.415272
54.935 11.506601
54.940 12.272511
54.945 12.605639
54.950 13.259393
54.955 13.401553
54.960 13.824847
54.965 13.887997
54.970 13.700319
54.975 13.462163
54.980 13.655854
54.985 13.905227
54.990 13.770865
54.995 13.568704
55.000 13.553499
55.005 13.379642
55.010 13.366884
55.015 13.306705
55.020 12.698895
55.025 12.352456
55.030 11.944861
55.035 12.278164
55.040 12.354302
55.045 12.168518
55.050 12.048312
55.055 12.791299
55.060 13.219847
55.065 13.261609
55.070 12.782379
55.075 12.615507
55.080 12.499985
55.085 12.088045
55.090 12.106124
55.095 12.020055
55.100 12.378238
55.105 12.599378
55.110 13.064407
55.115 13.271014
55.120 12.978389
55.125 12.576234
55.130 12.796662
55.135 13.146019
55.140 13.309606
55.145 12.972733
55.150 13.322411
55.155 13.379853
55.160 13.086809
55.165 12.998959
55.170 12.676847
55.175 12.821063
55.180 12.98005
55.185 12.978695
55.190 13.048013
55.195 13.471839
55.200 13.48745
55.205 13.370072
55.210 13.200283
55.215 13.247578
55.220 13.466232
55.225 13.886083
55.230 13.72253
55.235 13.589879
55.240 13.638909
55.245 13.909457
55.250 14.445794
55.255 14.321211
55.260 13.669597
55.265 13.349135
55.270 13.486625
55.275 13.830683
55.280 13.916842
55.285 13.400671
55.290 12.671207
55.295 12.702393
55.300 12.619578
55.305 12.279608
55.310 11.361823
55.315 10.959428
55.320 11.29493
55.325 12.278389
55.330 12.573328
55.335 12.48343
55.340 12.240235
55.345 12.237342
55.350 11.981653
55.355 11.895326
55.360 11.923103
55.365 12.285627
55.370 12.531941
55.375 12.719856
55.380 12.668715
55.385 12.662911
55.390 12.05534
55.395 11.875166
55.400 11.734579
55.405 11.958075
55.410 12.165669
55.415 12.513339
55.420 12.461516
55.425 12.785716
55.430 12.480222
55.435 12.25096
55.440 11.907467
55.445 11.775524
55.450 11.761518
55.455 11.773708
55.460 11.66578
55.465 11.835361
55.470 11.963058
55.475 12.152341
55.480 12.562513
55.485 12.192525
55.490 12.18936
55.495 12.371494
55.500 12.396165
55.505 12.982539
55.510 13.563512
55.515 13.543818
55.520 13.648062
55.525 13.558492
55.530 13.538229
55.535 13.501421
55.540 12.968198
55.545 12.638535
55.550 12.683096
55.555 12.936211
55.560 13.268806
55.565 13.412356
55.570 12.842619
55.575 12.681722
55.580 12.791266
55.585 13.040026
55.590 13.007272
55.595 12.756454
55.600 12.519528
55.605 13.101035
55.610 13.261503
55.615 13.330342
55.620 13.149296
55.625 12.568154
55.630 12.639989
55.635 12.8546
55.640 12.737823
55.645 12.387807
55.650 12.517947
55.655 12.540689
55.660 12.693166
55.665 12.953788
55.670 12.468428
55.675 12.515991
55.680 12.786922
55.685 12.819362
55.690 13.314922
55.695 13.389876
55.700 13.540965
55.705 14.089211
55.710 14.21179
55.715 14.276775
55.720 14.583301
55.725 14.666436
55.730 14.847289
55.735 14.635327
55.740 14.294092
55.745 13.942121
55.750 13.383862
55.755 13.15165
55.760 12.901982
55.765 12.579677
55.770 12.604063
55.775 12.584529
55.780 12.768376
55.785 13.327407
55.790 13.496467
55.795 13.645543
55.800 13.598711
55.805 13.615132
55.810 13.72223
55.815 13.264174
55.820 12.829157
55.825 12.093539
55.830 12.446699
55.835 12.505969
55.840 12.39676
55.845 12.273568
55.850 12.414959
55.855 12.455344
55.860 12.911354
55.865 13.137975
55.870 13.06179
55.875 12.686061
55.880 12.798263
55.885 12.676815
55.890 12.55557
55.895 11.967244
55.900 11.876931
55.905 12.295991
55.910 12.86712
55.915 12.910966
55.920 13.635332
55.925 13.899955
55.930 14.011234
55.935 13.512032
55.940 13.249269
55.945 13.036901
55.950 12.717871
55.955 11.862936
55.960 11.631176
55.965 11.608334
55.970 11.552054
55.975 11.910018
55.980 11.956643
55.985 12.324492
55.990 12.698884
55.995 12.897261
56.000 12.823486
56.005 12.770125
56.010 12.479355
56.015 12.645156
56.020 12.888495
56.025 13.140696
56.030 13.164694
56.035 13.478909
56.040 13.627541
56.045 14.19805
56.050 14.193941
56.055 13.874935
56.060 13.833741
56.065 14.23828
56.070 14.328626
56.075 14.24275
56.080 13.573387
56.085 13.275949
56.090 13.42748
56.095 13.529516
56.100 13.213415
56.105 12.933548
56.110 12.784836
56.115 12.792204
56.120 12.616884
56.125 12.722117
56.130 12.668501
56.135 12.791373
56.140 12.576473
56.145 12.700353
56.150 13.064737
56.155 13.175057
56.160 12.882771
56.165 12.974134
56.170 13.277658
56.175 13.718947
56.180 13.682113
56.185 13.571004
56.190 13.93678
56.195 14.0419
56.200 14.288884
56.205 13.706855
56.210 13.606354
56.215 13.618731
56.220 13.816048
56.225 13.833961
56.230 13.797536
56.235 13.630845
56.240 13.870748
56.245 13.838743
56.250 14.255371
56.255 14.396716
56.260 13.97359
56.265 14.139449
56.270 14.329572
56.275 14.441101
56.280 14.862843
56.285 14.736835
56.290 15.120708
56.295 15.515067
56.300 15.16194
56.305 15.402928
56.310 16.106922
56.315 15.679494
56.320 15.533919
56.325 14.911635
56.330 14.684174
56.335 14.319598
56.340 13.799648
56.345 13.251019
56.350 12.942228
56.355 12.718838
56.360 12.780546
56.365 13.057798
56.370 13.323144
56.375 13.08688
56.380 12.552571
56.385 13.127419
56.390 13.368005
56.395 13.311533
56.400 13.34551
56.405 13.575137
56.410 13.995387
56.415 14.001562
56.420 13.447481
56.425 13.973107
56.430 14.291354
56.435 14.329028
56.440 14.093879
56.445 14.605916
56.450 14.918433
56.455 14.718139
56.460 13.871282
56.465 13.429547
56.470 13.069819
56.475 12.871754
56.480 12.800885
56.485 13.670284
56.490 13.811205
56.495 14.041971
56.500 14.248164
56.505 14.47232
56.510 14.772455
56.515 13.951865
56.520 13.526237
56.525 14.08166
56.530 13.757823
56.535 13.70639
56.540 13.876491
56.545 13.740601
56.550 13.983497
56.555 13.899678
56.560 13.71363
56.565 14.298244
56.570 14.303593
56.575 13.949996
56.580 14.127438
56.585 14.271574
56.590 14.30785
56.595 14.147996
56.600 13.683113
56.605 13.544769
56.610 14.037727
56.615 14.126965
56.620 14.502127
56.625 14.563473
56.630 14.175586
56.635 14.111054
56.640 13.909828
56.645 13.262456
56.650 12.932701
56.655 12.818483
56.660 13.051489
56.665 13.27228
56.670 13.572896
56.675 14.120269
56.680 14.867838
56.685 14.981853
56.690 14.905602
56.695 15.463433
56.700 15.752666
56.705 15.453017
56.710 15.262888
56.715 15.223361
56.720 14.967164
56.725 14.999998
56.730 14.055927
56.735 13.749811
56.740 13.558533
56.745 13.516662
56.750 13.536459
56.755 13.512277
56.760 13.873594
56.765 14.773985
56.770 15.269341
56.775 15.322448
56.780 14.821774
56.785 14.331943
56.790 14.143745
56.795 13.932845
56.800 13.803302
56.805 14.104216
56.810 14.346337
56.815 14.826326
56.820 15.151127
56.825 15.154786
56.830 14.684909
56.835 14.508684
56.840 13.97113
56.845 14.030884
56.850 13.760108
56.855 13.901051
56.860 13.924136
56.865 14.330234
56.870 14.616484
56.875 15.192823
56.880 15.405828
56.885 15.379938
56.890 15.701344
56.895 15.721707
56.900 15.640844
56.905 15.324558
56.910 15.088989
56.915 15.011427
56.920 15.459973
56.925 15.783745
56.930 16.131281
56.935 16.02849
56.940 15.628857
56.945 15.255079
56.950 14.965854
56.955 14.774384
56.960 14.650132
56.965 14.638931
56.970 14.75076
56.975 15.26889
56.980 15.562213
56.985 15.540568
56.990 15.085717
56.995 14.979276
57.000 14.590307
57.005 14.62658
57.010 14.920977
57.015 14.839745
57.020 14.877437
57.025 15.181005
57.030 15.261966
57.035 15.17083
57.040 14.424318
57.045 13.708657
57.050 13.899284
57.055 13.819767
57.060 13.179108
57.065 13.142435
57.070 13.54149
57.075 13.799183
57.080 14.266121
57.085 13.985514
57.090 13.517339
57.095 13.374203
57.100 12.937828
57.105 12.560932
57.110 12.678
57.115 12.734536
57.120 13.097712
57.125 13.562045
57.130 13.571333
57.135 13.720109
57.140 14.161544
57.145 14.604513
57.150 14.161783
57.155 14.317516
57.160 14.6899
57.165 14.664044
57.170 14.422599
57.175 14.522185
57.180 14.653184
57.185 15.11181
57.190 15.092532
57.195 15.276999
57.200 16.167976
57.205 16.79006
57.210 16.565792
57.215 16.287933
57.220 15.927686
57.225 15.570078
57.230 15.19741
57.235 14.495461
57.240 13.586438
57.245 13.325257
57.250 13.504823
57.255 13.887782
57.260 13.731489
57.265 13.619588
57.270 13.833879
57.275 14.670637
57.280 14.651829
57.285 14.518806
57.290 14.683534
57.295 15.045007
57.300 15.363771
57.305 15.648666
57.310 15.609469
57.315 16.013983
57.320 16.225042
57.325 16.818825
57.330 16.91589
57.335 17.017746
57.340 17.380526
57.345 17.123955
57.350 17.082918
57.355 17.028797
57.360 16.654425
57.365 16.970806
57.370 17.009363
57.375 17.040731
57.380 17.311197
57.385 17.181595
57.390 17.016651
57.395 16.712614
57.400 16.648712
57.405 16.02462
57.410 15.989515
57.415 15.811853
57.420 15.821484
57.425 15.434426
57.430 15.333276
57.435 15.005885
57.440 14.751701
57.445 14.538071
57.450 14.833106
57.455 15.122103
57.460 15.688351
57.465 16.134094
57.470 16.241798
57.475 16.215405
57.480 16.268858
57.485 16.053658
57.490 15.188671
57.495 14.877654
57.500 14.82911
57.505 15.108174
57.510 15.393926
57.515 15.447678
57.520 16.276567
57.525 17.044117
57.530 16.80361
57.535 16.503483
57.540 16.454781
57.545 16.514383
57.550 16.644672
57.555 15.813403
57.560 15.271458
57.565 15.385215
57.570 15.050497
57.575 15.483882
57.580 15.087354
57.585 14.912061
57.590 15.620255
57.595 15.992987
57.600 15.90114
57.605 16.271597
57.610 15.987938
57.615 15.953932
57.620 15.679221
57.625 15.85012
57.630 16.254942
57.635 16.219698
57.640 16.026386
57.645 15.931981
57.650 16.36648
57.655 16.348957
57.660 15.983974
57.665 15.578664
57.670 15.517855
57.675 15.805269
57.680 16.121517
57.685 15.779196
57.690 15.568953
57.695 15.685575
57.700 15.97628
57.705 16.356056
57.710 16.407612
57.715 16.33395
57.720 16.828512
57.725 17.454563
57.730 17.438244
57.735 17.15563
57.740 16.642834
57.745 16.68911
57.750 16.833828
57.755 16.837395
57.760 16.823715
57.765 17.300737
57.770 17.644018
57.775 17.866043
57.780 17.279062
57.785 17.034101
57.790 17.003601
57.795 16.584179
57.800 16.146652
57.805 16.245546
57.810 16.998617
57.815 17.580217
57.820 17.86594
57.825 18.027918
57.830 18.509693
57.835 18.298923
57.840 18.067083
57.845 17.987606
57.850 17.807434
57.855 17.015057
57.860 16.387676
57.865 16.481298
57.870 16.706577
57.875 16.617935
57.880 16.076784
57.885 16.06118
57.890 16.313299
57.895 16.59569
57.900 16.423298
57.905 16.550045
57.910 16.17462
57.915 16.707397
57.920 16.684759
57.925 16.496506
57.930 16.157515
57.935 15.709589
57.940 16.166069
57.945 16.609955
57.950 16.450045
57.955 16.694313
57.960 16.832815
57.965 17.573387
57.970 17.937014
57.975 17.677662
57.980 17.441881
57.985 17.782543
57.990 17.682756
57.995 17.138371
58.000 16.605364
58.005 16.191702
58.010 16.467325
58.015 16.923073
58.020 16.636713
58.025 16.824188
58.030 17.449594
58.035 18.252544
58.040 18.87331
58.045 18.531219
58.050 18.208202
58.055 17.747793
58.060 17.553978
58.065 17.237967
58.070 16.747879
58.075 16.301968
58.080 16.084049
58.085 16.14122
58.090 16.475338
58.095 16.204912
58.100 16.584764
58.105 16.852579
58.110 17.111885
58.115 17.779732
58.120 18.11236
58.125 18.339622
58.130 18.325056
58.135 17.994143
58.140 17.971083
58.145 18.345621
58.150 18.123152
58.155 18.169147
58.160 18.731581
58.165 18.812683
58.170 18.483311
58.175 18.495903
58.180 18.754736
58.185 18.689671
58.190 18.588142
58.195 18.791636
58.200 19.306911
58.205 19.841156
58.210 20.205286
58.215 19.771196
58.220 19.552349
58.225 19.362772
58.230 19.396091
58.235 18.87439
58.240 18.86878
58.245 18.881363
58.250 19.504978
58.255 19.696718
58.260 19.551741
58.265 19.195114
58.270 20.177023
58.275 20.186064
58.280 20.366026
58.285 20.612833
58.290 20.594063
58.295 20.945574
58.300 21.091124
58.305 21.086262
58.310 21.079271
58.315 20.321138
58.320 20.17502
58.325 20.432419
58.330 20.785217
58.335 21.674515
58.340 21.676058
58.345 21.880033
58.350 22.269381
58.355 23.163572
58.360 23.783854
58.365 23.586552
58.370 23.30472
58.375 23.352127
58.380 23.383665
58.385 24.429253
58.390 24.619152
58.395 24.830299
58.400 25.148687
58.405 25.381262
58.410 25.386656
58.415 25.350065
58.420 25.280382
58.425 24.836159
58.430 25.442516
58.435 25.827198
58.440 25.470327
58.445 26.051609
58.450 26.159475
