!@!!GADDS PLOTSO FILE: Chi integration type
!@!!Title/SampleName: map-100
!@!!Comment: ?
!@!!User: Bruker Instrument Administrator
!@!!Site: University of Illinois Chicago
!@!!Frame: map-100_01_000.gfrm
!@!!Wavelengths    1.54184   1.54056   1.54439
!@!!Frame angles: 2Theta: 63.000 Omega: 50.000 Phi: 0.000 Chi: 90.000
!@!!Integration range: 2Theta: 53.000 to 73.000  Gamma: -105.000 to -75.000
!@!!Integration method: bin normalized
!@!N
!@!SS
!@!M
!@!L 0.0 0.0 0.0 0.0
!@!XDegrees
!@!YCounts
53.000 9.825446
53.005 9.802996
53.010 9.629218
53.015 9.868378
53.020 9.855051
53.025 10.181361
53.030 10.176692
53.035 10.150202
53.040 10.538562
53.045 10.309362
53.050 9.972705
53.055 9.611143
53.060 9.449321
53.065 9.326465
53.070 9.282948
53.075 9.073499
53.080 9.461673
53.085 9.783408
53.090 10.086539
53.095 9.968569
53.100 10.181383
53.105 10.044276
53.110 10.45341
53.115 10.577209
53.120 10.730138
53.125 10.601055
53.130 10.478552
53.135 10.331106
53.140 9.908709
53.145 9.517783
53.150 8.981196
53.155 8.653337
53.160 8.904493
53.165 8.984795
53.170 9.524042
53.175 9.600441
53.180 9.251276
53.185 9.137545
53.190 8.970066
53.195 8.780269
53.200 8.678748
53.205 8.548681
53.210 8.509926
53.215 8.650478
53.220 8.734632
53.225 9.175496
53.230 9.505908
53.235 9.732697
53.240 9.546861
53.245 10.067626
53.250 10.479493
53.255 10.689455
53.260 10.554444
53.265 10.404037
53.270 10.308142
53.275 10.592726
53.280 10.526616
53.285 10.422566
53.290 10.492952
53.295 10.036767
53.300 10.351008
53.305 10.534978
53.310 10.738493
53.315 10.600687
53.320 10.369115
53.325 10.153583
53.330 10.362646
53.335 9.714983
53.340 9.312075
53.345 8.751628
53.350 8.729854
53.355 8.860502
53.360 9.265076
53.365 9.48638
53.370 9.614891
53.375 10.080534
53.380 10.370254
53.385 11.11478
53.390 11.274187
53.395 10.883642
53.400 10.666468
53.405 10.68462
53.410 10.428582
53.415 10.074244
53.420 8.893979
53.425 8.514642
53.430 8.749308
53.435 8.55832
53.440 8.574484
53.445 8.550933
53.450 8.507142
53.455 8.783072
53.460 9.019949
53.465 8.888074
53.470 9.263734
53.475 9.046968
53.480 9.064194
53.485 9.864381
53.490 10.169977
53.495 10.40442
53.500 10.31769
53.505 10.202633
53.510 10.807109
53.515 11.283854
53.520 10.965746
53.525 10.962434
53.530 10.359688
53.535 10.737114
53.540 10.924552
53.545 10.702114
53.550 10.22732
53.555 10.010839
53.560 9.947388
53.565 10.489979
53.570 9.951609
53.575 9.44819
53.580 9.193675
53.585 9.4268
53.590 9.615685
53.595 9.967581
53.600 9.198449
53.605 9.506868
53.610 9.713463
53.615 9.933653
53.620 10.368538
53.625 10.496968
53.630 10.920209
53.635 11.781776
53.640 11.849883
53.645 12.04506
53.650 12.06511
53.655 11.770672
53.660 11.77408
53.665 11.451781
53.670 11.145839
53.675 11.383148
53.680 10.86943
53.685 10.250301
53.690 10.082886
53.695 9.996273
53.700 9.734951
53.705 9.601247
53.710 9.965483
53.715 10.118224
53.720 10.359577
53.725 10.474048
53.730 10.880899
53.735 11.023791
53.740 11.088071
53.745 10.814516
53.750 10.949152
53.755 11.054237
53.760 10.74255
53.765 10.393509
53.770 10.675664
53.775 10.796882
53.780 10.846762
53.785 10.903106
53.790 10.660883
53.795 10.768807
53.800 10.844374
53.805 10.913926
53.810 11.014603
53.815 11.060965
53.820 11.315535
53.825 11.726852
53.830 11.706997
53.835 11.455522
53.840 10.780679
53.845 10.259287
53.850 10.162195
53.855 9.790318
53.860 9.393429
53.865 9.614936
53.870 9.651451
53.875 10.138418
53.880 10.225836
53.885 10.295206
53.890 10.311991
53.895 10.592027
53.900 10.754548
53.905 10.917994
53.910 10.769673
53.915 10.675734
53.920 10.512622
53.925 10.300026
53.930 9.715125
53.935 9.033431
53.940 8.782207
53.945 8.853207
53.950 9.131352
53.955 9.224971
53.960 9.807916
53.965 10.315202
53.970 10.40937
53.975 10.605395
53.980 10.005062
53.985 9.852252
53.990 9.774562
53.995 9.2725
54.000 9.318353
54.005 9.326474
54.010 9.683947
54.015 10.2513
54.020 10.289597
54.025 10.329527
54.030 9.995666
54.035 9.913116
54.040 10.000656
54.045 9.42624
54.050 9.246792
54.055 9.364288
54.060 9.171443
54.065 9.930007
54.070 10.245692
54.075 10.254573
54.080 10.723958
54.085 10.96242
54.090 11.151248
54.095 11.497884
54.100 11.120967
54.105 10.988893
54.110 10.764085
54.115 10.534348
54.120 10.351823
54.125 10.357271
54.130 10.175845
54.135 10.309552
54.140 10.367295
54.145 10.737885
54.150 10.594378
54.155 10.349646
54.160 10.447049
54.165 10.739764
54.170 10.818425
54.175 11.181603
54.180 11.047957
54.185 11.259012
54.190 11.717213
54.195 11.757083
54.200 11.929646
54.205 11.815455
54.210 11.79799
54.215 11.856367
54.220 11.411269
54.225 10.796188
54.230 10.667439
54.235 10.338345
54.240 10.025672
54.245 9.997494
54.250 10.121483
54.255 10.318376
54.260 10.839427
54.265 10.867945
54.270 11.010999
54.275 10.962548
54.280 10.796474
54.285 10.706633
54.290 10.457152
54.295 9.963565
54.300 9.982841
54.305 10.273319
54.310 10.706482
54.315 10.37432
54.320 10.870111
54.325 11.303934
54.330 11.757644
54.335 11.722321
54.340 11.508406
54.345 11.447442
54.350 11.382025
54.355 10.788879
54.360 10.401101
54.365 10.317102
54.370 10.108994
54.375 10.099356
54.380 10.323907
54.385 10.736864
54.390 10.74725
54.395 11.511265
54.400 11.48503
54.405 11.119666
54.410 11.143101
54.415 10.814493
54.420 10.694411
54.425 10.62919
54.430 10.137707
54.435 10.22403
54.440 10.090548
54.445 10.087761
54.450 10.048595
54.455 10.039256
54.460 10.086493
54.465 10.209183
54.470 11.054391
54.475 11.632293
54.480 11.960897
54.485 11.943886
54.490 12.004475
54.495 12.236852
54.500 12.108469
54.505 11.227251
54.510 10.754875
54.515 10.487156
54.520 10.698667
54.525 10.865548
54.530 10.751203
54.535 10.5036
54.540 10.555249
54.545 10.842583
54.550 11.295218
54.555 11.619541
54.560 11.691669
54.565 11.663713
54.570 11.684008
54.575 11.833246
54.580 11.677307
54.585 11.536928
54.590 11.057921
54.595 10.799808
54.600 10.959774
54.605 11.208896
54.610 10.730698
54.615 10.642469
54.620 10.592428
54.625 10.614792
54.630 10.581699
54.635 10.621098
54.640 10.085208
54.645 9.915755
54.650 10.365782
54.655 10.452769
54.660 10.439861
54.665 10.456748
54.670 10.446408
54.675 10.738634
54.680 11.214845
54.685 11.175874
54.690 11.67766
54.695 11.659236
54.700 11.858319
54.705 12.312397
54.710 12.440502
54.715 12.237766
54.720 12.125534
54.725 11.97866
54.730 12.218421
54.735 11.929043
54.740 11.578494
54.745 11.258938
54.750 10.792442
54.755 9.822225
54.760 9.806295
54.765 9.456525
54.770 9.185231
54.775 8.715916
54.780 8.856034
54.785 9.613171
54.790 9.990143
54.795 10.173971
54.800 10.37341
54.805 10.935695
54.810 11.542687
54.815 11.647467
54.820 11.758945
54.825 11.448172
54.830 10.957446
54.835 10.591318
54.840 10.289859
54.845 10.893836
54.850 10.919044
54.855 10.7862
54.860 11.167336
54.865 11.705022
54.870 11.946383
54.875 11.784733
54.880 11.006135
54.885 10.677683
54.890 10.317986
54.895 10.171515
54.900 9.881811
54.905 10.004871
54.910 10.428029
54.915 10.946832
54.920 11.598416
54.925 11.854663
54.930 11.53368
54.935 11.516114
54.940 11.448725
54.945 11.49429
54.950 11.457609
54.955 10.976274
54.960 11.337734
54.965 11.831122
54.970 11.898273
54.975 11.65829
54.980 11.285367
54.985 10.945413
54.990 10.520563
54.995 10.187964
55.000 10.414717
55.005 10.981059
55.010 11.290247
55.015 11.560842
55.020 12.061849
55.025 12.94239
55.030 13.020617
55.035 12.876011
55.040 12.535517
55.045 12.163094
55.050 11.885811
55.055 11.41508
55.060 10.954183
55.065 10.968693
55.070 10.413384
55.075 10.638733
55.080 10.912637
55.085 10.689102
55.090 10.844011
55.095 10.761721
55.100 10.690081
55.105 10.541176
55.110 10.456589
55.115 11.236895
55.120 11.955589
55.125 12.066445
55.130 11.828741
55.135 12.38268
55.140 12.756835
55.145 12.645412
55.150 12.26187
55.155 12.230308
55.160 12.069001
55.165 11.937974
55.170 11.894932
55.175 11.835326
55.180 11.596107
55.185 11.148995
55.190 10.643078
55.195 10.664268
55.200 11.007645
55.205 10.620337
55.210 10.581225
55.215 10.829185
55.220 10.954476
55.225 11.237284
55.230 11.026244
55.235 11.127064
55.240 11.192848
55.245 11.494616
55.250 11.64055
55.255 11.563376
55.260 11.665371
55.265 11.907428
55.270 12.315293
55.275 11.969593
55.280 11.887156
55.285 11.81299
55.290 11.78167
55.295 11.791479
55.300 11.676696
55.305 11.5265
55.310 11.845513
55.315 11.329168
55.320 11.406432
55.325 12.295401
55.330 12.326812
55.335 12.210855
55.340 12.348873
55.345 12.269843
55.350 12.070302
55.355 11.825484
55.360 11.159728
55.365 11.21157
55.370 11.574238
55.375 11.321117
55.380 11.296961
55.385 11.133557
55.390 11.353256
55.395 11.430067
55.400 11.163496
55.405 10.576278
55.410 10.625909
55.415 10.699
55.420 10.94492
55.425 10.716043
55.430 10.340407
55.435 10.739037
55.440 11.259144
55.445 11.276954
55.450 11.39043
55.455 11.808689
55.460 12.114007
55.465 11.889791
55.470 11.628364
55.475 11.621184
55.480 12.005796
55.485 11.972034
55.490 11.765084
55.495 12.668921
55.500 13.36335
55.505 13.238177
55.510 13.427526
55.515 13.72177
55.520 13.469714
55.525 13.49921
55.530 12.863327
55.535 12.868103
55.540 12.969495
55.545 12.436428
55.550 11.923393
55.555 11.863704
55.560 11.491754
55.565 11.17797
55.570 10.758194
55.575 10.577054
55.580 10.644547
55.585 10.771358
55.590 11.477962
55.595 11.805862
55.600 11.965601
55.605 12.125017
55.610 11.841123
55.615 11.585121
55.620 11.810973
55.625 11.804404
55.630 11.693034
55.635 11.470783
55.640 11.299891
55.645 12.022414
55.650 12.64774
55.655 12.567443
55.660 12.231842
55.665 12.329087
55.670 12.75203
55.675 13.022838
55.680 12.743438
55.685 12.724669
55.690 12.353385
55.695 12.0877
55.700 12.607838
55.705 12.833645
55.710 12.7022
55.715 12.549202
55.720 12.196185
55.725 12.620583
55.730 12.323971
55.735 11.922761
55.740 11.713066
55.745 11.361491
55.750 11.334157
55.755 11.268986
55.760 11.262871
55.765 11.43543
55.770 10.951439
55.775 11.036968
55.780 11.682387
55.785 11.445707
55.790 11.525133
55.795 11.439196
55.800 11.554867
55.805 11.979706
55.810 11.819758
55.815 11.909448
55.820 12.407727
55.825 12.923929
55.830 13.986866
55.835 14.595172
55.840 14.772162
55.845 14.980499
55.850 14.979649
55.855 14.696484
55.860 14.453609
55.865 13.591154
55.870 12.65816
55.875 12.323459
55.880 11.925131
55.885 12.098088
55.890 12.262296
55.895 12.299175
55.900 12.504239
55.905 13.052372
55.910 12.861364
55.915 12.829161
55.920 12.538769
55.925 12.754375
55.930 13.171264
55.935 13.509983
55.940 13.887
55.945 14.262447
55.950 14.507276
55.955 14.521139
55.960 13.802506
55.965 13.492461
55.970 13.197698
55.975 12.744463
55.980 12.51264
55.985 12.565984
55.990 12.463048
55.995 12.870001
56.000 12.958967
56.005 13.008539
56.010 13.344563
56.015 13.187325
56.020 13.542216
56.025 13.463252
56.030 13.179917
56.035 13.004325
56.040 12.967505
56.045 12.429427
56.050 12.397467
56.055 12.611156
56.060 12.626131
56.065 12.532768
56.070 12.535742
56.075 12.927797
56.080 12.845151
56.085 12.743714
56.090 12.266052
56.095 11.811707
56.100 11.735289
56.105 11.573366
56.110 11.161577
56.115 12.400801
56.120 12.436115
56.125 12.377076
56.130 12.765395
56.135 12.892573
56.140 13.228378
56.145 14.221141
56.150 13.484228
56.155 13.528975
56.160 13.654669
56.165 13.557355
56.170 13.90461
56.175 13.498847
56.180 12.981369
56.185 12.590559
56.190 12.597871
56.195 12.408014
56.200 12.924496
56.205 12.963821
56.210 13.374931
56.215 13.494617
56.220 13.560869
56.225 13.739152
56.230 14.206897
56.235 13.757645
56.240 13.455134
56.245 13.286772
56.250 13.158234
56.255 13.299503
56.260 12.651314
56.265 12.504413
56.270 12.965561
56.275 13.186911
56.280 13.45977
56.285 13.293054
56.290 13.178439
56.295 13.75838
56.300 13.533925
56.305 13.297277
56.310 12.935594
56.315 12.77551
56.320 12.701492
56.325 12.827972
56.330 12.656048
56.335 13.089246
56.340 13.381106
56.345 13.005737
56.350 12.75824
56.355 13.072447
56.360 13.270951
56.365 13.496369
56.370 13.203594
56.375 13.275692
56.380 13.589267
56.385 13.340885
56.390 13.082202
56.395 13.076009
56.400 12.549774
56.405 11.921865
56.410 11.330363
56.415 10.845352
56.420 11.599263
56.425 12.855169
56.430 12.971231
56.435 12.888739
56.440 12.943079
56.445 13.865938
56.450 14.337255
56.455 13.835676
56.460 13.00633
56.465 13.208386
56.470 13.89645
56.475 13.978292
56.480 13.613782
56.485 13.679862
56.490 14.043027
56.495 13.483611
56.500 13.183629
56.505 13.209541
56.510 13.189611
56.515 13.102509
56.520 12.856549
56.525 12.879636
56.530 13.611017
56.535 13.499522
56.540 13.851642
56.545 14.105466
56.550 14.34417
56.555 14.371319
56.560 14.19795
56.565 14.275957
56.570 14.087527
56.575 13.611395
56.580 13.606134
56.585 13.449656
56.590 13.290392
56.595 13.040912
56.600 12.470397
56.605 12.553366
56.610 12.741439
56.615 12.812711
56.620 12.924223
56.625 13.335601
56.630 13.049884
56.635 13.252011
56.640 13.217431
56.645 13.160694
56.650 12.999966
56.655 13.155995
56.660 12.979877
56.665 13.529538
56.670 13.451159
56.675 13.274387
56.680 13.598717
56.685 14.035287
56.690 14.370559
56.695 14.739897
56.700 14.907273
56.705 15.069262
56.710 14.837299
56.715 14.42746
56.720 14.160993
56.725 14.072528
56.730 13.60864
56.735 13.494108
56.740 13.626127
56.745 13.939795
56.750 13.711412
56.755 13.502794
56.760 13.351408
56.765 13.654379
56.770 13.568515
56.775 13.980969
56.780 14.141972
56.785 14.568035
56.790 14.522765
56.795 14.488714
56.800 14.585966
56.805 14.765273
56.810 14.524748
56.815 14.682283
56.820 14.381587
56.825 14.847762
56.830 14.835001
56.835 14.619282
56.840 14.838837
56.845 14.718312
56.850 14.400404
56.855 14.290748
56.860 13.723553
56.865 13.602702
56.870 13.672208
56.875 13.710741
56.880 13.294516
56.885 13.493831
56.890 13.370608
56.895 13.772539
56.900 14.113869
56.905 13.964382
56.910 13.921515
56.915 14.147767
56.920 14.051769
56.925 13.969863
56.930 13.962628
56.935 14.502746
56.940 14.315145
56.945 14.240162
56.950 14.195765
56.955 14.143472
56.960 14.283937
56.965 13.817007
56.970 13.282853
56.975 13.707581
56.980 13.533077
56.985 13.843095
56.990 13.841149
56.995 13.903696
57.000 13.993625
57.005 13.704226
57.010 13.646384
57.015 13.522807
57.020 12.871005
57.025 13.113873
57.030 12.752546
57.035 12.784655
57.040 13.321321
57.045 14.122307
57.050 15.113519
57.055 16.01861
57.060 16.028154
57.065 16.314381
57.070 16.23797
57.075 15.917205
57.080 14.963877
57.085 14.111722
57.090 13.484498
57.095 13.029035
57.100 12.972127
57.105 12.926549
57.110 13.150721
57.115 13.042794
57.120 12.772017
57.125 12.404922
57.130 12.499537
57.135 12.631008
57.140 12.338157
57.145 11.796021
57.150 12.127963
57.155 12.44634
57.160 12.984504
57.165 13.373361
57.170 13.708202
57.175 14.014412
57.180 14.01501
57.185 13.974755
57.190 13.698417
57.195 13.243336
57.200 12.842105
57.205 12.488198
57.210 12.811675
57.215 13.259197
57.220 13.230133
57.225 13.793415
57.230 14.420668
57.235 14.500945
57.240 14.631567
57.245 13.816592
57.250 13.119995
57.255 12.95817
57.260 12.875302
57.265 13.165637
57.270 13.280725
57.275 13.21244
57.280 13.563573
57.285 13.759407
57.290 13.662539
57.295 13.49749
57.300 13.279021
57.305 13.625731
57.310 13.405253
57.315 13.811638
57.320 14.457424
57.325 15.396289
57.330 15.959609
57.335 15.972158
57.340 15.580366
57.345 15.387298
57.350 14.779771
57.355 13.768745
57.360 13.012864
57.365 12.751314
57.370 12.533523
57.375 12.773423
57.380 13.125567
57.385 13.216013
57.390 13.426348
57.395 13.346152
57.400 13.161708
57.405 13.435312
57.410 13.533184
57.415 13.861355
57.420 14.05306
57.425 14.064055
57.430 14.01835
57.435 14.240626
57.440 13.820974
57.445 13.798982
57.450 13.321366
57.455 13.577759
57.460 14.598598
57.465 14.624556
57.470 14.114757
57.475 14.395828
57.480 14.715138
57.485 15.242187
57.490 15.06145
57.495 15.179224
57.500 15.638738
57.505 15.842237
57.510 15.652656
57.515 15.02105
57.520 14.847972
57.525 14.7601
57.530 14.297296
57.535 14.280578
57.540 14.739607
57.545 15.059543
57.550 15.15108
57.555 15.092391
57.560 15.528162
57.565 15.161619
57.570 15.084262
57.575 14.861296
57.580 14.427481
57.585 14.948797
57.590 15.351642
57.595 15.192379
57.600 15.338806
57.605 15.390793
57.610 15.232203
57.615 15.356616
57.620 15.033313
57.625 15.120803
57.630 15.534197
57.635 15.436833
57.640 15.241578
57.645 15.439049
57.650 15.633265
57.655 15.964526
57.660 15.694722
57.665 15.228627
57.670 14.739073
57.675 14.581091
57.680 14.604329
57.685 14.598854
57.690 14.327094
57.695 14.245475
57.700 14.586267
57.705 15.279128
57.710 15.806476
57.715 15.900086
57.720 16.385548
57.725 16.352503
57.730 16.573782
57.735 16.315201
57.740 16.283258
57.745 16.204414
57.750 15.804795
57.755 15.848751
57.760 16.397604
57.765 16.522596
57.770 16.17836
57.775 15.697047
57.780 16.110077
57.785 16.785791
57.790 16.245642
57.795 15.896391
57.800 16.272402
57.805 17.223156
57.810 17.40737
57.815 16.689692
57.820 16.407366
57.825 16.797537
57.830 16.399418
57.835 15.511604
57.840 14.617281
57.845 15.072156
57.850 15.451196
57.855 15.437012
57.860 15.107973
57.865 15.259849
57.870 15.537261
57.875 16.227152
57.880 16.091118
57.885 16.216242
57.890 16.703346
57.895 16.876238
57.900 17.06284
57.905 16.791878
57.910 16.355682
57.915 16.253187
57.920 15.605522
57.925 14.923317
57.930 14.6966
57.935 14.756067
57.940 15.565464
57.945 15.842567
57.950 16.097836
57.955 16.459961
57.960 16.319452
57.965 15.945652
57.970 16.028326
57.975 15.633078
57.980 15.499043
57.985 15.311228
57.990 15.304769
57.995 15.616628
58.000 16.470249
58.005 16.580538
58.010 16.208668
58.015 16.211283
58.020 16.137327
58.025 16.30361
58.030 15.965811
58.035 15.608848
58.040 15.969226
58.045 17.113501
58.050 17.138683
58.055 17.207539
58.060 17.148582
58.065 17.347116
58.070 17.068743
58.075 16.546301
58.080 16.531691
58.085 17.064735
58.090 17.744133
58.095 18.1089
58.100 18.35359
58.105 18.735447
58.110 18.943272
58.115 18.092402
58.120 17.471252
58.125 16.9863
58.130 16.611647
58.135 16.258671
58.140 16.134975
58.145 16.53565
58.150 16.889744
58.155 16.963648
58.160 16.375446
58.165 16.341627
58.170 16.456898
58.175 16.46117
58.180 16.261635
58.185 16.61812
58.190 17.100838
58.195 17.418602
58.200 18.301104
58.205 18.943829
58.210 19.257408
58.215 18.994144
58.220 18.603245
58.225 18.07519
58.230 17.667583
58.235 17.280066
58.240 17.22802
58.245 17.48177
58.250 18.455364
58.255 19.281471
58.260 20.156567
58.265 20.315329
58.270 19.98394
58.275 20.272835
58.280 20.34367
58.285 19.817575
58.290 20.017065
58.295 20.338766
58.300 21.000204
58.305 21.369465
58.310 21.15296
58.315 21.148304
58.320 21.381865
58.325 21.406853
58.330 21.075768
58.335 21.376665
58.340 21.220629
58.345 21.273884
58.350 21.040388
58.355 20.985695
58.360 20.756607
58.365 20.801056
58.370 21.104923
58.375 21.936028
58.380 22.326935
58.385 23.51335
58.390 24.663021
58.395 25.245798
58.400 26.022421
58.405 26.151609
58.410 25.84761
58.415 25.80949
58.420 25.323259
58.425 25.186733
58.430 25.530443
58.435 25.508099
58.440 25.787157
58.445 25.792549
58.450 26.341946
58.455 27.081192
58.460 27.105078
58.465 27.228815
58.470 27.50058
