!@!!GADDS PLOTSO FILE: Chi integration type
!@!!Title/SampleName: map-1b
!@!!Comment: ?
!@!!User: Bruker Instrument Administrator
!@!!Site: University of Illinois Chicago
!@!!Frame: map-1b_01_000.gfrm
!@!!Wavelengths    1.54184   1.54056   1.54439
!@!!Frame angles: 2Theta: 63.000 Omega: 50.000 Phi: 0.000 Chi: 90.000
!@!!Integration range: 2Theta: 53.000 to 73.000  Gamma: -105.000 to -75.000
!@!!Integration method: bin normalized
!@!N
!@!SS
!@!M
!@!L 0.0 0.0 0.0 0.0
!@!XDegrees
!@!YCounts
53.000 9.875248
53.005 10.214358
53.010 10.552966
53.015 10.82289
53.020 11.240464
53.025 11.402582
53.030 11.162958
53.035 10.667873
53.040 10.164559
53.045 9.440613
53.050 9.338277
53.055 9.127189
53.060 8.991134
53.065 8.855558
53.070 8.388646
53.075 8.733362
53.080 8.714373
53.085 8.553749
53.090 8.582361
53.095 8.578074
53.100 8.805811
53.105 9.195664
53.110 9.282486
53.115 9.73533
53.120 9.524674
53.125 9.254334
53.130 9.215623
53.135 9.433164
53.140 8.984981
53.145 8.631234
53.150 7.822908
53.155 8.103268
53.160 8.393023
53.165 8.77402
53.170 8.613559
53.175 8.626085
53.180 8.726869
53.185 9.128844
53.190 9.07233
53.195 9.306759
53.200 9.432371
53.205 9.872508
53.210 9.718616
53.215 10.184129
53.220 10.265941
53.225 10.056466
53.230 9.688605
53.235 9.619674
53.240 9.89491
53.245 10.029619
53.250 9.624813
53.255 9.330764
53.260 9.227926
53.265 9.534569
53.270 9.765256
53.275 9.931793
53.280 10.686471
53.285 11.462859
53.290 11.711826
53.295 12.020627
53.300 11.352778
53.305 11.399539
53.310 10.977253
53.315 10.394683
53.320 9.946088
53.325 10.004024
53.330 9.639546
53.335 9.957199
53.340 9.963862
53.345 10.771907
53.350 11.065272
53.355 10.876882
53.360 10.740985
53.365 10.882105
53.370 10.898109
53.375 10.481636
53.380 9.899072
53.385 9.789167
53.390 10.224058
53.395 10.36408
53.400 9.86016
53.405 9.839023
53.410 10.138273
53.415 10.307487
53.420 10.415573
53.425 10.138292
53.430 10.349625
53.435 10.822932
53.440 10.436549
53.445 10.041781
53.450 9.491218
53.455 9.436765
53.460 9.857087
53.465 10.025675
53.470 9.83423
53.475 10.106567
53.480 10.039242
53.485 10.44573
53.490 10.687998
53.495 10.490788
53.500 10.261531
53.505 10.392525
53.510 10.724957
53.515 10.765445
53.520 10.256338
53.525 9.57305
53.530 9.883959
53.535 10.031238
53.540 9.976984
53.545 10.192945
53.550 10.278275
53.555 10.331571
53.560 10.500889
53.565 10.292868
53.570 10.651669
53.575 10.969581
53.580 10.46976
53.585 10.634949
53.590 11.442619
53.595 11.218349
53.600 11.106998
53.605 10.338512
53.610 9.854441
53.615 10.0334
53.620 9.766418
53.625 9.553259
53.630 9.72893
53.635 9.787113
53.640 9.981522
53.645 10.291625
53.650 10.106245
53.655 9.933431
53.660 9.930445
53.665 9.885882
53.670 9.819463
53.675 9.84438
53.680 9.811612
53.685 10.172602
53.690 11.08801
53.695 11.023899
53.700 11.121544
53.705 11.172374
53.710 11.528881
53.715 11.440729
53.720 11.062394
53.725 10.455788
53.730 10.393288
53.735 10.30594
53.740 9.961747
53.745 10.028481
53.750 10.038641
53.755 10.182954
53.760 10.337922
53.765 10.538075
53.770 10.687903
53.775 10.614318
53.780 10.394161
53.785 10.553623
53.790 10.627074
53.795 10.533133
53.800 11.339274
53.805 11.518742
53.810 11.655648
53.815 11.75633
53.820 11.996088
53.825 11.874346
53.830 11.516009
53.835 10.982444
53.840 10.684908
53.845 10.84061
53.850 10.553797
53.855 10.549868
53.860 10.598178
53.865 10.557981
53.870 10.554883
53.875 10.714008
53.880 10.83676
53.885 11.124343
53.890 11.106009
53.895 10.858186
53.900 10.692185
53.905 10.719885
53.910 10.808793
53.915 10.818164
53.920 10.599496
53.925 10.441081
53.930 10.883056
53.935 10.757911
53.940 10.841188
53.945 10.520261
53.950 10.491602
53.955 10.377146
53.960 10.741099
53.965 10.714809
53.970 10.665486
53.975 10.910482
53.980 10.882658
53.985 10.783586
53.990 10.713083
53.995 10.543168
54.000 10.687764
54.005 10.677172
54.010 10.569369
54.015 11.015024
54.020 11.274074
54.025 11.302103
54.030 11.195652
54.035 10.932644
54.040 11.323653
54.045 11.238259
54.050 11.272482
54.055 10.980547
54.060 11.386459
54.065 11.897962
54.070 11.949249
54.075 11.648906
54.080 11.542689
54.085 11.380099
54.090 11.667515
54.095 11.29792
54.100 11.122926
54.105 11.720838
54.110 11.738818
54.115 11.763666
54.120 11.795248
54.125 11.54174
54.130 11.722894
54.135 12.123052
54.140 11.763843
54.145 11.502347
54.150 11.413778
54.155 11.318306
54.160 11.499355
54.165 10.849498
54.170 10.510903
54.175 10.621707
54.180 10.61457
54.185 10.703038
54.190 10.637029
54.195 10.433859
54.200 10.722661
54.205 10.512161
54.210 10.807605
54.215 11.160104
54.220 11.000347
54.225 10.804134
54.230 11.067794
54.235 10.893422
54.240 10.992475
54.245 10.516325
54.250 10.508317
54.255 10.991035
54.260 11.056603
54.265 10.981215
54.270 11.190002
54.275 11.216107
54.280 11.610168
54.285 11.747693
54.290 11.081017
54.295 11.119115
54.300 11.069018
54.305 11.220941
54.310 11.110422
54.315 10.939851
54.320 11.01859
54.325 11.519212
54.330 11.798141
54.335 11.843903
54.340 11.917041
54.345 12.24184
54.350 11.93184
54.355 11.31501
54.360 11.046381
54.365 10.912711
54.370 10.09084
54.375 9.569513
54.380 9.345359
54.385 9.607031
54.390 10.008491
54.395 10.275701
54.400 10.523148
54.405 11.325182
54.410 11.965288
54.415 12.265615
54.420 12.714359
54.425 12.550245
54.430 12.257458
54.435 12.03718
54.440 12.427988
54.445 12.118962
54.450 12.383944
54.455 12.142247
54.460 12.135616
54.465 12.033646
54.470 11.82031
54.475 11.849221
54.480 11.77578
54.485 11.367448
54.490 11.614407
54.495 11.897164
54.500 12.159429
54.505 12.590948
54.510 12.298065
54.515 12.48677
54.520 12.057562
54.525 11.920858
54.530 11.811658
54.535 11.354307
54.540 10.594664
54.545 10.016961
54.550 10.024798
54.555 9.874198
54.560 10.041636
54.565 10.325919
54.570 10.687749
54.575 11.134435
54.580 11.219452
54.585 11.544195
54.590 11.83073
54.595 11.664269
54.600 11.526396
54.605 11.356614
54.610 11.318773
54.615 11.598676
54.620 11.801796
54.625 11.645109
54.630 11.692839
54.635 11.191897
54.640 11.416126
54.645 11.338473
54.650 11.169707
54.655 10.891954
54.660 10.803971
54.665 10.879055
54.670 11.201663
54.675 10.91729
54.680 10.404648
54.685 10.252285
54.690 10.976031
54.695 11.082486
54.700 10.902805
54.705 10.812818
54.710 11.296759
54.715 11.824203
54.720 11.653879
54.725 11.04149
54.730 10.925909
54.735 11.104242
54.740 11.203037
54.745 11.14849
54.750 10.990553
54.755 11.078115
54.760 11.138379
54.765 11.493106
54.770 11.709972
54.775 11.783365
54.780 11.599021
54.785 12.025867
54.790 11.67941
54.795 11.3943
54.800 11.407144
54.805 11.673647
54.810 11.760584
54.815 11.835672
54.820 11.755321
54.825 11.981174
54.830 12.262364
54.835 11.836144
54.840 11.618512
54.845 11.853743
54.850 12.045992
54.855 12.272213
54.860 12.485009
54.865 12.387399
54.870 12.197943
54.875 11.721182
54.880 11.61302
54.885 11.114984
54.890 11.254661
54.895 11.3836
54.900 11.523423
54.905 11.468493
54.910 11.626403
54.915 12.157374
54.920 12.56793
54.925 12.18348
54.930 11.756036
54.935 11.661294
54.940 12.085019
54.945 11.674383
54.950 10.677522
54.955 10.05784
54.960 9.956375
54.965 10.43345
54.970 10.420586
54.975 10.338681
54.980 10.641305
54.985 11.097898
54.990 11.777969
54.995 11.742216
55.000 11.834976
55.005 11.933851
55.010 11.957255
55.015 12.365384
55.020 12.689054
55.025 12.896626
55.030 13.093469
55.035 13.239901
55.040 13.445674
55.045 13.304624
55.050 13.174178
55.055 13.024325
55.060 12.889179
55.065 12.914113
55.070 12.70821
55.075 12.638283
55.080 13.031511
55.085 12.88012
55.090 12.764683
55.095 12.787822
55.100 12.464591
55.105 12.318275
55.110 12.356269
55.115 11.950596
55.120 11.715808
55.125 12.087925
55.130 12.100718
55.135 12.429096
55.140 12.654722
55.145 12.866138
55.150 12.837898
55.155 12.697162
55.160 12.057876
55.165 11.642241
55.170 11.48056
55.175 11.304626
55.180 11.036839
55.185 11.015988
55.190 11.082505
55.195 11.179394
55.200 10.928412
55.205 10.586864
55.210 10.211802
55.215 10.499599
55.220 10.658697
55.225 10.743657
55.230 10.932318
55.235 11.544412
55.240 12.518819
55.245 12.976432
55.250 12.752791
55.255 12.941443
55.260 12.843926
55.265 13.029197
55.270 13.079098
55.275 12.645105
55.280 12.714521
55.285 13.095158
55.290 13.10194
55.295 12.67379
55.300 12.35475
55.305 12.018203
55.310 12.236836
55.315 12.105536
55.320 12.055462
55.325 12.781143
55.330 13.277472
55.335 13.711175
55.340 13.426043
55.345 13.194007
55.350 13.154403
55.355 12.447814
55.360 11.552421
55.365 11.555378
55.370 11.447704
55.375 11.62044
55.380 12.038504
55.385 12.442946
55.390 13.071968
55.395 13.928309
55.400 13.263297
55.405 13.50847
55.410 13.507895
55.415 13.239618
55.420 13.019651
55.425 12.615315
55.430 12.55103
55.435 13.010481
55.440 12.907138
55.445 12.769971
55.450 12.59331
55.455 12.578798
55.460 12.673402
55.465 12.426935
55.470 12.293185
55.475 11.821115
55.480 11.625608
55.485 11.338989
55.490 11.389621
55.495 11.572268
55.500 11.503178
55.505 11.406169
55.510 11.742626
55.515 12.111737
55.520 11.906337
55.525 11.585812
55.530 11.164884
55.535 11.294148
55.540 11.0397
55.545 10.602241
55.550 11.371452
55.555 11.907123
55.560 12.441697
55.565 12.986093
55.570 13.030129
55.575 13.426741
55.580 13.844402
55.585 13.712703
55.590 14.07895
55.595 13.749252
55.600 13.066024
55.605 13.254077
55.610 13.442401
55.615 13.005338
55.620 12.521288
55.625 12.383435
55.630 12.477536
55.635 13.123642
55.640 13.668731
55.645 13.400665
55.650 13.493023
55.655 13.773687
55.660 13.841729
55.665 13.573293
55.670 12.996285
55.675 12.427901
55.680 13.011194
55.685 12.853518
55.690 13.110803
55.695 12.955941
55.700 13.095148
55.705 13.493971
55.710 13.560327
55.715 13.362201
55.720 13.110594
55.725 12.77454
55.730 12.851752
55.735 13.279613
55.740 12.963905
55.745 13.003535
55.750 13.175575
55.755 13.505988
55.760 13.349685
55.765 13.148321
55.770 13.195744
55.775 13.144095
55.780 12.625387
55.785 12.371008
55.790 12.094959
55.795 11.916092
55.800 12.017488
55.805 12.058063
55.810 12.496936
55.815 12.742598
55.820 13.146271
55.825 13.608788
55.830 13.493149
55.835 14.156725
55.840 14.523544
55.845 14.93235
55.850 14.757163
55.855 14.46267
55.860 14.088228
55.865 14.021996
55.870 13.249962
55.875 12.906205
55.880 12.616826
55.885 12.458845
55.890 11.898691
55.895 11.764056
55.900 12.325995
55.905 12.440692
55.910 11.686585
55.915 11.264035
55.920 11.156499
55.925 11.819719
55.930 12.499791
55.935 11.9251
55.940 11.538177
55.945 11.859425
55.950 11.883007
55.955 12.289503
55.960 11.880813
55.965 11.599556
55.970 12.245615
55.975 12.960859
55.980 13.444488
55.985 13.514279
55.990 13.44425
55.995 13.777975
56.000 13.64695
56.005 13.0366
56.010 12.364517
56.015 11.923504
56.020 11.930338
56.025 11.864626
56.030 11.555827
56.035 11.30383
56.040 11.354965
56.045 11.814556
56.050 11.681905
56.055 12.045895
56.060 11.90252
56.065 12.186041
56.070 12.620852
56.075 13.033835
56.080 12.931934
56.085 13.359315
56.090 13.186944
56.095 13.332537
56.100 13.200414
56.105 12.58592
56.110 12.341405
56.115 12.674788
56.120 12.593781
56.125 12.337854
56.130 12.561422
56.135 12.673591
56.140 13.231537
56.145 13.442042
56.150 13.125596
56.155 12.644033
56.160 12.615602
56.165 12.578352
56.170 12.383721
56.175 12.000099
56.180 11.599916
56.185 11.87645
56.190 12.493249
56.195 12.948807
56.200 13.052009
56.205 13.449689
56.210 13.551205
56.215 13.349389
56.220 13.471055
56.225 13.14867
56.230 12.939454
56.235 12.706079
56.240 12.10035
56.245 12.45962
56.250 12.80636
56.255 12.657607
56.260 13.002636
56.265 12.720489
56.270 13.133734
56.275 13.356637
56.280 13.561903
56.285 13.932205
56.290 13.707714
56.295 14.023907
56.300 13.849085
56.305 13.539887
56.310 13.292863
56.315 12.881595
56.320 12.872092
56.325 13.203076
56.330 12.767812
56.335 13.197625
56.340 13.630668
56.345 14.002161
56.350 14.078488
56.355 14.033197
56.360 14.360166
56.365 14.492716
56.370 14.321671
56.375 14.34112
56.380 14.530375
56.385 14.479785
56.390 14.270311
56.395 13.751489
56.400 13.666713
56.405 13.941759
56.410 13.766201
56.415 13.32404
56.420 12.900074
56.425 12.904773
56.430 12.913082
56.435 13.054838
56.440 12.677966
56.445 12.601776
56.450 12.875519
56.455 13.574597
56.460 13.911163
56.465 14.415792
56.470 14.49448
56.475 14.221903
56.480 13.782779
56.485 13.214536
56.490 12.692628
56.495 12.691155
56.500 12.577143
56.505 12.537235
56.510 12.982307
56.515 13.207827
56.520 13.604299
56.525 13.843881
56.530 13.563429
56.535 13.241854
56.540 13.23291
56.545 13.087805
56.550 13.008941
56.555 12.699917
56.560 12.340378
56.565 11.894925
56.570 11.181057
56.575 10.974937
56.580 10.863029
56.585 10.62968
56.590 10.684995
56.595 11.368322
56.600 11.817392
56.605 12.310363
56.610 12.541576
56.615 12.753186
56.620 12.794216
56.625 13.222602
56.630 13.096663
56.635 13.41527
56.640 13.647008
56.645 13.846357
56.650 13.914355
56.655 14.494741
56.660 14.176013
56.665 13.981718
56.670 14.146979
56.675 14.595855
56.680 14.570393
56.685 14.533669
56.690 14.199345
56.695 14.099564
56.700 14.177989
56.705 13.973747
56.710 13.543862
56.715 13.34997
56.720 13.66342
56.725 14.219082
56.730 14.731137
56.735 15.200057
56.740 15.069078
56.745 15.303857
56.750 15.801652
56.755 15.577752
56.760 15.659786
56.765 15.571652
56.770 15.280976
56.775 15.337923
56.780 15.191836
56.785 15.030329
56.790 14.881656
56.795 14.876765
56.800 14.471622
56.805 13.940378
56.810 13.901369
56.815 14.014716
56.820 13.600465
56.825 13.633494
56.830 13.432909
56.835 13.985712
56.840 14.141662
56.845 13.784149
56.850 13.186604
56.855 13.41019
56.860 13.332444
56.865 12.987187
56.870 12.727364
56.875 12.961555
56.880 13.285619
56.885 13.891983
56.890 13.708777
56.895 14.141522
56.900 14.217569
56.905 14.491921
56.910 14.542523
56.915 14.428033
56.920 14.802313
56.925 15.177034
56.930 15.48513
56.935 16.017641
56.940 15.919361
56.945 15.599483
56.950 15.104998
56.955 14.869859
56.960 14.277302
56.965 13.706068
56.970 12.870176
56.975 13.229267
56.980 13.850696
56.985 14.331248
56.990 14.387284
56.995 15.056371
57.000 15.345393
57.005 15.705607
57.010 15.465823
57.015 15.284519
57.020 15.339286
57.025 14.854218
57.030 13.838799
57.035 13.658257
57.040 13.565322
57.045 13.470445
57.050 13.714097
57.055 13.774603
57.060 14.318578
57.065 14.641444
57.070 14.642803
57.075 14.763427
57.080 14.961078
57.085 14.74531
57.090 14.730191
57.095 14.463513
57.100 14.157918
57.105 13.886713
57.110 13.7588
57.115 13.190375
57.120 13.010713
57.125 12.464972
57.130 12.416529
57.135 12.624313
57.140 12.314014
57.145 12.214684
57.150 12.275731
57.155 12.445242
57.160 12.594971
57.165 12.853079
57.170 13.447133
57.175 14.539721
57.180 14.939526
57.185 15.304121
57.190 15.484393
57.195 15.933963
57.200 15.613724
57.205 15.414901
57.210 15.049975
57.215 15.323114
57.220 15.642301
57.225 16.035299
57.230 15.735465
57.235 16.116337
57.240 15.900943
57.245 15.725931
57.250 15.389924
57.255 14.61768
57.260 13.862823
57.265 14.04716
57.270 13.913666
57.275 13.952602
57.280 14.313678
57.285 14.361127
57.290 14.932625
57.295 15.44867
57.300 15.010873
57.305 14.662246
57.310 14.858919
57.315 14.814642
57.320 14.694535
57.325 14.624774
57.330 14.594831
57.335 14.905731
57.340 15.369707
57.345 15.359536
57.350 15.52346
57.355 15.557306
57.360 15.785661
57.365 15.945088
57.370 15.895641
57.375 15.656535
57.380 15.307647
57.385 15.059156
57.390 14.986638
57.395 14.890974
57.400 14.522917
57.405 14.901263
57.410 15.1995
57.415 15.568721
57.420 16.109022
57.425 16.095764
57.430 16.039825
57.435 16.172729
57.440 15.535311
57.445 14.798738
57.450 14.374216
57.455 13.787142
57.460 14.205472
57.465 14.050297
57.470 13.872493
57.475 14.480576
57.480 14.974345
57.485 15.549319
57.490 15.217908
57.495 15.35085
57.500 15.372815
57.505 15.948477
57.510 15.659411
57.515 15.081557
57.520 14.805911
57.525 15.170604
57.530 14.445151
57.535 14.401107
57.540 13.678045
57.545 13.982731
57.550 14.473711
57.555 14.327858
57.560 14.370094
57.565 14.600789
57.570 14.621087
57.575 14.886742
57.580 14.606324
57.585 14.636803
57.590 14.99431
57.595 14.892388
57.600 15.374298
57.605 15.530983
57.610 15.888777
57.615 16.14451
57.620 16.505932
57.625 16.465742
57.630 16.706348
57.635 16.438587
57.640 16.272509
57.645 16.333565
57.650 16.559053
57.655 16.45083
57.660 16.503967
57.665 16.257158
57.670 16.246763
57.675 16.430721
57.680 15.734468
57.685 15.526245
57.690 15.31998
57.695 15.767992
57.700 15.981425
57.705 16.153261
57.710 16.287378
57.715 16.942759
57.720 16.955946
57.725 16.564333
57.730 16.1465
57.735 15.936112
57.740 15.384904
57.745 15.165359
57.750 14.954627
57.755 15.17595
57.760 15.729826
57.765 15.309575
57.770 14.942291
57.775 14.738169
57.780 14.714341
57.785 14.945226
57.790 14.331478
57.795 14.122216
57.800 14.638173
57.805 15.399394
57.810 16.395741
57.815 16.410463
57.820 15.714721
57.825 16.499258
57.830 16.887529
57.835 16.94161
57.840 16.812263
57.845 16.093611
57.850 16.035339
57.855 16.331476
57.860 16.004942
57.865 16.020102
57.870 16.11194
57.875 15.899007
57.880 16.176773
57.885 16.218016
57.890 16.124901
57.895 15.540909
57.900 15.217481
57.905 14.967188
57.910 14.666577
57.915 14.642665
57.920 14.664215
57.925 14.958795
57.930 15.134772
57.935 15.003269
57.940 15.232838
57.945 16.034657
57.950 16.176126
57.955 15.893347
57.960 15.706164
57.965 15.965061
57.970 16.329109
57.975 16.161135
57.980 15.862785
57.985 15.633484
57.990 15.993342
57.995 16.225138
58.000 16.287817
58.005 15.244989
58.010 15.026044
58.015 14.995446
58.020 14.893592
58.025 14.86122
58.030 15.12399
58.035 15.595784
58.040 16.291218
58.045 16.773493
58.050 16.87265
58.055 17.021563
58.060 16.769524
58.065 16.628914
58.070 16.527506
58.075 16.799406
58.080 16.479315
58.085 16.250578
58.090 16.2784
58.095 16.378387
58.100 15.807674
58.105 15.939228
58.110 15.667885
58.115 15.738931
58.120 16.073952
58.125 16.223995
58.130 16.449944
58.135 17.287767
58.140 16.988911
58.145 17.810766
58.150 18.620941
58.155 18.700165
58.160 18.841948
58.165 19.192337
58.170 19.071259
58.175 19.02593
58.180 18.662163
58.185 18.43457
58.190 18.644245
58.195 18.570362
58.200 17.873016
58.205 17.961317
58.210 18.133724
58.215 17.76037
58.220 17.552919
58.225 17.502047
58.230 17.651987
58.235 17.55386
58.240 17.103596
58.245 17.059141
58.250 17.359945
58.255 17.185038
58.260 17.163286
58.265 17.444895
58.270 18.216356
58.275 18.538057
58.280 18.170204
58.285 18.076054
58.290 18.418245
58.295 18.3456
58.300 18.424646
58.305 18.608404
58.310 19.103601
58.315 19.179562
58.320 18.967636
58.325 19.542723
58.330 19.75337
58.335 19.838524
58.340 19.725174
58.345 19.885998
58.350 21.089251
58.355 21.811729
58.360 21.749031
58.365 22.078001
58.370 21.857897
58.375 21.771759
58.380 21.830616
58.385 21.1472
58.390 20.476198
58.395 19.989122
58.400 20.050421
58.405 20.08127
58.410 20.337824
58.415 20.711222
58.420 21.297632
58.425 21.378056
58.430 21.580996
58.435 21.384769
58.440 21.836533
58.445 21.476625
58.450 21.026447
58.455 20.881245
58.460 21.781101
