!@!!GADDS PLOTSO FILE: Chi integration type
!@!!Title/SampleName: map-b8
!@!!Comment: ?
!@!!User: Bruker Instrument Administrator
!@!!Site: University of Illinois Chicago
!@!!Frame: map-b8_01_000.gfrm
!@!!Wavelengths    1.54184   1.54056   1.54439
!@!!Frame angles: 2Theta: 63.000 Omega: 50.000 Phi: 0.000 Chi: 90.000
!@!!Integration range: 2Theta: 53.000 to 73.000  Gamma: -105.000 to -75.000
!@!!Integration method: bin normalized
!@!N
!@!SS
!@!M
!@!L 0.0 0.0 0.0 0.0
!@!XDegrees
!@!YCounts
53.000 7.302912
53.005 7.708716
53.010 7.77158
53.015 7.779823
53.020 7.969944
53.025 7.971287
53.030 7.983803
53.035 8.009915
53.040 8.053979
53.045 8.171104
53.050 7.930148
53.055 7.619559
53.060 7.909264
53.065 8.330193
53.070 7.780033
53.075 7.493471
53.080 7.21368
53.085 7.211037
53.090 7.392235
53.095 6.851166
53.100 6.613082
53.105 6.624854
53.110 6.640786
53.115 7.025811
53.120 7.323906
53.125 7.396039
53.130 7.707731
53.135 7.838488
53.140 7.677582
53.145 7.406284
53.150 6.898168
53.155 6.579171
53.160 6.143516
53.165 6.034145
53.170 6.472843
53.175 6.886963
53.180 7.105587
53.185 7.349587
53.190 7.661778
53.195 8.012016
53.200 7.975214
53.205 7.497349
53.210 7.375298
53.215 7.208213
53.220 7.241953
53.225 7.380312
53.230 7.405697
53.235 7.531977
53.240 7.836159
53.245 7.76847
53.250 7.724682
53.255 7.934663
53.260 7.845475
53.265 7.539485
53.270 7.373403
53.275 7.589511
53.280 8.129464
53.285 8.18188
53.290 8.013169
53.295 7.908157
53.300 7.918433
53.305 7.971745
53.310 7.75077
53.315 7.771065
53.320 8.087152
53.325 7.782799
53.330 8.304079
53.335 8.749083
53.340 8.981154
53.345 8.882804
53.350 8.446454
53.355 8.257995
53.360 8.956616
53.365 8.552949
53.370 8.294312
53.375 8.42187
53.380 8.657566
53.385 8.753915
53.390 8.593502
53.395 8.370686
53.400 8.428031
53.405 8.20851
53.410 7.866498
53.415 7.744097
53.420 7.809895
53.425 7.642107
53.430 7.834753
53.435 8.299493
53.440 8.040586
53.445 8.069919
53.450 8.146058
53.455 8.238367
53.460 8.269241
53.465 8.094368
53.470 7.807479
53.475 7.880394
53.480 7.450221
53.485 7.343952
53.490 7.718742
53.495 7.625308
53.500 7.351963
53.505 7.317406
53.510 7.34093
53.515 7.77024
53.520 7.893576
53.525 7.634042
53.530 7.407177
53.535 7.984461
53.540 8.348207
53.545 8.344049
53.550 8.15476
53.555 8.24478
53.560 8.575831
53.565 8.715488
53.570 8.662132
53.575 8.889949
53.580 9.205393
53.585 9.086765
53.590 8.595023
53.595 8.447549
53.600 8.422203
53.605 8.113074
53.610 8.168126
53.615 8.333765
53.620 8.864677
53.625 8.764766
53.630 8.775706
53.635 8.916821
53.640 8.61301
53.645 8.086596
53.650 7.430492
53.655 7.374398
53.660 7.948058
53.665 7.771419
53.670 7.771397
53.675 7.85867
53.680 8.034891
53.685 8.30229
53.690 7.663245
53.695 7.475286
53.700 7.52426
53.705 7.976947
53.710 8.080051
53.715 8.026383
53.720 8.123145
53.725 8.52068
53.730 8.383068
53.735 8.364078
53.740 7.812614
53.745 7.95112
53.750 8.144328
53.755 8.549276
53.760 8.626094
53.765 8.610298
53.770 8.765188
53.775 8.468422
53.780 8.442046
53.785 8.107643
53.790 7.829684
53.795 8.170783
53.800 7.770117
53.805 7.919883
53.810 7.940033
53.815 7.679097
53.820 7.593016
53.825 7.141492
53.830 7.133812
53.835 7.052283
53.840 6.84084
53.845 7.114955
53.850 7.224511
53.855 7.355132
53.860 7.39705
53.865 7.375931
53.870 7.837502
53.875 7.542932
53.880 7.604734
53.885 7.950928
53.890 7.789215
53.895 8.202958
53.900 8.203387
53.905 8.374936
53.910 9.034706
53.915 8.985273
53.920 8.824407
53.925 9.243055
53.930 9.389361
53.935 9.669207
53.940 9.627295
53.945 9.598033
53.950 9.713643
53.955 10.398748
53.960 10.093836
53.965 9.813776
53.970 9.209977
53.975 9.142568
53.980 8.88242
53.985 8.591457
53.990 8.129363
53.995 8.004176
54.000 8.361972
54.005 8.474851
54.010 8.373459
54.015 8.671898
54.020 9.077415
54.025 9.127536
54.030 9.171653
54.035 9.187
54.040 9.571963
54.045 9.704189
54.050 9.202916
54.055 8.974599
54.060 9.225072
54.065 9.491694
54.070 9.538548
54.075 9.113927
54.080 8.835387
54.085 9.163502
54.090 9.241563
54.095 9.217612
54.100 8.810822
54.105 8.664048
54.110 8.90896
54.115 9.179934
54.120 8.837325
54.125 8.336495
54.130 8.136301
54.135 8.200273
54.140 8.145336
54.145 8.26177
54.150 8.205065
54.155 8.419224
54.160 8.787831
54.165 8.751832
54.170 9.224453
54.175 9.535736
54.180 9.210219
54.185 9.336337
54.190 9.386322
54.195 9.436124
54.200 9.728868
54.205 9.469244
54.210 9.675397
54.215 10.026546
54.220 10.051903
54.225 10.005863
54.230 10.137039
54.235 10.269737
54.240 9.934925
54.245 10.126989
54.250 10.359907
54.255 10.711746
54.260 10.700924
54.265 10.198561
54.270 9.87352
54.275 9.728522
54.280 9.199496
54.285 8.847518
54.290 8.110548
54.295 8.063896
54.300 8.307808
54.305 8.151118
54.310 8.354697
54.315 8.092027
54.320 8.117485
54.325 8.306871
54.330 8.219209
54.335 8.326226
54.340 8.684078
54.345 8.733234
54.350 8.671963
54.355 8.575853
54.360 8.989241
54.365 9.226738
54.370 9.04146
54.375 9.138733
54.380 9.232119
54.385 9.172525
54.390 9.037859
54.395 8.55617
54.400 8.084571
54.405 7.852813
54.410 8.002399
54.415 8.124473
54.420 8.406562
54.425 8.778998
54.430 8.819177
54.435 9.109985
54.440 9.396353
54.445 9.523746
54.450 9.483352
54.455 9.152839
54.460 8.847862
54.465 8.644468
54.470 8.29229
54.475 7.619884
54.480 7.120864
54.485 7.282864
54.490 7.528307
54.495 7.765966
54.500 8.087464
54.505 8.788989
54.510 9.194414
54.515 9.558398
54.520 9.880879
54.525 10.521315
54.530 10.876392
54.535 11.075277
54.540 10.74656
54.545 10.862118
54.550 10.566487
54.555 10.387551
54.560 9.995143
54.565 9.85724
54.570 9.685752
54.575 9.865917
54.580 9.444584
54.585 9.565265
54.590 9.337045
54.595 9.355352
54.600 9.33472
54.605 8.968599
54.610 8.780953
54.615 9.364362
54.620 9.19962
54.625 8.962806
54.630 8.898598
54.635 9.237502
54.640 9.310353
54.645 9.221134
54.650 8.828259
54.655 8.843292
54.660 8.781278
54.665 8.543806
54.670 8.77409
54.675 9.501747
54.680 9.507123
54.685 9.111409
54.690 9.211563
54.695 9.390699
54.700 9.496962
54.705 8.943065
54.710 8.756694
54.715 9.072799
54.720 9.053871
54.725 9.062061
54.730 9.284057
54.735 9.322463
54.740 9.345566
54.745 9.088724
54.750 9.20629
54.755 9.914087
54.760 9.967393
54.765 9.536465
54.770 9.607736
54.775 9.292961
54.780 9.868494
54.785 9.723634
54.790 9.181326
54.795 9.378573
54.800 9.744142
54.805 9.635926
54.810 9.622502
54.815 9.638551
54.820 9.837368
54.825 9.877823
54.830 9.592323
54.835 9.349725
54.840 9.740217
54.845 9.977151
54.850 9.82405
54.855 9.766371
54.860 9.975092
54.865 10.455688
54.870 10.604094
54.875 10.360421
54.880 10.471903
54.885 10.34244
54.890 10.581258
54.895 10.486825
54.900 10.113615
54.905 10.06778
54.910 10.136789
54.915 10.205215
54.920 10.35853
54.925 10.080983
54.930 10.208049
54.935 10.328847
54.940 10.257357
54.945 10.001157
54.950 9.881151
54.955 9.580557
54.960 9.567467
54.965 9.428005
54.970 9.363531
54.975 9.377964
54.980 9.470478
54.985 9.433433
54.990 9.30728
54.995 9.809835
55.000 9.822347
55.005 9.761266
55.010 9.802265
55.015 9.952789
55.020 10.33112
55.025 10.175986
55.030 9.960241
55.035 9.916676
55.040 10.239906
55.045 10.222358
55.050 10.033089
55.055 9.763075
55.060 10.25893
55.065 9.881698
55.070 10.2089
55.075 10.183074
55.080 10.396327
55.085 10.202111
55.090 10.162983
55.095 10.339571
55.100 10.677854
55.105 10.878437
55.110 10.808203
55.115 10.737588
55.120 11.069748
55.125 10.982981
55.130 10.850953
55.135 10.671828
55.140 10.516325
55.145 10.597508
55.150 10.735743
55.155 10.740948
55.160 10.830181
55.165 10.602056
55.170 10.484576
55.175 10.496349
55.180 10.468865
55.185 10.260185
55.190 10.059385
55.195 9.920753
55.200 9.821854
55.205 9.592399
55.210 9.343138
55.215 9.667597
55.220 9.437847
55.225 9.477429
55.230 9.763693
55.235 10.029803
55.240 10.135684
55.245 9.920823
55.250 9.472657
55.255 9.786797
55.260 9.484754
55.265 9.264938
55.270 9.271358
55.275 9.382754
55.280 9.772724
55.285 9.800759
55.290 9.819634
55.295 10.210257
55.300 9.837658
55.305 9.416802
55.310 9.185722
55.315 8.852853
55.320 8.843103
55.325 8.875013
55.330 8.987176
55.335 9.417526
55.340 10.199853
55.345 10.359243
55.350 10.736563
55.355 10.71632
55.360 10.586889
55.365 10.356008
55.370 9.909972
55.375 9.359927
55.380 9.589158
55.385 9.512683
55.390 9.601996
55.395 9.519735
55.400 9.946158
55.405 10.344357
55.410 10.650886
55.415 10.513434
55.420 10.218533
55.425 10.303103
55.430 10.409075
55.435 9.98847
55.440 9.749491
55.445 9.340586
55.450 9.30303
55.455 9.446834
55.460 9.425611
55.465 9.632637
55.470 9.488752
55.475 9.584835
55.480 9.604914
55.485 9.598788
55.490 9.824404
55.495 10.274045
55.500 10.666645
55.505 11.109605
55.510 11.394727
55.515 11.466022
55.520 11.653995
55.525 11.329939
55.530 10.43022
55.535 10.223224
55.540 10.060636
55.545 9.848281
55.550 9.934708
55.555 9.666615
55.560 10.106109
55.565 10.557047
55.570 11.040604
55.575 11.058373
55.580 10.931636
55.585 10.842787
55.590 11.199188
55.595 10.887863
55.600 10.298278
55.605 9.512229
55.610 9.63202
55.615 9.709547
55.620 9.783406
55.625 9.644605
55.630 9.609248
55.635 9.516852
55.640 9.713752
55.645 10.070499
55.650 10.169116
55.655 9.972048
55.660 9.723647
55.665 10.306181
55.670 10.992072
55.675 10.556664
55.680 10.435344
55.685 10.817637
55.690 10.892499
55.695 11.297822
55.700 10.749856
55.705 10.291568
55.710 10.713846
55.715 10.838292
55.720 10.469419
55.725 10.073267
55.730 9.487022
55.735 9.319526
55.740 9.503743
55.745 9.696699
55.750 9.69141
55.755 10.105732
55.760 10.376524
55.765 11.683258
55.770 11.982377
55.775 12.175749
55.780 11.978987
55.785 12.079216
55.790 11.875989
55.795 11.586563
55.800 10.85168
55.805 10.552324
55.810 10.773549
55.815 10.427961
55.820 10.072127
55.825 10.229147
55.830 10.360046
55.835 10.698776
55.840 10.817812
55.845 10.493498
55.850 10.965548
55.855 11.042234
55.860 11.287461
55.865 11.437968
55.870 11.628683
55.875 11.768503
55.880 11.506985
55.885 11.203548
55.890 11.286507
55.895 11.300793
55.900 10.905426
55.905 10.078336
55.910 9.846976
55.915 10.207896
55.920 10.175328
55.925 10.29437
55.930 10.424662
55.935 10.652152
55.940 11.021006
55.945 11.065888
55.950 10.915617
55.955 10.989055
55.960 10.45436
55.965 10.381639
55.970 10.530564
55.975 10.548173
55.980 10.539612
55.985 10.410867
55.990 10.490314
55.995 10.58704
56.000 10.164619
56.005 9.885863
56.010 9.777444
56.015 9.484817
56.020 9.460855
56.025 9.32055
56.030 9.598288
56.035 9.557856
56.040 9.154807
56.045 9.374437
56.050 9.959035
56.055 9.87862
56.060 9.7193
56.065 9.961012
56.070 10.489171
56.075 10.712581
56.080 10.960047
56.085 10.421106
56.090 10.415298
56.095 10.327663
56.100 9.764662
56.105 9.606506
56.110 9.834168
56.115 9.966261
56.120 10.38581
56.125 10.716414
56.130 10.805187
56.135 10.939225
56.140 11.246709
56.145 11.714005
56.150 11.780467
56.155 11.998732
56.160 12.018059
56.165 12.361269
56.170 12.724598
56.175 12.673684
56.180 12.223557
56.185 11.968916
56.190 11.97756
56.195 12.08235
56.200 11.916238
56.205 11.693135
56.210 11.528172
56.215 11.798885
56.220 11.806075
56.225 12.20202
56.230 12.543911
56.235 12.649836
56.240 12.917294
56.245 13.154163
56.250 12.933543
56.255 12.748798
56.260 11.847223
56.265 11.309358
56.270 11.203541
56.275 10.824544
56.280 10.666567
56.285 10.275014
56.290 10.204844
56.295 10.468672
56.300 10.252909
56.305 10.37861
56.310 10.519798
56.315 10.813059
56.320 11.631254
56.325 11.615649
56.330 11.472898
56.335 11.819866
56.340 11.499034
56.345 11.58799
56.350 11.499567
56.355 11.334343
56.360 11.796583
56.365 11.815958
56.370 11.630394
56.375 11.718194
56.380 11.298194
56.385 10.804058
56.390 10.475323
56.395 9.967123
56.400 10.036604
56.405 10.131029
56.410 9.886913
56.415 10.172285
56.420 10.506965
56.425 11.065346
56.430 11.688537
56.435 11.599809
56.440 12.10623
56.445 12.3096
56.450 12.248605
56.455 11.611329
56.460 11.311667
56.465 11.072951
56.470 11.177784
56.475 11.197669
56.480 11.221208
56.485 11.302924
56.490 12.213844
56.495 12.395016
56.500 12.419036
56.505 12.306602
56.510 12.323391
56.515 12.093781
56.520 12.022952
56.525 11.824933
56.530 11.522658
56.535 11.414451
56.540 10.941843
56.545 10.804184
56.550 11.275293
56.555 11.290467
56.560 11.481283
56.565 11.735561
56.570 12.423819
56.575 12.819978
56.580 12.988422
56.585 12.712743
56.590 13.006045
56.595 12.899993
56.600 12.615012
56.605 12.384165
56.610 12.214187
56.615 12.241453
56.620 12.62606
56.625 12.187594
56.630 12.391726
56.635 12.179319
56.640 11.967254
56.645 11.951213
56.650 11.636325
56.655 11.474348
56.660 11.483499
56.665 11.55609
56.670 11.848495
56.675 12.023025
56.680 12.61374
56.685 13.389162
56.690 13.95238
56.695 14.734187
56.700 14.809778
56.705 14.792028
56.710 14.724319
56.715 14.602649
56.720 13.813144
56.725 13.451201
56.730 12.858832
56.735 12.27206
56.740 12.006044
56.745 12.043423
56.750 11.662649
56.755 11.882099
56.760 11.59989
56.765 11.249599
56.770 11.810052
56.775 11.652309
56.780 11.306041
56.785 11.364547
56.790 11.232876
56.795 11.719084
56.800 12.037059
56.805 12.071524
56.810 12.443402
56.815 12.218322
56.820 11.95771
56.825 12.097952
56.830 11.571101
56.835 11.61468
56.840 12.030935
56.845 12.150928
56.850 12.473014
56.855 12.255294
56.860 12.126862
56.865 12.876684
56.870 13.046258
56.875 12.218022
56.880 11.722246
56.885 11.602318
56.890 11.955481
56.895 11.885515
56.900 10.750119
56.905 10.135239
56.910 10.114927
56.915 10.344204
56.920 10.550427
56.925 10.674875
56.930 10.802263
56.935 11.302873
56.940 11.895299
56.945 12.38731
56.950 12.426567
56.955 12.268141
56.960 12.58936
56.965 13.042582
56.970 13.383549
56.975 13.370203
56.980 13.598808
56.985 13.959272
56.990 13.59184
56.995 13.152232
57.000 12.873976
57.005 12.60609
57.010 12.22977
57.015 12.063629
57.020 11.739613
57.025 11.904852
57.030 11.840652
57.035 11.420551
57.040 11.297838
57.045 11.436672
57.050 11.099217
57.055 11.382268
57.060 11.644935
57.065 11.866046
57.070 11.863379
57.075 12.047151
57.080 12.45454
57.085 12.802127
57.090 12.641862
57.095 12.823667
57.100 12.956433
57.105 13.19475
57.110 13.171706
57.115 12.856764
57.120 12.336192
57.125 12.387316
57.130 12.074123
57.135 11.945871
57.140 11.844658
57.145 11.735449
57.150 11.610834
57.155 11.967786
57.160 11.343224
57.165 11.594838
57.170 11.580678
57.175 11.63283
57.180 11.510814
57.185 11.60873
57.190 11.626682
57.195 12.114391
57.200 12.134748
57.205 12.126646
57.210 12.132938
57.215 11.791178
57.220 11.849822
57.225 12.091863
57.230 11.686385
57.235 11.285755
57.240 11.219654
57.245 10.777508
57.250 11.239902
57.255 11.473782
57.260 11.462132
57.265 11.976827
57.270 12.236114
57.275 12.509832
57.280 13.267253
57.285 12.753254
57.290 12.495117
57.295 12.771616
57.300 12.951861
57.305 13.258958
57.310 13.071361
57.315 13.259473
57.320 13.555962
57.325 13.714673
57.330 13.794971
57.335 14.04483
57.340 13.9698
57.345 13.98531
57.350 13.809879
57.355 13.711862
57.360 13.774159
57.365 13.820305
57.370 13.152926
57.375 12.94591
57.380 12.941112
57.385 13.343737
57.390 13.628577
57.395 14.019084
57.400 13.797575
57.405 13.847051
57.410 14.050215
57.415 14.090425
57.420 13.594139
57.425 13.09116
57.430 12.449475
57.435 12.495799
57.440 12.967009
57.445 12.943208
57.450 12.792507
57.455 13.225695
57.460 13.612027
57.465 13.684169
57.470 13.695892
57.475 13.362868
57.480 13.300116
57.485 13.669163
57.490 13.815144
57.495 13.869208
57.500 13.480682
57.505 13.308072
57.510 13.383092
57.515 13.580328
57.520 13.332217
57.525 12.763137
57.530 12.83426
57.535 12.781837
57.540 12.915017
57.545 13.111297
57.550 12.999975
57.555 13.438373
57.560 13.730813
57.565 13.430081
57.570 13.877418
57.575 13.836411
57.580 13.734282
57.585 13.883636
57.590 14.042037
57.595 14.155772
57.600 14.45193
57.605 14.44906
57.610 14.473722
57.615 14.771526
57.620 14.698973
57.625 14.426262
57.630 14.566301
57.635 14.833873
57.640 15.223611
57.645 15.026205
57.650 14.550228
57.655 14.447389
57.660 14.063179
57.665 13.610742
57.670 13.460469
57.675 12.786338
57.680 12.878283
57.685 13.578981
57.690 13.798145
57.695 13.921983
57.700 13.82922
57.705 13.907976
57.710 14.22127
57.715 14.489958
57.720 13.983958
57.725 13.750887
57.730 14.154214
57.735 14.539206
57.740 13.853435
57.745 13.568287
57.750 13.51793
57.755 13.489729
57.760 13.31604
57.765 12.799258
57.770 12.838903
57.775 13.411306
57.780 13.406594
57.785 13.166761
57.790 13.163272
57.795 13.147805
57.800 13.44901
57.805 13.383409
57.810 13.536592
57.815 13.829062
57.820 14.107213
57.825 14.432303
57.830 15.296323
57.835 15.206323
57.840 15.022042
57.845 14.570082
57.850 14.283785
57.855 14.382979
57.860 14.031899
57.865 13.982568
57.870 14.808937
57.875 15.290454
57.880 16.049795
57.885 16.335091
57.890 16.527058
57.895 16.931831
57.900 16.634045
57.905 15.931165
57.910 15.306644
57.915 15.088563
57.920 14.863483
57.925 14.516283
57.930 14.103189
57.935 13.536
57.940 13.529733
57.945 13.46269
57.950 13.885595
57.955 13.898302
57.960 14.224848
57.965 14.093962
57.970 14.173599
57.975 14.383371
57.980 14.736617
57.985 14.440763
57.990 14.802029
57.995 14.899278
58.000 15.163833
58.005 15.468576
58.010 15.802671
58.015 15.744086
58.020 15.501104
58.025 14.866364
58.030 14.948247
58.035 15.234043
58.040 15.393521
58.045 15.063258
58.050 15.125056
58.055 15.177883
58.060 15.323573
58.065 15.300661
58.070 15.463645
58.075 15.62926
58.080 15.375091
58.085 15.396411
58.090 15.362883
58.095 15.076072
58.100 15.021857
58.105 14.912874
58.110 14.955265
58.115 15.832842
58.120 16.598167
58.125 17.065783
58.130 17.28558
58.135 17.087183
58.140 16.945061
58.145 16.843777
58.150 16.438944
58.155 15.531981
58.160 15.095273
58.165 15.156041
58.170 15.439722
58.175 15.6941
58.180 15.590402
58.185 15.055131
58.190 15.256341
58.195 15.470721
58.200 15.444672
58.205 15.007238
58.210 14.480212
58.215 14.28001
58.220 14.875469
58.225 15.175985
58.230 15.801977
58.235 15.648488
58.240 15.60054
58.245 15.843949
58.250 16.132093
58.255 16.28508
58.260 16.535091
58.265 16.228216
58.270 16.570362
58.275 16.546696
58.280 17.116714
58.285 17.42363
58.290 17.088322
58.295 16.582706
58.300 17.032724
58.305 17.327526
58.310 17.676702
58.315 17.51174
58.320 17.709686
58.325 17.75894
58.330 17.900597
58.335 17.962896
58.340 18.014917
58.345 17.788822
58.350 18.028517
58.355 18.807205
58.360 19.117889
58.365 19.632906
58.370 19.76944
58.375 20.424711
58.380 20.860155
58.385 20.476858
58.390 20.086607
58.395 19.742334
58.400 19.448328
58.405 19.085331
58.410 18.566818
58.415 18.741354
58.420 19.366934
58.425 19.834576
58.430 20.408854
58.435 21.218113
58.440 21.718107
58.445 22.055176
58.450 22.088314
58.455 22.035961
58.460 22.64868
58.465 23.679842
58.470 24.219461
58.475 25.090073
58.480 25.978693
58.485 27.030626
58.490 27.957581
58.495 28.157211
58.500 27.676628
58.505 27.487988
58.510 27.397421
58.515 27.181967
58.520 27.369431
58.525 27.761127
58.530 28.390841
58.535 28.754168
58.540 29.087181
58.545 29.929705
58.550 30.540262
58.555 30.418566
58.560 30.610422
58.565 30.366806
