!@!!GADDS PLOTSO FILE: Chi integration type
!@!!Title/SampleName: map-149
!@!!Comment: ?
!@!!User: Bruker Instrument Administrator
!@!!Site: University of Illinois Chicago
!@!!Frame: map-149_01_000.gfrm
!@!!Wavelengths    1.54184   1.54056   1.54439
!@!!Frame angles: 2Theta: 63.000 Omega: 50.000 Phi: 0.000 Chi: 90.000
!@!!Integration range: 2Theta: 53.000 to 73.000  Gamma: -105.000 to -75.000
!@!!Integration method: bin normalized
!@!N
!@!SS
!@!M
!@!L 0.0 0.0 0.0 0.0
!@!XDegrees
!@!YCounts
53.000 9.166596
53.005 9.048975
53.010 9.392372
53.015 9.336214
53.020 9.378905
53.025 9.105507
53.030 9.103355
53.035 9.150946
53.040 9.281687
53.045 9.323083
53.050 9.680866
53.055 9.827234
53.060 9.97125
53.065 9.572848
53.070 9.682797
53.075 9.797453
53.080 9.63292
53.085 9.598061
53.090 9.732577
53.095 9.867209
53.100 10.269009
53.105 10.124688
53.110 10.085067
53.115 9.71199
53.120 9.510386
53.125 9.022821
53.130 8.89928
53.135 8.776428
53.140 8.791177
53.145 8.696918
53.150 9.090695
53.155 8.96876
53.160 8.960773
53.165 8.710072
53.170 8.417833
53.175 8.484698
53.180 8.105297
53.185 8.209431
53.190 8.681121
53.195 8.832886
53.200 8.6316
53.205 8.563687
53.210 8.333209
53.215 8.699161
53.220 8.297766
53.225 8.216739
53.230 8.582504
53.235 9.019754
53.240 9.243006
53.245 9.244446
53.250 9.246949
53.255 9.368095
53.260 9.152189
53.265 8.816865
53.270 8.594722
53.275 8.454428
53.280 8.544322
53.285 8.864858
53.290 9.185855
53.295 9.55416
53.300 10.160783
53.305 10.003959
53.310 9.97176
53.315 10.312805
53.320 9.942393
53.325 9.585145
53.330 9.180251
53.335 9.146641
53.340 9.272923
53.345 9.109821
53.350 8.828056
53.355 9.422788
53.360 9.327065
53.365 9.324027
53.370 9.52945
53.375 9.677634
53.380 9.758127
53.385 9.548951
53.390 9.484159
53.395 9.561949
53.400 9.247234
53.405 8.980757
53.410 8.880491
53.415 8.969687
53.420 8.826307
53.425 8.545206
53.430 9.111021
53.435 8.897826
53.440 8.496231
53.445 8.333539
53.450 8.386067
53.455 9.023663
53.460 9.454509
53.465 9.487052
53.470 9.683263
53.475 9.982252
53.480 10.283075
53.485 10.067441
53.490 9.57518
53.495 9.465123
53.500 9.597595
53.505 9.762366
53.510 9.755806
53.515 10.016645
53.520 9.63769
53.525 9.457849
53.530 8.999879
53.535 8.523567
53.540 8.732744
53.545 8.695254
53.550 8.59134
53.555 8.845808
53.560 8.642859
53.565 9.171493
53.570 9.623233
53.575 9.432934
53.580 9.265465
53.585 9.072593
53.590 8.844693
53.595 8.812877
53.600 8.974592
53.605 8.683379
53.610 9.060162
53.615 9.37533
53.620 9.373876
53.625 9.782343
53.630 9.704776
53.635 9.114504
53.640 9.774283
53.645 9.753833
53.650 9.941747
53.655 10.53441
53.660 10.975196
53.665 11.441103
53.670 12.125816
53.675 11.952959
53.680 11.853055
53.685 11.524383
53.690 11.814252
53.695 11.535223
53.700 10.997068
53.705 10.463099
53.710 10.416588
53.715 10.581468
53.720 10.236172
53.725 10.3206
53.730 10.611961
53.735 10.727285
53.740 10.58498
53.745 10.800651
53.750 10.728575
53.755 10.935243
53.760 10.322753
53.765 10.418883
53.770 10.459328
53.775 10.399031
53.780 10.077085
53.785 9.734364
53.790 9.906176
53.795 10.050306
53.800 10.160845
53.805 10.486404
53.810 10.422123
53.815 10.333138
53.820 10.327937
53.825 9.829871
53.830 10.023351
53.835 9.937501
53.840 9.493961
53.845 9.808568
53.850 9.721109
53.855 10.166733
53.860 10.492026
53.865 9.766202
53.870 9.440057
53.875 9.810604
53.880 9.608522
53.885 9.383409
53.890 9.187178
53.895 9.044819
53.900 9.061235
53.905 8.942859
53.910 8.404088
53.915 8.268284
53.920 8.725344
53.925 8.679996
53.930 9.12595
53.935 9.81229
53.940 10.319041
53.945 10.625354
53.950 11.110202
53.955 10.704594
53.960 10.457793
53.965 9.929322
53.970 9.641868
53.975 9.64104
53.980 9.664792
53.985 9.506008
53.990 9.718266
53.995 10.229766
54.000 10.85879
54.005 10.862652
54.010 10.587755
54.015 10.319326
54.020 10.176348
54.025 10.113626
54.030 9.948019
54.035 9.858393
54.040 9.944453
54.045 10.097525
54.050 10.355289
54.055 10.435347
54.060 10.142931
54.065 9.900054
54.070 9.700171
54.075 9.807407
54.080 10.023476
54.085 9.776822
54.090 10.150892
54.095 10.183187
54.100 10.594767
54.105 10.751544
54.110 10.452566
54.115 10.077963
54.120 10.220994
54.125 10.195795
54.130 10.169424
54.135 10.049527
54.140 10.099659
54.145 9.957994
54.150 10.033817
54.155 10.063774
54.160 9.822055
54.165 9.941796
54.170 9.245056
54.175 9.055594
54.180 9.065728
54.185 8.946496
54.190 8.828631
54.195 9.20698
54.200 9.542302
54.205 10.12194
54.210 10.412269
54.215 10.394017
54.220 10.353536
54.225 10.124582
54.230 9.730843
54.235 9.379622
54.240 9.076199
54.245 8.819726
54.250 8.959507
54.255 9.194275
54.260 9.741035
54.265 10.061759
54.270 10.263031
54.275 10.261774
54.280 10.029978
54.285 9.858932
54.290 10.225443
54.295 10.040287
54.300 9.555623
54.305 9.244638
54.310 9.505606
54.315 9.943617
54.320 9.850279
54.325 9.32628
54.330 9.144287
54.335 8.974216
54.340 9.420792
54.345 9.351781
54.350 9.276286
54.355 9.286448
54.360 9.375344
54.365 9.550253
54.370 9.37953
54.375 9.288697
54.380 9.081648
54.385 8.914766
54.390 9.073154
54.395 9.132929
54.400 9.141
54.405 9.289146
54.410 9.184505
54.415 9.622654
54.420 9.554823
54.425 9.398112
54.430 9.403623
54.435 9.411845
54.440 9.496202
54.445 9.12636
54.450 9.19847
54.455 9.29798
54.460 9.430238
54.465 9.68069
54.470 9.576477
54.475 9.476791
54.480 9.575111
54.485 9.339108
54.490 8.925858
54.495 8.883163
54.500 8.547334
54.505 8.925815
54.510 9.251243
54.515 9.515231
54.520 9.844218
54.525 10.023008
54.530 9.753718
54.535 9.840412
54.540 9.351502
54.545 9.18152
54.550 9.494279
54.555 9.67548
54.560 9.552624
54.565 9.624367
54.570 9.970348
54.575 10.612808
54.580 10.776806
54.585 10.853312
54.590 10.823139
54.595 10.570672
54.600 10.506973
54.605 9.954638
54.610 9.515963
54.615 9.276299
54.620 9.297006
54.625 9.219773
54.630 9.166929
54.635 9.092081
54.640 9.133077
54.645 9.420115
54.650 9.449966
54.655 9.64479
54.660 9.734431
54.665 10.146434
54.670 10.616421
54.675 10.325208
54.680 9.790794
54.685 9.197777
54.690 9.146925
54.695 9.178396
54.700 8.798356
54.705 8.58679
54.710 8.762462
54.715 9.370883
54.720 9.336864
54.725 9.505175
54.730 10.227505
54.735 10.760098
54.740 11.244612
54.745 11.254615
54.750 11.32303
54.755 11.585591
54.760 11.453534
54.765 10.972541
54.770 11.066216
54.775 11.284357
54.780 11.118854
54.785 10.810071
54.790 10.81095
54.795 10.652093
54.800 10.557427
54.805 10.387345
54.810 10.408693
54.815 10.839369
54.820 11.440293
54.825 11.237137
54.830 11.172367
54.835 11.042673
54.840 11.029182
54.845 11.009943
54.850 11.058982
54.855 10.654777
54.860 10.874727
54.865 10.829775
54.870 11.034006
54.875 11.156787
54.880 11.036399
54.885 10.974523
54.890 11.104175
54.895 11.342331
54.900 11.272467
54.905 11.231756
54.910 11.096269
54.915 11.34244
54.920 11.40292
54.925 11.151655
54.930 11.222592
54.935 11.002065
54.940 10.474391
54.945 10.176577
54.950 9.452133
54.955 9.437318
54.960 9.580253
54.965 9.469834
54.970 9.717921
54.975 9.86895
54.980 10.011422
54.985 10.333509
54.990 10.240746
54.995 10.487541
55.000 10.656956
55.005 10.711678
55.010 10.651511
55.015 10.660214
55.020 10.728518
55.025 10.706955
55.030 10.296982
55.035 10.141859
55.040 10.109091
55.045 10.034386
55.050 10.290944
55.055 10.62179
55.060 10.820822
55.065 10.979351
55.070 11.534197
55.075 11.625003
55.080 11.400325
55.085 10.809553
55.090 10.30675
55.095 10.323931
55.100 9.94505
55.105 9.478699
55.110 9.913106
55.115 10.714765
55.120 11.106357
55.125 11.413939
55.130 11.623614
55.135 12.528289
55.140 12.641015
55.145 12.36844
55.150 12.088749
55.155 12.214715
55.160 12.117869
55.165 11.923562
55.170 11.122077
55.175 11.411987
55.180 11.120632
55.185 11.080838
55.190 10.907001
55.195 10.756958
55.200 10.594183
55.205 11.038035
55.210 10.461285
55.215 10.537025
55.220 10.532626
55.225 10.762704
55.230 10.437298
55.235 10.012715
55.240 9.646723
55.245 10.244805
55.250 10.694054
55.255 10.229673
55.260 9.599278
55.265 10.250909
55.270 10.470313
55.275 10.173055
55.280 9.694617
55.285 9.11902
55.290 9.466803
55.295 9.850896
55.300 9.647864
55.305 9.797643
55.310 9.877167
55.315 10.157777
55.320 10.362787
55.325 10.338569
55.330 10.244648
55.335 10.253953
55.340 10.518927
55.345 10.90314
55.350 10.715116
55.355 11.181248
55.360 11.463198
55.365 11.649977
55.370 11.454193
55.375 10.933882
55.380 10.648036
55.385 11.053946
55.390 10.59804
55.395 10.523759
55.400 10.267291
55.405 10.3579
55.410 10.742108
55.415 10.826777
55.420 10.24134
55.425 10.498482
55.430 10.495153
55.435 10.589149
55.440 10.553616
55.445 10.247129
55.450 10.223757
55.455 10.334882
55.460 9.75859
55.465 9.95656
55.470 10.11855
55.475 10.333774
55.480 10.276855
55.485 10.08139
55.490 10.018475
55.495 10.348714
55.500 10.634637
55.505 10.940802
55.510 11.053196
55.515 11.501304
55.520 11.904381
55.525 12.319747
55.530 12.362854
55.535 11.596113
55.540 11.069443
55.545 10.873956
55.550 10.715788
55.555 10.325909
55.560 9.956368
55.565 9.482697
55.570 9.984237
55.575 10.226317
55.580 10.563348
55.585 10.722754
55.590 10.7087
55.595 10.806391
55.600 11.128047
55.605 10.641417
55.610 10.854692
55.615 10.781597
55.620 10.664096
55.625 10.892402
55.630 11.015591
55.635 10.597591
55.640 10.418523
55.645 9.97881
55.650 9.711438
55.655 9.341173
55.660 9.056686
55.665 8.817355
55.670 9.152013
55.675 8.824126
55.680 8.703728
55.685 8.917484
55.690 9.438353
55.695 9.526332
55.700 9.621857
55.705 9.609714
55.710 10.553776
55.715 11.003106
55.720 11.167953
55.725 11.184265
55.730 11.79768
55.735 11.989527
55.740 11.686529
55.745 11.257487
55.750 11.177748
55.755 10.726342
55.760 10.630972
55.765 10.002595
55.770 9.722519
55.775 10.027561
55.780 10.261744
55.785 10.381786
55.790 10.645742
55.795 10.609603
55.800 10.733774
55.805 11.140043
55.810 11.270395
55.815 11.080585
55.820 10.668218
55.825 10.844751
55.830 11.107603
55.835 11.771173
55.840 11.914365
55.845 12.046889
55.850 12.217064
55.855 12.251622
55.860 11.8643
55.865 11.496972
55.870 10.552528
55.875 10.084253
55.880 10.094378
55.885 10.277937
55.890 10.062309
55.895 9.87282
55.900 9.943911
55.905 10.29844
55.910 10.254537
55.915 9.881863
55.920 9.624636
55.925 10.013117
55.930 10.384753
55.935 10.571478
55.940 10.512217
55.945 10.857608
55.950 10.698118
55.955 11.000459
55.960 10.677501
55.965 10.393353
55.970 10.367583
55.975 9.854998
55.980 9.998265
55.985 10.259188
55.990 10.307157
55.995 10.52641
56.000 11.287918
56.005 11.347292
56.010 11.424304
56.015 10.918589
56.020 10.831449
56.025 10.919828
56.030 11.279346
56.035 10.801521
56.040 10.657835
56.045 10.964132
56.050 10.922245
56.055 10.714595
56.060 10.479903
56.065 10.283948
56.070 10.135834
56.075 9.835256
56.080 9.146355
56.085 8.772738
56.090 8.72143
56.095 9.084745
56.100 8.816763
56.105 9.037834
56.110 9.731964
56.115 11.163347
56.120 12.402313
56.125 12.380222
56.130 12.183331
56.135 12.399255
56.140 12.586103
56.145 12.295476
56.150 11.077828
56.155 10.623982
56.160 10.888968
56.165 11.137469
56.170 10.921173
56.175 10.86741
56.180 10.943715
56.185 11.270417
56.190 11.33325
56.195 11.231831
56.200 11.802882
56.205 12.048513
56.210 12.114775
56.215 12.371206
56.220 12.689334
56.225 12.530436
56.230 12.468834
56.235 11.852582
56.240 11.974739
56.245 12.073769
56.250 11.941746
56.255 11.540052
56.260 11.679495
56.265 11.998561
56.270 11.963712
56.275 11.602422
56.280 11.509068
56.285 11.839528
56.290 12.503329
56.295 12.664676
56.300 12.288803
56.305 13.281332
56.310 13.510876
56.315 13.444795
56.320 13.414611
56.325 12.734103
56.330 12.421011
56.335 11.739012
56.340 11.06189
56.345 11.063739
56.350 10.56853
56.355 9.807557
56.360 9.734797
56.365 9.84129
56.370 10.592078
56.375 10.959976
56.380 10.682991
56.385 11.219264
56.390 12.094663
56.395 12.452617
56.400 12.228258
56.405 11.653369
56.410 11.319138
56.415 11.489966
56.420 11.814847
56.425 11.923755
56.430 12.206474
56.435 12.351426
56.440 12.375575
56.445 12.349087
56.450 12.637858
56.455 12.315463
56.460 11.897479
56.465 11.759263
56.470 11.301476
56.475 11.523369
56.480 11.518033
56.485 11.324357
56.490 11.815396
56.495 12.063094
56.500 12.295924
56.505 12.74538
56.510 12.796072
56.515 12.926266
56.520 13.01507
56.525 13.236316
56.530 13.237073
56.535 13.464307
56.540 13.445905
56.545 13.636773
56.550 13.484324
56.555 13.795774
56.560 13.48281
56.565 13.435339
56.570 13.295759
56.575 13.495588
56.580 13.179333
56.585 13.230869
56.590 13.287169
56.595 13.704137
56.600 13.512517
56.605 13.18404
56.610 13.286756
56.615 13.758134
56.620 13.55522
56.625 12.989668
56.630 12.582353
56.635 12.659217
56.640 12.788284
56.645 12.487823
56.650 12.124233
56.655 12.432362
56.660 12.662892
56.665 12.618238
56.670 12.63977
56.675 12.39995
56.680 12.430385
56.685 12.983133
56.690 13.264264
56.695 13.541023
56.700 13.898036
56.705 14.285709
56.710 14.959401
56.715 15.622721
56.720 15.471471
56.725 15.406047
56.730 15.061747
56.735 14.762333
56.740 14.566585
56.745 14.175026
56.750 14.076259
56.755 13.679787
56.760 12.818092
56.765 12.152101
56.770 11.948453
56.775 11.970595
56.780 11.401598
56.785 11.097997
56.790 11.446748
56.795 11.692395
56.800 12.133847
56.805 11.979457
56.810 11.898083
56.815 12.031313
56.820 11.995967
56.825 11.730257
56.830 11.52919
56.835 11.76372
56.840 11.668158
56.845 11.44533
56.850 11.241202
56.855 11.311597
56.860 11.50022
56.865 11.243516
56.870 10.699162
56.875 10.749692
56.880 11.012168
56.885 11.338332
56.890 11.601045
56.895 12.076942
56.900 12.31209
56.905 12.512506
56.910 12.213449
56.915 12.02236
56.920 11.682689
56.925 11.433264
56.930 11.636569
56.935 11.886407
56.940 12.406961
56.945 12.854331
56.950 12.8204
56.955 12.899924
56.960 12.58851
56.965 12.329989
56.970 12.228744
56.975 11.660999
56.980 11.169023
56.985 10.960232
56.990 10.456783
56.995 10.400337
57.000 10.287734
57.005 9.728715
57.010 9.671183
57.015 9.353169
57.020 9.414363
57.025 9.80952
57.030 10.221793
57.035 10.31786
57.040 10.866511
57.045 11.173799
57.050 11.580832
57.055 11.99994
57.060 12.034655
57.065 11.64558
57.070 11.412404
57.075 11.195584
57.080 10.700663
57.085 10.716685
57.090 10.946073
57.095 10.811203
57.100 10.582725
57.105 10.771715
57.110 11.526186
57.115 12.497124
57.120 12.775934
57.125 12.152263
57.130 12.238286
57.135 12.691195
57.140 13.03272
57.145 12.813315
57.150 12.380357
57.155 12.292232
57.160 12.720691
57.165 12.847467
57.170 12.512346
57.175 12.067396
57.180 11.492512
57.185 11.262403
57.190 10.877439
57.195 10.707715
57.200 10.336644
57.205 10.141137
57.210 10.38015
57.215 10.674459
57.220 11.383736
57.225 11.750086
57.230 11.645693
57.235 12.124109
57.240 12.09981
57.245 11.580861
57.250 11.454859
57.255 11.026113
57.260 10.867832
57.265 10.936042
57.270 10.706349
57.275 11.106492
57.280 12.014876
57.285 12.077047
57.290 12.293625
57.295 12.524507
57.300 12.888744
57.305 13.231582
57.310 12.902083
57.315 12.567318
57.320 12.886807
57.325 12.828115
57.330 12.706403
57.335 12.633246
57.340 12.705911
57.345 13.06016
57.350 13.405338
57.355 13.771818
57.360 13.75787
57.365 13.85713
57.370 13.184386
57.375 12.984047
57.380 13.095208
57.385 12.497494
57.390 12.098806
57.395 12.200195
57.400 12.085123
57.405 12.234765
57.410 12.36771
57.415 12.306337
57.420 12.773002
57.425 13.193161
57.430 13.159028
57.435 13.285754
57.440 13.607038
57.445 13.475815
57.450 13.063237
57.455 12.54285
57.460 12.019322
57.465 11.961549
57.470 12.089846
57.475 12.206442
57.480 12.200292
57.485 12.371234
57.490 12.028036
57.495 11.882114
57.500 11.690004
57.505 11.412374
57.510 10.802074
57.515 10.794559
57.520 10.982265
57.525 11.496045
57.530 11.435102
57.535 11.346558
57.540 11.491173
57.545 11.663109
57.550 11.274057
57.555 11.056595
57.560 10.969385
57.565 11.071558
57.570 10.847859
57.575 10.498303
57.580 10.469665
57.585 10.832415
57.590 11.139193
57.595 11.528423
57.600 11.925074
57.605 12.219921
57.610 12.675007
57.615 12.86445
57.620 12.963826
57.625 12.478646
57.630 12.178954
57.635 12.131354
57.640 12.423138
57.645 12.65405
57.650 12.669588
57.655 13.142861
57.660 13.192358
57.665 13.079379
57.670 12.823491
57.675 12.504298
57.680 12.082028
57.685 11.769883
57.690 11.527501
57.695 11.627091
57.700 11.913957
57.705 11.847787
57.710 11.954009
57.715 12.287004
57.720 12.631261
57.725 12.99858
57.730 12.989568
57.735 12.636277
57.740 12.700583
57.745 12.90569
57.750 12.718868
57.755 12.320085
57.760 11.912508
57.765 11.897481
57.770 12.085624
57.775 11.98176
57.780 11.743081
57.785 11.67085
57.790 11.385673
57.795 10.96999
57.800 11.141571
57.805 11.130138
57.810 11.458753
57.815 11.341795
57.820 11.615784
57.825 12.178717
57.830 12.88828
57.835 12.840407
57.840 13.143023
57.845 12.929057
57.850 12.912182
57.855 12.530103
57.860 12.050522
57.865 11.474705
57.870 11.212114
57.875 11.11838
57.880 11.290713
57.885 11.434335
57.890 11.870362
57.895 11.874024
57.900 12.806953
57.905 13.112676
57.910 12.664467
57.915 12.848709
57.920 12.863696
57.925 12.89129
57.930 13.122932
57.935 12.919433
57.940 12.523143
57.945 13.060622
57.950 12.825233
57.955 12.566839
57.960 12.418093
57.965 12.153306
57.970 11.795938
57.975 11.913589
57.980 11.561705
57.985 12.041569
57.990 12.448734
57.995 12.542692
58.000 12.33306
58.005 11.970061
58.010 12.007666
58.015 12.176583
58.020 11.601236
58.025 11.25213
58.030 11.458371
58.035 11.777468
58.040 12.397061
58.045 12.741151
58.050 12.79323
58.055 12.898818
58.060 12.990875
58.065 13.058928
58.070 13.186322
58.075 12.9132
58.080 12.986364
58.085 13.439047
58.090 13.49797
58.095 13.037919
58.100 12.684219
58.105 12.639628
58.110 12.884518
58.115 12.579388
58.120 12.366635
58.125 12.802321
58.130 13.241329
58.135 13.461074
58.140 13.229587
58.145 12.889449
58.150 13.008912
58.155 12.943067
58.160 12.530849
58.165 12.222754
58.170 11.980428
58.175 12.185671
58.180 12.387027
58.185 12.17292
58.190 12.531654
58.195 12.621301
58.200 12.709883
58.205 13.151945
58.210 13.122912
58.215 12.84307
58.220 12.396972
58.225 11.603572
58.230 11.724126
58.235 12.292994
58.240 11.868515
58.245 11.629768
58.250 11.915968
58.255 12.026107
58.260 12.012938
58.265 11.567323
58.270 11.546017
58.275 11.781153
58.280 11.80089
58.285 11.627663
58.290 11.91851
58.295 12.583961
58.300 13.128376
58.305 12.786139
58.310 12.800387
58.315 12.701759
58.320 12.811045
58.325 12.835799
58.330 12.80065
58.335 13.020849
58.340 12.879799
58.345 13.241777
58.350 13.220203
58.355 13.714302
58.360 13.922198
58.365 13.51489
58.370 13.183412
58.375 13.423566
58.380 13.117241
58.385 13.783806
58.390 13.561307
58.395 13.206351
58.400 13.329254
58.405 13.387588
58.410 13.325618
58.415 13.40586
58.420 13.176569
58.425 12.934347
58.430 12.627825
58.435 12.489483
58.440 12.059886
58.445 11.997004
58.450 12.159045
58.455 11.869048
58.460 11.926172
58.465 12.377969
58.470 12.563529
58.475 13.59514
58.480 14.191878
58.485 14.176267
58.490 14.422743
58.495 14.508506
58.500 14.024333
58.505 13.643771
58.510 12.931577
58.515 12.381767
58.520 12.318203
58.525 12.110011
