!@!!GADDS PLOTSO FILE: Chi integration type
!@!!Title/SampleName: map-ed
!@!!Comment: ?
!@!!User: Bruker Instrument Administrator
!@!!Site: University of Illinois Chicago
!@!!Frame: map-ed_01_000.gfrm
!@!!Wavelengths    1.54184   1.54056   1.54439
!@!!Frame angles: 2Theta: 63.000 Omega: 50.000 Phi: 0.000 Chi: 90.000
!@!!Integration range: 2Theta: 53.000 to 73.000  Gamma: -105.000 to -75.000
!@!!Integration method: bin normalized
!@!N
!@!SS
!@!M
!@!L 0.0 0.0 0.0 0.0
!@!XDegrees
!@!YCounts
53.000 5.667136
53.005 5.650894
53.010 5.879614
53.015 6.00372
53.020 6.172396
53.025 6.526745
53.030 6.241833
53.035 6.255946
53.040 6.224829
53.045 6.237746
53.050 6.684902
53.055 6.728959
53.060 7.012857
53.065 7.384097
53.070 7.379427
53.075 7.587308
53.080 7.226158
53.085 6.92628
53.090 6.617412
53.095 6.135829
53.100 6.20431
53.105 6.386281
53.110 6.123456
53.115 6.381316
53.120 6.643905
53.125 6.677897
53.130 6.50122
53.135 6.157848
53.140 6.02637
53.145 6.166892
53.150 6.092465
53.155 6.270721
53.160 6.527663
53.165 6.505115
53.170 6.300022
53.175 6.545335
53.180 6.100664
53.185 5.708374
53.190 5.213822
53.195 4.841818
53.200 4.763135
53.205 4.777504
53.210 4.857494
53.215 5.243431
53.220 5.322408
53.225 5.325404
53.230 5.543312
53.235 5.59985
53.240 5.510766
53.245 4.997931
53.250 4.757939
53.255 4.811255
53.260 4.938258
53.265 4.979577
53.270 5.254881
53.275 5.550724
53.280 5.802349
53.285 6.119268
53.290 6.462636
53.295 6.464779
53.300 6.484334
53.305 6.29302
53.310 6.291909
53.315 6.445561
53.320 6.438263
53.325 6.66311
53.330 6.908461
53.335 7.163321
53.340 7.217789
53.345 7.072613
53.350 6.842611
53.355 6.998857
53.360 7.092983
53.365 7.403714
53.370 7.483488
53.375 7.485812
53.380 7.571845
53.385 7.579496
53.390 7.216508
53.395 7.052983
53.400 6.734933
53.405 6.733169
53.410 6.818165
53.415 6.830625
53.420 6.861495
53.425 7.099809
53.430 6.863791
53.435 7.244589
53.440 7.35641
53.445 7.489666
53.450 7.312283
53.455 7.202168
53.460 7.078965
53.465 7.235027
53.470 7.182133
53.475 7.088
53.480 7.047823
53.485 7.811853
53.490 8.039564
53.495 8.117262
53.500 7.404909
53.505 6.888731
53.510 6.941738
53.515 6.618128
53.520 6.272704
53.525 6.542929
53.530 6.741828
53.535 6.831793
53.540 6.7444
53.545 6.763707
53.550 6.808943
53.555 6.635567
53.560 6.351863
53.565 6.55547
53.570 6.720802
53.575 6.811488
53.580 7.181633
53.585 7.234274
53.590 7.412571
53.595 7.078908
53.600 7.303334
53.605 7.473267
53.610 7.281853
53.615 6.900477
53.620 6.956135
53.625 6.787094
53.630 6.784477
53.635 6.368769
53.640 6.117601
53.645 6.30658
53.650 6.476261
53.655 6.493708
53.660 6.348752
53.665 6.257346
53.670 6.880939
53.675 7.399085
53.680 7.239203
53.685 7.16402
53.690 7.085488
53.695 7.084297
53.700 7.218109
53.705 6.54459
53.710 6.261628
53.715 6.459341
53.720 6.564862
53.725 6.670057
53.730 6.745038
53.735 6.694609
53.740 7.128043
53.745 6.981369
53.750 7.037984
53.755 7.076472
53.760 7.33782
53.765 7.864006
53.770 8.178564
53.775 8.3032
53.780 8.489761
53.785 8.005147
53.790 7.862761
53.795 7.430248
53.800 7.349187
53.805 6.975395
53.810 6.74436
53.815 6.790726
53.820 6.871584
53.825 6.998542
53.830 7.396223
53.835 7.176108
53.840 7.638148
53.845 8.104921
53.850 8.0944
53.855 8.164332
53.860 7.917018
53.865 7.751661
53.870 7.536663
53.875 7.087782
53.880 6.981074
53.885 7.191865
53.890 7.232443
53.895 7.446188
53.900 7.149403
53.905 7.203702
53.910 7.038787
53.915 6.92727
53.920 7.035387
53.925 6.982216
53.930 6.729327
53.935 6.985771
53.940 7.852363
53.945 7.713698
53.950 7.262218
53.955 6.99495
53.960 7.102282
53.965 7.521012
53.970 7.416661
53.975 6.861187
53.980 7.300929
53.985 7.5866
53.990 7.893505
53.995 7.981599
54.000 7.676946
54.005 7.422634
54.010 7.356493
54.015 6.933156
54.020 6.725921
54.025 6.401536
54.030 6.209504
54.035 6.453165
54.040 6.539985
54.045 6.826354
54.050 7.265179
54.055 7.56597
54.060 7.847885
54.065 7.957092
54.070 7.881223
54.075 7.761182
54.080 7.624549
54.085 7.727924
54.090 7.654577
54.095 7.807946
54.100 7.825203
54.105 7.452698
54.110 7.431921
54.115 7.126498
54.120 7.21241
54.125 6.989447
54.130 6.765915
54.135 7.042083
54.140 7.481918
54.145 7.989079
54.150 8.64528
54.155 8.438086
54.160 8.744681
54.165 8.600665
54.170 8.244407
54.175 8.326749
54.180 7.825279
54.185 7.968162
54.190 8.409814
54.195 8.558295
54.200 9.423684
54.205 9.352058
54.210 9.238415
54.215 9.024481
54.220 8.354887
54.225 8.249643
54.230 8.01541
54.235 7.755813
54.240 8.095096
54.245 7.990785
54.250 7.939801
54.255 7.86611
54.260 7.758011
54.265 7.694401
54.270 7.573556
54.275 8.059744
54.280 8.207146
54.285 8.773481
54.290 9.353245
54.295 9.162272
54.300 9.093637
54.305 8.55974
54.310 8.137408
54.315 7.996628
54.320 7.638667
54.325 7.517727
54.330 7.578216
54.335 8.078309
54.340 8.683132
54.345 8.615549
54.350 8.838755
54.355 8.725957
54.360 8.373096
54.365 8.113731
54.370 7.956105
54.375 7.963683
54.380 8.346547
54.385 8.464176
54.390 8.464729
54.395 8.421623
54.400 8.359428
54.405 8.749941
54.410 8.592867
54.415 8.287674
54.420 7.948801
54.425 8.103096
54.430 8.316353
54.435 8.103915
54.440 7.595497
54.445 7.361468
54.450 7.532645
54.455 7.911961
54.460 7.852443
54.465 7.916541
54.470 8.209989
54.475 8.243752
54.480 8.533555
54.485 8.278089
54.490 8.130357
54.495 8.294769
54.500 8.179543
54.505 8.119263
54.510 8.009282
54.515 7.712937
54.520 7.699805
54.525 8.04847
54.530 8.364218
54.535 8.279838
54.540 7.962779
54.545 8.441685
54.550 8.615582
54.555 8.717983
54.560 8.294616
54.565 8.412829
54.570 8.491649
54.575 8.301984
54.580 7.691188
54.585 7.705701
54.590 7.529891
54.595 7.270812
54.600 6.82443
54.605 7.02371
54.610 7.308849
54.615 7.892001
54.620 7.94313
54.625 7.963411
54.630 7.941566
54.635 7.780431
54.640 7.717507
54.645 7.653886
54.650 7.915558
54.655 8.233542
54.660 8.441805
54.665 8.526206
54.670 8.947859
54.675 9.842377
54.680 10.106668
54.685 9.41135
54.690 9.15442
54.695 9.222573
54.700 9.14109
54.705 8.789745
54.710 8.108793
54.715 8.206603
54.720 8.60416
54.725 8.723285
54.730 8.552922
54.735 8.629599
54.740 8.365105
54.745 7.769795
54.750 7.310834
54.755 6.906137
54.760 6.734511
54.765 6.773717
54.770 7.118774
54.775 7.498638
54.780 7.83266
54.785 8.03948
54.790 8.343849
54.795 8.623103
54.800 8.715722
54.805 8.163486
54.810 7.814931
54.815 7.578039
54.820 7.478882
54.825 7.988163
54.830 8.113532
54.835 8.185664
54.840 8.772165
54.845 9.492236
54.850 10.228195
54.855 10.206692
54.860 9.956342
54.865 9.926837
54.870 10.153342
54.875 10.261513
54.880 10.190907
54.885 9.746474
54.890 9.710747
54.895 9.681525
54.900 9.462511
54.905 9.022384
54.910 8.752988
54.915 8.824327
54.920 9.030062
54.925 9.280148
54.930 9.239291
54.935 9.440272
54.940 10.092546
54.945 10.23467
54.950 10.17098
54.955 10.090679
54.960 9.404697
54.965 9.355967
54.970 9.262208
54.975 8.783895
54.980 8.400952
54.985 7.817374
54.990 7.815243
54.995 8.217765
55.000 7.974251
55.005 7.648942
55.010 7.720879
55.015 7.958221
55.020 7.887504
55.025 7.729339
55.030 7.688155
55.035 7.874594
55.040 8.02877
55.045 8.318305
55.050 8.978261
55.055 9.435045
55.060 9.408385
55.065 9.441565
55.070 9.762654
55.075 9.707027
55.080 9.276764
55.085 8.890685
55.090 9.158932
55.095 9.25492
55.100 8.951082
55.105 8.895469
55.110 8.972307
55.115 9.400158
55.120 9.199062
55.125 8.785891
55.130 8.89549
55.135 9.210447
55.140 8.970092
55.145 8.842408
55.150 8.623116
55.155 8.738692
55.160 8.850922
55.165 8.668281
55.170 8.377163
55.175 8.373605
55.180 8.323375
55.185 8.282923
55.190 8.887571
55.195 9.370343
55.200 9.770071
55.205 10.168115
55.210 10.504923
55.215 10.337207
55.220 10.011173
55.225 9.532186
55.230 8.918492
55.235 8.525481
55.240 8.179602
55.245 8.214491
55.250 8.244738
55.255 8.314642
55.260 8.251467
55.265 8.371299
55.270 8.584192
55.275 8.966077
55.280 8.899106
55.285 8.837579
55.290 8.944968
55.295 9.161941
55.300 9.311683
55.305 9.126901
55.310 8.880922
55.315 9.402123
55.320 9.600039
55.325 9.331701
55.330 8.896504
55.335 8.863652
55.340 9.054734
55.345 8.210599
55.350 7.67391
55.355 7.56257
55.360 8.430676
55.365 8.816886
55.370 8.627204
55.375 8.539454
55.380 8.907481
55.385 8.829529
55.390 9.159147
55.395 8.832227
55.400 8.144114
55.405 8.475725
55.410 8.735539
55.415 8.691919
55.420 8.637515
55.425 7.909202
55.430 7.712381
55.435 8.328686
55.440 8.070428
55.445 7.897645
55.450 8.073993
55.455 8.154717
55.460 7.885818
55.465 7.905946
55.470 8.071609
55.475 8.529752
55.480 8.68422
55.485 8.603861
55.490 8.640382
55.495 9.283863
55.500 9.448333
55.505 9.361876
55.510 9.566751
55.515 9.669085
55.520 10.003951
55.525 10.02061
55.530 9.847368
55.535 10.307165
55.540 10.534808
55.545 10.516295
55.550 11.018579
55.555 10.808358
55.560 10.710458
55.565 10.862679
55.570 10.459351
55.575 10.159791
55.580 9.886608
55.585 9.475286
55.590 9.781618
55.595 9.618363
55.600 9.351043
55.605 9.135866
55.610 8.793827
55.615 8.586793
55.620 8.501764
55.625 8.473936
55.630 8.492009
55.635 8.371525
55.640 8.285233
55.645 8.303065
55.650 8.204155
55.655 8.224883
55.660 8.021741
55.665 8.027557
55.670 7.94976
55.675 7.922584
55.680 8.229165
55.685 8.595588
55.690 9.129936
55.695 9.606087
55.700 10.279597
55.705 10.790594
55.710 11.144758
55.715 10.918947
55.720 10.699126
55.725 10.329116
55.730 10.267811
55.735 9.478527
55.740 8.768396
55.745 8.712818
55.750 8.719121
55.755 8.730682
55.760 8.49138
55.765 8.224801
55.770 8.583704
55.775 8.804725
55.780 8.750497
55.785 9.096219
55.790 8.823266
55.795 8.984227
55.800 9.154223
55.805 9.037678
55.810 9.289721
55.815 9.189925
55.820 8.95952
55.825 9.417633
55.830 9.812655
55.835 10.743715
55.840 11.089788
55.845 10.866969
55.850 11.215943
55.855 11.2275
55.860 11.1262
55.865 10.582915
55.870 9.993111
55.875 9.631591
55.880 9.397012
55.885 9.272312
55.890 9.237265
55.895 9.307626
55.900 9.187436
55.905 9.804414
55.910 10.510084
55.915 10.938578
55.920 11.221432
55.925 11.232039
55.930 11.381477
55.935 12.025267
55.940 11.910041
55.945 11.52636
55.950 10.911413
55.955 10.869843
55.960 10.385926
55.965 10.193242
55.970 9.24985
55.975 8.535823
55.980 8.440432
55.985 8.996545
55.990 8.649193
55.995 9.126485
56.000 9.270683
56.005 9.509672
56.010 10.044304
56.015 10.084296
56.020 10.172385
56.025 10.499925
56.030 10.308743
56.035 10.080594
56.040 10.090099
56.045 9.801531
56.050 9.806278
56.055 9.877745
56.060 9.686174
56.065 10.304694
56.070 10.409379
56.075 10.39676
56.080 10.812847
56.085 10.764711
56.090 10.516707
56.095 10.304993
56.100 9.818841
56.105 9.672874
56.110 9.600019
56.115 9.274865
56.120 9.072865
56.125 9.07434
56.130 9.050536
56.135 9.088756
56.140 8.957943
56.145 9.298617
56.150 9.43269
56.155 9.555276
56.160 9.769783
56.165 9.85632
56.170 10.102645
56.175 10.093048
56.180 9.834742
56.185 9.752781
56.190 9.948771
56.195 9.177689
56.200 9.099368
56.205 9.089662
56.210 9.734669
56.215 10.323536
56.220 10.933601
56.225 11.110751
56.230 11.655972
56.235 11.960548
56.240 11.969716
56.245 11.246153
56.250 10.164716
56.255 9.584852
56.260 9.454847
56.265 9.137444
56.270 8.616948
56.275 8.662005
56.280 9.084574
56.285 9.804563
56.290 10.017261
56.295 10.250607
56.300 10.489015
56.305 10.734793
56.310 10.692961
56.315 10.870512
56.320 10.633657
56.325 10.42798
56.330 10.650254
56.335 11.175611
56.340 11.327296
56.345 10.964785
56.350 10.763268
56.355 10.773775
56.360 10.629514
56.365 10.443146
56.370 10.127581
56.375 10.004984
56.380 9.866731
56.385 9.670016
56.390 9.626059
56.395 9.662743
56.400 9.901052
56.405 9.787394
56.410 10.174263
56.415 10.643198
56.420 10.932934
56.425 11.132309
56.430 11.568946
56.435 11.718535
56.440 11.642761
56.445 10.954734
56.450 11.042917
56.455 11.401713
56.460 11.301598
56.465 10.963946
56.470 10.380773
56.475 10.433458
56.480 10.486039
56.485 9.994463
56.490 9.617953
56.495 9.416284
56.500 8.817728
56.505 8.910914
56.510 9.21997
56.515 9.212865
56.520 9.270327
56.525 9.377851
56.530 9.452307
56.535 9.902973
56.540 9.877497
56.545 9.408249
56.550 9.40559
56.555 9.269287
56.560 9.106881
56.565 8.944462
56.570 8.632483
56.575 8.731741
56.580 9.263819
56.585 9.534467
56.590 9.747434
56.595 9.919738
56.600 9.79161
56.605 10.226409
56.610 10.34047
56.615 10.161806
56.620 10.174781
56.625 9.978068
56.630 10.238787
56.635 10.606426
56.640 10.03125
56.645 10.096496
56.650 10.038636
56.655 10.039402
56.660 10.622535
56.665 10.654032
56.670 10.423241
56.675 10.893104
56.680 11.007413
56.685 11.095384
56.690 11.129867
56.695 11.277423
56.700 11.28371
56.705 11.75507
56.710 11.938041
56.715 12.15388
56.720 12.378825
56.725 12.263932
56.730 11.872848
56.735 11.920135
56.740 11.800248
56.745 11.45108
56.750 11.23904
56.755 11.387076
56.760 12.152131
56.765 12.726633
56.770 12.583426
56.775 12.579714
56.780 12.80095
56.785 12.792463
56.790 12.69366
56.795 11.906395
56.800 11.576469
56.805 11.699165
56.810 11.818027
56.815 11.328759
56.820 10.958403
56.825 10.827908
56.830 10.744203
56.835 10.651184
56.840 10.501896
56.845 10.38744
56.850 10.89101
56.855 11.193527
56.860 11.082834
56.865 11.115845
56.870 10.907079
56.875 11.266939
56.880 11.189073
56.885 10.982227
56.890 10.580378
56.895 10.878588
56.900 10.870893
56.905 10.869157
56.910 10.38848
56.915 10.611706
56.920 10.348387
56.925 10.316172
56.930 10.109411
56.935 10.052516
56.940 10.033798
56.945 9.593475
56.950 9.60635
56.955 10.04849
56.960 10.286591
56.965 10.33353
56.970 10.523719
56.975 11.304667
56.980 12.05132
56.985 12.182322
56.990 12.215364
56.995 12.47215
57.000 12.235974
57.005 11.624237
57.010 10.662319
57.015 9.99122
57.020 9.837899
57.025 9.619109
57.030 8.905041
57.035 9.23884
57.040 9.894246
57.045 10.538824
57.050 11.227793
57.055 11.115989
57.060 11.260982
57.065 11.621087
57.070 11.886446
57.075 11.778793
57.080 11.743913
57.085 11.896016
57.090 11.813807
57.095 11.71031
57.100 11.547336
57.105 11.149814
57.110 11.466187
57.115 10.746716
57.120 10.723842
57.125 11.014467
57.130 11.098363
57.135 11.120938
57.140 11.002314
57.145 10.834784
57.150 11.502281
57.155 11.389086
57.160 11.879068
57.165 12.308947
57.170 12.193631
57.175 12.333641
57.180 12.355959
57.185 11.89043
57.190 12.075559
57.195 11.729609
57.200 11.551847
57.205 11.83321
57.210 11.731588
57.215 11.71245
57.220 11.636214
57.225 11.098088
57.230 10.846231
57.235 10.813782
57.240 10.595665
57.245 10.19771
57.250 10.224815
57.255 10.437621
57.260 10.908399
57.265 11.410688
57.270 11.801964
57.275 11.945656
57.280 11.870378
57.285 11.891998
57.290 11.645308
57.295 11.131451
57.300 10.681669
57.305 10.351965
57.310 10.255967
57.315 10.479379
57.320 10.487208
57.325 10.228716
57.330 10.435622
57.335 10.982955
57.340 11.056632
57.345 11.221183
57.350 11.393322
57.355 11.668286
57.360 11.92691
57.365 11.662528
57.370 11.286615
57.375 11.323769
57.380 11.642317
57.385 11.58742
57.390 11.364609
57.395 11.244487
57.400 11.816719
57.405 11.754875
57.410 11.214657
57.415 11.062539
57.420 11.220008
57.425 11.999998
57.430 12.259633
57.435 11.705938
57.440 12.021556
57.445 12.446569
57.450 12.242015
57.455 12.211986
57.460 11.890623
57.465 11.868352
57.470 12.260196
57.475 12.565372
57.480 12.763346
57.485 12.580938
57.490 12.926718
57.495 12.828211
57.500 12.732187
57.505 12.674649
57.510 12.433742
57.515 12.084889
57.520 12.119484
57.525 11.643886
57.530 12.025411
57.535 11.912119
57.540 11.81676
57.545 12.185117
57.550 12.712316
57.555 12.711697
57.560 12.554681
57.565 12.196466
57.570 12.66356
57.575 12.4221
57.580 11.881242
57.585 11.62793
57.590 12.057195
57.595 12.47049
57.600 13.001654
57.605 12.580205
57.610 12.547391
57.615 12.737361
57.620 12.854224
57.625 12.935437
57.630 13.054536
57.635 12.653959
57.640 13.014329
57.645 13.301366
57.650 13.236995
57.655 12.859371
57.660 11.745511
57.665 11.308807
57.670 11.340166
57.675 11.137179
57.680 10.912538
57.685 11.136716
57.690 11.702223
57.695 12.680758
57.700 12.877439
57.705 13.212428
57.710 13.25841
57.715 13.954398
57.720 14.212904
57.725 13.706643
57.730 13.33569
57.735 13.086087
57.740 12.872026
57.745 12.500196
57.750 12.228077
57.755 11.985903
57.760 12.176822
57.765 11.740458
57.770 11.083117
57.775 11.13452
57.780 11.399813
57.785 11.234719
57.790 11.378642
57.795 11.242352
57.800 11.501703
57.805 12.273493
57.810 12.716388
57.815 13.141548
57.820 13.192232
57.825 13.017706
57.830 13.245112
57.835 13.509002
57.840 13.30659
57.845 13.012652
57.850 12.894748
57.855 12.750395
57.860 13.058354
57.865 13.478499
57.870 13.742213
57.875 13.508991
57.880 12.878827
57.885 12.523359
57.890 13.105081
57.895 13.501741
57.900 13.221035
57.905 12.844099
57.910 12.805549
57.915 13.311447
57.920 13.629474
57.925 12.745555
57.930 11.707151
57.935 11.742353
57.940 11.667015
57.945 11.963462
57.950 12.1094
57.955 12.052144
57.960 12.544884
57.965 13.493598
57.970 13.759304
57.975 13.439734
57.980 13.310535
57.985 13.24985
57.990 13.391564
57.995 13.328417
58.000 13.027457
58.005 12.994538
58.010 13.691332
58.015 13.875331
58.020 13.616159
58.025 13.488494
58.030 13.387671
58.035 13.715589
58.040 14.035373
58.045 13.936849
58.050 14.098078
58.055 14.066498
58.060 14.129207
58.065 14.091752
58.070 13.776741
58.075 13.926445
58.080 14.114215
58.085 13.919088
58.090 14.091766
58.095 13.939321
58.100 13.986884
58.105 14.398556
58.110 14.211578
58.115 13.701802
58.120 14.008551
58.125 13.689142
58.130 13.332077
58.135 13.443774
58.140 13.46624
58.145 13.162956
58.150 13.68022
58.155 14.230193
58.160 14.508683
58.165 15.040442
58.170 15.153294
58.175 14.819812
58.180 15.163318
58.185 15.47098
58.190 14.532043
58.195 14.781548
58.200 14.764074
58.205 14.394173
58.210 15.067423
58.215 15.076788
58.220 15.018013
58.225 15.646745
58.230 15.629768
58.235 15.480195
58.240 15.459987
58.245 14.851494
58.250 14.786342
58.255 14.647323
58.260 14.458785
58.265 15.09077
58.270 15.647049
58.275 15.839911
58.280 16.151859
58.285 15.978115
58.290 15.993896
58.295 16.445171
58.300 16.175165
58.305 16.127155
58.310 16.311203
58.315 16.463928
58.320 16.744762
58.325 16.846767
58.330 16.484753
58.335 16.404261
58.340 16.560059
58.345 17.112646
58.350 17.722092
58.355 17.699057
58.360 17.803564
58.365 17.874231
58.370 18.318609
58.375 19.107761
58.380 18.734465
58.385 18.491877
58.390 18.179092
58.395 17.690079
58.400 17.893414
58.405 17.493258
58.410 17.109583
58.415 17.148743
58.420 17.631205
58.425 18.780409
58.430 19.668381
58.435 20.075649
58.440 20.16736
58.445 19.968132
58.450 19.613241
58.455 20.113331
58.460 20.245695
58.465 20.359991
58.470 20.718941
58.475 21.073963
58.480 21.516153
58.485 22.335108
58.490 22.647522
58.495 22.97949
58.500 23.283783
58.505 23.059788
58.510 23.031181
58.515 23.533813
58.520 23.871161
58.525 24.223038
58.530 24.472864
58.535 24.79904
58.540 26.188234
58.545 27.092308
58.550 27.174971
58.555 26.658001
58.560 26.637636
58.565 27.334179
58.570 27.668974
58.575 26.662191
58.580 26.134197
58.585 26.280218
58.590 26.707514
58.595 26.852594
58.600 25.635843
58.605 25.370102
58.610 26.470922
