!@!!GADDS PLOTSO FILE: Chi integration type
!@!!Title/SampleName: map-58
!@!!Comment: ?
!@!!User: Bruker Instrument Administrator
!@!!Site: University of Illinois Chicago
!@!!Frame: map-58_01_000.gfrm
!@!!Wavelengths    1.54184   1.54056   1.54439
!@!!Frame angles: 2Theta: 63.000 Omega: 50.000 Phi: 0.000 Chi: 90.000
!@!!Integration range: 2Theta: 53.000 to 73.000  Gamma: -105.000 to -75.000
!@!!Integration method: bin normalized
!@!N
!@!SS
!@!M
!@!L 0.0 0.0 0.0 0.0
!@!XDegrees
!@!YCounts
53.000 8.373329
53.005 8.243816
53.010 8.034001
53.015 8.147094
53.020 8.054494
53.025 8.301251
53.030 8.642498
53.035 8.885676
53.040 8.944694
53.045 8.817678
53.050 8.322922
53.055 8.1801
53.060 8.241623
53.065 8.468434
53.070 8.297624
53.075 8.090674
53.080 8.587317
53.085 8.942321
53.090 8.571673
53.095 8.1327
53.100 7.932189
53.105 8.143856
53.110 8.251802
53.115 7.904568
53.120 7.816597
53.125 7.951147
53.130 7.778475
53.135 7.442617
53.140 7.305389
53.145 7.099165
53.150 7.19825
53.155 7.612834
53.160 7.667552
53.165 7.841139
53.170 7.901438
53.175 8.143666
53.180 8.219014
53.185 8.009503
53.190 7.930313
53.195 8.234864
53.200 8.316515
53.205 8.611316
53.210 8.988213
53.215 8.832021
53.220 8.84163
53.225 9.003475
53.230 9.188375
53.235 9.353967
53.240 8.848756
53.245 8.496282
53.250 8.57446
53.255 8.492702
53.260 8.179768
53.265 7.814607
53.270 7.348766
53.275 7.247577
53.280 7.162385
53.285 7.342206
53.290 7.717161
53.295 7.558198
53.300 7.671934
53.305 8.001117
53.310 8.400386
53.315 8.553782
53.320 8.191685
53.325 7.855745
53.330 7.933665
53.335 7.769059
53.340 7.616325
53.345 7.89976
53.350 8.436531
53.355 8.5068
53.360 8.655284
53.365 8.748905
53.370 8.761477
53.375 8.660886
53.380 8.36927
53.385 8.219352
53.390 8.311268
53.395 8.304729
53.400 8.561432
53.405 8.387122
53.410 8.41073
53.415 8.31687
53.420 8.454215
53.425 8.251351
53.430 8.213827
53.435 8.526956
53.440 9.169464
53.445 9.409637
53.450 9.485835
53.455 9.479774
53.460 9.980723
53.465 9.934985
53.470 9.414744
53.475 9.028388
53.480 8.625587
53.485 8.316458
53.490 8.031414
53.495 7.951527
53.500 8.605865
53.505 8.923254
53.510 8.848321
53.515 9.176884
53.520 9.075432
53.525 8.653057
53.530 8.365882
53.535 8.086012
53.540 8.134305
53.545 8.147187
53.550 8.148279
53.555 8.86975
53.560 9.425373
53.565 9.409693
53.570 9.152773
53.575 9.045361
53.580 9.374459
53.585 9.704502
53.590 9.562284
53.595 9.560515
53.600 9.787045
53.605 9.953068
53.610 9.905573
53.615 9.56312
53.620 8.816305
53.625 8.657983
53.630 8.569057
53.635 8.365891
53.640 7.98278
53.645 8.069643
53.650 8.163157
53.655 8.028523
53.660 8.067735
53.665 8.076241
53.670 8.302567
53.675 8.907804
53.680 8.793364
53.685 9.030363
53.690 9.754972
53.695 10.087165
53.700 10.011626
53.705 9.883531
53.710 9.582875
53.715 9.917471
53.720 9.999752
53.725 9.684381
53.730 9.311089
53.735 9.274156
53.740 9.46253
53.745 9.738994
53.750 9.480692
53.755 9.296905
53.760 9.590482
53.765 9.87686
53.770 9.556337
53.775 9.142385
53.780 8.882723
53.785 9.139656
53.790 8.602665
53.795 8.481748
53.800 8.895635
53.805 9.306973
53.810 9.320032
53.815 9.584565
53.820 9.485221
53.825 9.697003
53.830 9.497634
53.835 8.825478
53.840 8.821174
53.845 9.089368
53.850 9.235557
53.855 9.705008
53.860 10.151059
53.865 9.806376
53.870 9.730762
53.875 9.603031
53.880 9.362159
53.885 9.316963
53.890 8.958512
53.895 8.9694
53.900 9.006021
53.905 9.014796
53.910 8.990326
53.915 8.602695
53.920 8.539902
53.925 8.305219
53.930 7.928966
53.935 8.431028
53.940 9.254417
53.945 9.56296
53.950 9.620633
53.955 10.023855
53.960 10.084394
53.965 9.9822
53.970 9.549123
53.975 8.821291
53.980 8.622976
53.985 8.522215
53.990 8.259841
53.995 8.499978
54.000 8.346874
54.005 8.335564
54.010 8.422763
54.015 8.620605
54.020 8.670073
54.025 8.879965
54.030 9.088765
54.035 9.84974
54.040 10.269762
54.045 10.408659
54.050 10.328898
54.055 10.06461
54.060 10.122818
54.065 9.826818
54.070 9.217253
54.075 8.745261
54.080 8.906401
54.085 9.010476
54.090 9.094438
54.095 8.939501
54.100 9.136491
54.105 9.363839
54.110 9.483886
54.115 9.311178
54.120 9.29306
54.125 9.32151
54.130 9.327755
54.135 9.472247
54.140 10.008282
54.145 10.247911
54.150 10.562263
54.155 10.507895
54.160 10.497502
54.165 10.829967
54.170 10.687237
54.175 10.120114
54.180 10.0956
54.185 10.115161
54.190 10.164204
54.195 9.920218
54.200 9.801213
54.205 9.904845
54.210 9.752936
54.215 9.471754
54.220 9.472895
54.225 10.053152
54.230 10.162808
54.235 10.006179
54.240 9.904071
54.245 9.962031
54.250 9.281847
54.255 8.887947
54.260 9.143772
54.265 9.199246
54.270 9.279798
54.275 9.258185
54.280 9.394407
54.285 9.968802
54.290 9.505163
54.295 8.617995
54.300 8.158079
54.305 8.162505
54.310 8.308861
54.315 8.163356
54.320 8.093955
54.325 8.560096
54.330 9.082194
54.335 9.572021
54.340 9.454915
54.345 9.650103
54.350 9.865898
54.355 9.861551
54.360 9.60673
54.365 9.285131
54.370 9.209426
54.375 9.325215
54.380 9.641412
54.385 9.778555
54.390 9.73597
54.395 9.548186
54.400 9.404165
54.405 9.354332
54.410 9.61289
54.415 8.904646
54.420 9.077535
54.425 8.914821
54.430 9.31034
54.435 9.717683
54.440 9.474226
54.445 9.222653
54.450 9.317649
54.455 9.057095
54.460 9.426889
54.465 9.212831
54.470 8.790712
54.475 8.287305
54.480 7.993154
54.485 7.710751
54.490 7.946688
54.495 8.273155
54.500 8.331914
54.505 8.848127
54.510 9.503764
54.515 10.2602
54.520 10.358624
54.525 9.989639
54.530 9.783735
54.535 10.077241
54.540 10.284571
54.545 10.096817
54.550 9.909747
54.555 10.043205
54.560 9.779908
54.565 9.921829
54.570 9.879323
54.575 9.86091
54.580 9.73069
54.585 9.502796
54.590 10.191753
54.595 10.103719
54.600 9.471
54.605 8.917503
54.610 8.787526
54.615 9.413672
54.620 9.554006
54.625 9.219294
54.630 9.785444
54.635 10.466721
54.640 10.848157
54.645 11.403636
54.650 11.181965
54.655 11.649523
54.660 12.091337
54.665 11.745306
54.670 11.459359
54.675 11.715686
54.680 11.048258
54.685 11.028288
54.690 11.292744
54.695 11.482715
54.700 11.81157
54.705 11.567005
54.710 10.974629
54.715 11.289622
54.720 11.146624
54.725 10.280978
54.730 9.475307
54.735 9.026011
54.740 9.035172
54.745 8.824458
54.750 8.260953
54.755 8.41993
54.760 8.610045
54.765 9.191955
54.770 10.211784
54.775 9.993986
54.780 10.086431
54.785 10.406309
54.790 10.445315
54.795 10.755819
54.800 10.684226
54.805 10.421432
54.810 10.935593
54.815 10.786166
54.820 10.937591
54.825 10.807254
54.830 10.569264
54.835 10.548661
54.840 10.685725
54.845 10.865007
54.850 11.164275
54.855 10.772814
54.860 10.678226
54.865 10.552211
54.870 10.615693
54.875 10.712118
54.880 10.67787
54.885 10.58453
54.890 10.597317
54.895 10.792175
54.900 10.67851
54.905 10.447415
54.910 10.584594
54.915 10.757026
54.920 10.879646
54.925 11.190578
54.930 11.649227
54.935 12.094646
54.940 12.425508
54.945 12.013672
54.950 11.850171
54.955 11.445405
54.960 10.886035
54.965 10.083749
54.970 9.395723
54.975 9.19455
54.980 9.475203
54.985 9.914727
54.990 10.138064
54.995 10.059376
55.000 10.396884
55.005 10.935163
55.010 10.805942
55.015 10.373308
55.020 10.157003
55.025 10.336862
55.030 10.50974
55.035 10.300315
55.040 10.266233
55.045 10.724737
55.050 11.144841
55.055 11.329277
55.060 11.552533
55.065 11.597029
55.070 11.328015
55.075 11.043695
55.080 10.95397
55.085 10.837149
55.090 10.728665
55.095 10.593989
55.100 10.45826
55.105 10.630116
55.110 10.720592
55.115 10.683885
55.120 10.122329
55.125 9.821068
55.130 9.814921
55.135 10.269292
55.140 10.381732
55.145 10.336004
55.150 10.499556
55.155 11.095097
55.160 11.172379
55.165 10.822761
55.170 10.764791
55.175 10.678826
55.180 10.588336
55.185 10.650064
55.190 10.87456
55.195 10.648576
55.200 10.900658
55.205 11.156568
55.210 11.64564
55.215 11.70684
55.220 11.373204
55.225 11.542792
55.230 11.98717
55.235 11.837014
55.240 11.571607
55.245 11.557826
55.250 11.352254
55.255 11.270825
55.260 11.317865
55.265 11.020885
55.270 10.921657
55.275 10.454129
55.280 10.165855
55.285 9.885742
55.290 9.508533
55.295 9.370464
55.300 9.378151
55.305 9.482982
55.310 9.309283
55.315 9.56517
55.320 10.314401
55.325 10.677613
55.330 10.739096
55.335 10.972324
55.340 11.387724
55.345 11.585602
55.350 11.63039
55.355 11.49639
55.360 11.550342
55.365 11.42697
55.370 11.493011
55.375 11.486933
55.380 11.775653
55.385 12.162651
55.390 12.203237
55.395 12.27051
55.400 12.618194
55.405 12.597006
55.410 12.627391
55.415 12.788567
55.420 12.440401
55.425 12.298773
55.430 12.141846
55.435 11.917333
55.440 11.7644
55.445 11.426338
55.450 10.946975
55.455 10.776913
55.460 10.539958
55.465 10.669776
55.470 10.915781
55.475 11.150544
55.480 11.189206
55.485 11.454473
55.490 11.328884
55.495 11.006414
55.500 11.087694
55.505 10.6175
55.510 10.541877
55.515 10.519646
55.520 10.443838
55.525 10.68213
55.530 10.660572
55.535 10.495829
55.540 10.673626
55.545 10.650106
55.550 10.912512
55.555 11.316355
55.560 11.623786
55.565 12.24173
55.570 12.664331
55.575 12.795927
55.580 12.563325
55.585 11.94379
55.590 11.48442
55.595 11.210748
55.600 11.003181
55.605 10.551702
55.610 10.787292
55.615 10.833689
55.620 10.814401
55.625 10.795835
55.630 11.108969
55.635 11.074698
55.640 10.935168
55.645 10.802859
55.650 11.205925
55.655 11.434671
55.660 11.096242
55.665 11.028246
55.670 10.502906
55.675 10.146049
55.680 9.559764
55.685 9.093511
55.690 8.870534
55.695 9.534275
55.700 9.591022
55.705 10.020961
55.710 10.380619
55.715 10.774573
55.720 11.332585
55.725 11.205873
55.730 10.724394
55.735 10.707296
55.740 10.778471
55.745 11.086538
55.750 11.171254
55.755 11.398648
55.760 11.53282
55.765 11.831452
55.770 12.070444
55.775 11.736377
55.780 11.568043
55.785 11.494784
55.790 11.254068
55.795 11.150479
55.800 11.01825
55.805 10.773709
55.810 11.440801
55.815 11.843528
55.820 12.317464
55.825 12.170918
55.830 12.16463
55.835 12.462245
55.840 12.283056
55.845 11.71786
55.850 11.369172
55.855 11.228776
55.860 11.666529
55.865 11.85743
55.870 11.979522
55.875 12.301204
55.880 12.47212
55.885 12.53025
55.890 12.440222
55.895 11.912207
55.900 11.561802
55.905 11.703296
55.910 11.672445
55.915 11.340102
55.920 11.405251
55.925 11.530735
55.930 12.401519
55.935 12.449153
55.940 12.032326
55.945 11.903416
55.950 11.798402
55.955 11.533792
55.960 11.473476
55.965 11.172698
55.970 10.93771
55.975 11.170637
55.980 11.505123
55.985 11.897517
55.990 11.864254
55.995 11.753859
56.000 12.161056
56.005 12.141238
56.010 11.873118
56.015 11.792258
56.020 12.017217
56.025 12.207956
56.030 12.403246
56.035 12.353822
56.040 12.192023
56.045 12.154913
56.050 12.090474
56.055 11.747963
56.060 10.964452
56.065 10.057914
56.070 9.969165
56.075 10.131021
56.080 10.087067
56.085 10.218207
56.090 10.477306
56.095 10.971585
56.100 11.011217
56.105 11.049593
56.110 10.971162
56.115 11.181109
56.120 11.729125
56.125 11.898156
56.130 11.995534
56.135 12.058162
56.140 12.123878
56.145 12.060894
56.150 11.702559
56.155 11.758669
56.160 11.752732
56.165 12.276331
56.170 12.735003
56.175 12.593143
56.180 12.410528
56.185 12.412309
56.190 11.944201
56.195 11.987811
56.200 11.773184
56.205 12.216972
56.210 12.486691
56.215 13.50545
56.220 13.34344
56.225 12.931583
56.230 13.042538
56.235 12.926839
56.240 12.58592
56.245 12.549788
56.250 11.89734
56.255 12.450429
56.260 13.003396
56.265 13.378001
56.270 13.1766
56.275 13.040385
56.280 12.91372
56.285 12.775565
56.290 12.845244
56.295 12.130476
56.300 11.083104
56.305 10.777838
56.310 10.881471
56.315 11.042512
56.320 10.916548
56.325 10.646189
56.330 11.378115
56.335 12.071558
56.340 12.318229
56.345 12.324104
56.350 12.199158
56.355 11.598463
56.360 11.260504
56.365 10.91431
56.370 10.882912
56.375 11.073712
56.380 10.783606
56.385 11.077755
56.390 11.537029
56.395 11.871859
56.400 12.129025
56.405 12.03842
56.410 11.768765
56.415 11.931744
56.420 11.971086
56.425 12.275185
56.430 12.34204
56.435 12.097985
56.440 12.268805
56.445 12.314843
56.450 12.412357
56.455 12.315819
56.460 12.491537
56.465 12.437412
56.470 12.288313
56.475 12.225825
56.480 12.430607
56.485 12.48063
56.490 12.59243
56.495 12.909777
56.500 13.009535
56.505 12.939548
56.510 12.412602
56.515 12.107513
56.520 12.202815
56.525 11.854021
56.530 11.323434
56.535 11.293709
56.540 11.538571
56.545 11.633919
56.550 11.629694
56.555 11.480419
56.560 11.44493
56.565 11.373072
56.570 11.996711
56.575 12.230369
56.580 12.234038
56.585 12.448745
56.590 12.564813
56.595 12.44339
56.600 12.635539
56.605 11.96965
56.610 11.813122
56.615 12.026793
56.620 11.847836
56.625 12.407125
56.630 12.218949
56.635 12.350651
56.640 12.207303
56.645 12.429557
56.650 12.085073
56.655 11.72175
56.660 11.621398
56.665 11.870197
56.670 12.037533
56.675 12.732873
56.680 12.705344
56.685 12.817902
56.690 12.885932
56.695 13.042028
56.700 12.892011
56.705 12.629164
56.710 12.302806
56.715 12.17309
56.720 12.601726
56.725 12.917322
56.730 13.03148
56.735 13.10986
56.740 13.003688
56.745 13.087703
56.750 13.691128
56.755 13.709301
56.760 13.712556
56.765 13.551531
56.770 13.827119
56.775 13.609073
56.780 13.608876
56.785 13.300184
56.790 13.846344
56.795 14.194174
56.800 14.179382
56.805 14.320545
56.810 14.761752
56.815 14.582433
56.820 14.776155
56.825 13.88762
56.830 13.56462
56.835 13.595072
56.840 13.211512
56.845 13.029312
56.850 13.077733
56.855 12.633138
56.860 12.399053
56.865 12.335083
56.870 12.685051
56.875 12.702596
56.880 12.872592
56.885 13.061395
56.890 13.560034
56.895 13.770381
56.900 13.777783
56.905 13.524732
56.910 13.819544
56.915 13.571674
56.920 13.453105
56.925 13.023035
56.930 12.725507
56.935 12.65466
56.940 12.951708
56.945 12.95335
56.950 12.589251
56.955 12.367372
56.960 12.476639
56.965 12.813588
56.970 12.350183
56.975 12.0328
56.980 12.256186
56.985 12.375417
56.990 12.910242
56.995 12.920676
57.000 12.987432
57.005 12.818009
57.010 12.784471
57.015 12.435119
57.020 12.41715
57.025 12.268359
57.030 12.226741
57.035 12.075291
57.040 12.499881
57.045 12.523051
57.050 12.239308
57.055 11.95196
57.060 11.76258
57.065 11.807384
57.070 11.887404
57.075 11.760464
57.080 11.696161
57.085 12.287025
57.090 12.649219
57.095 12.952804
57.100 13.321665
57.105 13.275728
57.110 13.381598
57.115 13.114985
57.120 12.513288
57.125 12.407761
57.130 12.364722
57.135 12.232923
57.140 12.736007
57.145 12.862765
57.150 13.323803
57.155 13.834875
57.160 13.535363
57.165 13.394861
57.170 13.379024
57.175 13.076413
57.180 12.984345
57.185 13.283347
57.190 13.490137
57.195 13.990562
57.200 14.072155
57.205 13.875885
57.210 13.680602
57.215 13.338936
57.220 12.98569
57.225 12.811135
57.230 12.549471
57.235 12.333968
57.240 12.809805
57.245 13.500751
57.250 13.367338
57.255 13.684219
57.260 13.855298
57.265 13.969037
57.270 14.241277
57.275 13.804848
57.280 13.757569
57.285 14.538245
57.290 14.067651
57.295 14.035989
57.300 14.186399
57.305 14.209337
57.310 14.555334
57.315 14.836697
57.320 14.733465
57.325 14.931928
57.330 14.910315
57.335 15.183406
57.340 15.156688
57.345 15.224514
57.350 14.672322
57.355 14.397577
57.360 14.316607
57.365 14.21251
57.370 14.178472
57.375 14.228868
57.380 14.072803
57.385 14.735981
57.390 14.88797
57.395 14.6009
57.400 13.982663
57.405 13.93812
57.410 14.1369
57.415 13.871137
57.420 12.922327
57.425 12.944623
57.430 13.267554
57.435 13.584061
57.440 13.524382
57.445 13.256178
57.450 13.293059
57.455 13.469325
57.460 13.626922
57.465 13.516582
57.470 13.835175
57.475 13.363454
57.480 13.271087
57.485 13.166046
57.490 13.066028
57.495 12.729304
57.500 12.386858
57.505 12.111649
57.510 12.303815
57.515 12.316808
57.520 12.464762
57.525 12.281865
57.530 12.348687
57.535 12.928295
57.540 12.874423
57.545 12.627241
57.550 12.599754
57.555 12.664342
57.560 12.822871
57.565 12.728032
57.570 12.56251
57.575 12.00692
57.580 12.222331
57.585 12.512603
57.590 12.266791
57.595 12.29636
57.600 12.345114
57.605 12.383303
57.610 13.014199
57.615 13.052305
57.620 12.752167
57.625 13.387228
57.630 14.196291
57.635 14.434819
57.640 14.293229
57.645 13.881119
57.650 13.67949
57.655 14.065644
57.660 14.009384
57.665 13.069804
57.670 12.88311
57.675 13.138551
57.680 13.444128
57.685 13.814311
57.690 13.069508
57.695 12.960881
57.700 13.549651
57.705 13.946969
57.710 14.141727
57.715 14.046188
57.720 13.86589
57.725 14.225605
57.730 14.14733
57.735 13.69708
57.740 13.243512
57.745 12.731637
57.750 12.830094
57.755 12.742809
57.760 12.949512
57.765 13.145415
57.770 12.995004
57.775 13.141103
57.780 13.083528
57.785 12.793509
57.790 12.611812
57.795 12.199644
57.800 12.048392
57.805 12.793972
57.810 13.195251
57.815 13.952614
57.820 14.014575
57.825 13.580235
57.830 13.311414
57.835 13.281869
57.840 12.90211
57.845 12.416266
57.850 12.178677
57.855 12.616219
57.860 13.434755
57.865 14.173189
57.870 14.303389
57.875 14.082917
57.880 13.736256
57.885 13.504822
57.890 13.350418
57.895 13.271882
57.900 13.075865
57.905 12.572819
57.910 12.885706
57.915 13.144681
57.920 13.521307
57.925 13.438013
57.930 13.35642
57.935 13.721015
57.940 14.265939
57.945 14.142809
57.950 14.163139
57.955 13.610573
57.960 13.504824
57.965 13.412643
57.970 13.012329
57.975 12.782434
57.980 13.119995
57.985 13.319367
57.990 13.78802
57.995 14.118261
58.000 14.24937
58.005 14.282331
58.010 14.125275
58.015 13.907815
58.020 13.377649
58.025 12.715714
58.030 12.656473
58.035 12.671463
58.040 12.63571
58.045 13.070132
58.050 13.23453
58.055 13.919577
58.060 14.86549
58.065 14.974361
58.070 14.81919
58.075 15.232033
58.080 15.814234
58.085 15.740254
58.090 15.415407
58.095 15.002875
58.100 15.072802
58.105 15.476468
58.110 15.091046
58.115 14.081794
58.120 14.037416
58.125 14.024805
58.130 13.981296
58.135 14.054932
58.140 13.966157
58.145 14.272008
58.150 14.180474
58.155 14.101598
58.160 13.867703
58.165 13.958655
58.170 14.191148
58.175 14.372076
58.180 14.524165
58.185 14.477299
58.190 14.43319
58.195 14.077137
58.200 13.884624
58.205 13.629297
58.210 13.06451
58.215 12.795488
58.220 13.616966
58.225 14.003652
58.230 14.365891
58.235 14.307973
58.240 14.650352
58.245 14.564268
58.250 14.54579
58.255 14.702088
58.260 14.912406
58.265 14.785274
58.270 14.332889
58.275 14.369346
58.280 15.245198
58.285 15.526538
58.290 15.318666
58.295 15.871044
58.300 16.047405
58.305 16.189106
58.310 15.75438
58.315 15.225041
58.320 15.221984
58.325 14.791559
58.330 14.31319
58.335 14.671954
58.340 14.133103
58.345 14.148005
58.350 14.069804
58.355 13.93692
58.360 13.975843
58.365 13.647133
58.370 13.163017
58.375 13.633735
58.380 13.435274
58.385 13.011911
58.390 13.176715
58.395 13.055895
58.400 13.169972
58.405 13.481691
58.410 13.015971
58.415 13.300788
58.420 14.194641
58.425 14.536136
58.430 14.693119
58.435 14.702408
58.440 15.120877
58.445 15.915813
58.450 15.631805
58.455 15.320448
58.460 15.329408
58.465 15.502376
58.470 15.739888
58.475 15.080016
58.480 15.343232
58.485 15.867596
58.490 16.655317
58.495 16.721537
58.500 16.678715
58.505 16.851671
58.510 17.548071
58.515 17.002247
58.520 16.83951
58.525 15.615636
58.530 15.363794
58.535 15.10889
