!@!!GADDS PLOTSO FILE: Chi integration type
!@!!Title/SampleName: map-a2
!@!!Comment: ?
!@!!User: Bruker Instrument Administrator
!@!!Site: University of Illinois Chicago
!@!!Frame: map-a2_01_000.gfrm
!@!!Wavelengths    1.54184   1.54056   1.54439
!@!!Frame angles: 2Theta: 63.000 Omega: 50.000 Phi: 0.000 Chi: 90.000
!@!!Integration range: 2Theta: 53.000 to 73.000  Gamma: -105.000 to -75.000
!@!!Integration method: bin normalized
!@!N
!@!SS
!@!M
!@!L 0.0 0.0 0.0 0.0
!@!XDegrees
!@!YCounts
53.000 9.565986
53.005 9.16464
53.010 8.563911
53.015 8.334547
53.020 8.636856
53.025 8.884981
53.030 9.002987
53.035 8.765515
53.040 8.797562
53.045 9.146277
53.050 9.35105
53.055 9.563535
53.060 9.297123
53.065 9.199022
53.070 9.701587
53.075 9.683781
53.080 9.834109
53.085 9.621424
53.090 9.486689
53.095 9.572266
53.100 9.599988
53.105 9.249988
53.110 9.054964
53.115 9.342614
53.120 9.347451
53.125 9.440637
53.130 9.569151
53.135 9.796466
53.140 9.870704
53.145 9.569716
53.150 9.141239
53.155 9.356293
53.160 9.292777
53.165 9.276665
53.170 9.127284
53.175 8.917319
53.180 8.94376
53.185 8.741387
53.190 8.551629
53.195 8.525278
53.200 8.066785
53.205 8.394448
53.210 8.636341
53.215 8.862446
53.220 9.142659
53.225 9.256531
53.230 9.477026
53.235 10.035774
53.240 9.62121
53.245 9.810849
53.250 10.20732
53.255 10.421016
53.260 10.092242
53.265 9.952373
53.270 9.830729
53.275 10.216125
53.280 10.423568
53.285 10.168554
53.290 10.164848
53.295 11.014389
53.300 10.952312
53.305 10.942392
53.310 10.845718
53.315 10.821862
53.320 10.738249
53.325 10.204461
53.330 10.00546
53.335 10.289213
53.340 10.193439
53.345 9.655484
53.350 9.50964
53.355 9.680691
53.360 9.700863
53.365 9.67348
53.370 9.448906
53.375 9.675105
53.380 9.973127
53.385 9.968002
53.390 9.691379
53.395 9.451627
53.400 9.43864
53.405 9.519309
53.410 9.658521
53.415 9.421985
53.420 10.175735
53.425 10.578846
53.430 11.105835
53.435 10.823629
53.440 10.393819
53.445 10.039006
53.450 9.769734
53.455 9.232063
53.460 9.189105
53.465 9.18352
53.470 9.190505
53.475 9.716884
53.480 10.09708
53.485 9.992746
53.490 9.903442
53.495 9.737392
53.500 9.973864
53.505 10.283405
53.510 10.229103
53.515 10.16483
53.520 9.94845
53.525 9.822837
53.530 9.859922
53.535 9.52692
53.540 9.260352
53.545 9.636392
53.550 9.979305
53.555 10.54173
53.560 10.432643
53.565 10.2142
53.570 10.27952
53.575 10.006304
53.580 9.319832
53.585 9.255893
53.590 9.55885
53.595 10.104878
53.600 10.549184
53.605 11.191668
53.610 11.652464
53.615 11.608529
53.620 11.921489
53.625 11.613931
53.630 11.582417
53.635 11.347301
53.640 10.750217
53.645 10.410303
53.650 10.412943
53.655 10.028201
53.660 9.964721
53.665 9.810615
53.670 9.888405
53.675 10.096547
53.680 10.657718
53.685 11.1077
53.690 11.023491
53.695 11.125263
53.700 11.597006
53.705 12.000115
53.710 12.552992
53.715 12.384212
53.720 12.173556
53.725 12.471572
53.730 12.297236
53.735 11.470633
53.740 10.678938
53.745 9.819018
53.750 9.662903
53.755 9.317884
53.760 8.834974
53.765 8.753136
53.770 9.249072
53.775 9.482607
53.780 9.722771
53.785 9.833927
53.790 9.964366
53.795 10.265971
53.800 10.194446
53.805 10.540971
53.810 10.69318
53.815 10.927136
53.820 11.078373
53.825 10.61142
53.830 10.853299
53.835 10.99826
53.840 10.627172
53.845 10.678918
53.850 10.744757
53.855 10.683482
53.860 10.50999
53.865 10.504185
53.870 10.665719
53.875 10.676042
53.880 10.049239
53.885 9.86867
53.890 10.221155
53.895 10.103094
53.900 9.510775
53.905 8.976741
53.910 9.131467
53.915 9.304559
53.920 9.041546
53.925 8.63659
53.930 9.384267
53.935 9.73065
53.940 9.977048
53.945 9.92194
53.950 9.795322
53.955 10.220047
53.960 10.66278
53.965 10.813762
53.970 10.590924
53.975 10.650967
53.980 10.858214
53.985 10.928279
53.990 10.571856
53.995 10.122314
54.000 9.777982
54.005 9.844952
54.010 9.446324
54.015 9.315681
54.020 9.618517
54.025 10.019446
54.030 9.918349
54.035 9.858958
54.040 9.751026
54.045 9.985425
54.050 10.195751
54.055 9.837537
54.060 9.844096
54.065 10.163653
54.070 10.545506
54.075 11.032444
54.080 11.166502
54.085 11.121929
54.090 11.336197
54.095 11.034202
54.100 11.081564
54.105 10.719176
54.110 10.59591
54.115 10.776775
54.120 11.044208
54.125 11.180689
54.130 10.589504
54.135 10.446274
54.140 10.166309
54.145 9.896741
54.150 9.514714
54.155 8.918905
54.160 9.270306
54.165 9.885435
54.170 9.962882
54.175 10.30444
54.180 10.498077
54.185 10.633601
54.190 10.832195
54.195 10.388988
54.200 10.408621
54.205 10.52058
54.210 10.562699
54.215 10.457108
54.220 10.526644
54.225 10.919608
54.230 11.061458
54.235 11.919354
54.240 12.205065
54.245 12.498188
54.250 12.755527
54.255 13.04194
54.260 13.284955
54.265 12.967031
54.270 12.536633
54.275 12.583552
54.280 12.722121
54.285 12.705022
54.290 12.230948
54.295 11.770111
54.300 12.475125
54.305 12.515524
54.310 12.427727
54.315 12.056366
54.320 12.223509
54.325 12.554795
54.330 12.714929
54.335 12.113996
54.340 11.572867
54.345 10.398393
54.350 10.044305
54.355 9.923018
54.360 9.69827
54.365 9.949526
54.370 10.599508
54.375 10.929008
54.380 11.649054
54.385 11.964043
54.390 12.185189
54.395 12.236516
54.400 11.942414
54.405 11.298575
54.410 11.335155
54.415 11.112585
54.420 10.840641
54.425 10.325309
54.430 9.797113
54.435 9.677521
54.440 9.730493
54.445 10.449663
54.450 10.548918
54.455 10.632536
54.460 11.35359
54.465 12.09775
54.470 12.711268
54.475 12.782549
54.480 12.997293
54.485 13.310021
54.490 13.479127
54.495 13.230739
54.500 12.583565
54.505 12.171335
54.510 11.847605
54.515 11.622215
54.520 11.338356
54.525 10.605636
54.530 10.199173
54.535 10.506771
54.540 11.164967
54.545 11.216563
54.550 11.289701
54.555 11.672369
54.560 12.168193
54.565 12.395472
54.570 12.069604
54.575 11.418247
54.580 11.18114
54.585 11.07129
54.590 10.739842
54.595 10.757171
54.600 10.946879
54.605 10.809296
54.610 10.499795
54.615 10.582179
54.620 10.75455
54.625 10.94959
54.630 11.210977
54.635 11.50955
54.640 11.945242
54.645 12.738626
54.650 12.387883
54.655 12.112413
54.660 11.813048
54.665 11.247169
54.670 10.915154
54.675 11.331971
54.680 10.904024
54.685 11.392426
54.690 11.691175
54.695 11.96351
54.700 12.244539
54.705 12.030238
54.710 11.471569
54.715 11.370366
54.720 10.81209
54.725 10.787083
54.730 10.882142
54.735 11.115322
54.740 11.377377
54.745 11.599676
54.750 12.313337
54.755 12.61117
54.760 12.539264
54.765 12.220461
54.770 12.149939
54.775 12.337592
54.780 11.612306
54.785 11.205348
54.790 11.118814
54.795 11.711049
54.800 11.751521
54.805 11.846976
54.810 11.659213
54.815 11.48107
54.820 11.367203
54.825 11.632777
54.830 11.310357
54.835 11.289555
54.840 10.72859
54.845 10.821815
54.850 11.713075
54.855 11.637267
54.860 11.224872
54.865 11.071804
54.870 11.279769
54.875 11.754769
54.880 11.895424
54.885 11.777779
54.890 12.410613
54.895 12.838131
54.900 13.10453
54.905 13.004781
54.910 12.838941
54.915 12.697149
54.920 12.479788
54.925 11.99293
54.930 11.286736
54.935 10.974597
54.940 10.560446
54.945 10.667405
54.950 11.239717
54.955 11.053073
54.960 11.153915
54.965 11.717723
54.970 11.947341
54.975 12.318391
54.980 11.90139
54.985 11.271799
54.990 11.454023
54.995 11.757131
55.000 11.14492
55.005 11.109708
55.010 10.836292
55.015 10.819058
55.020 10.784629
55.025 10.468381
55.030 10.03084
55.035 10.438761
55.040 10.314569
55.045 10.554114
55.050 11.20998
55.055 11.440458
55.060 11.547184
55.065 11.673446
55.070 11.607532
55.075 11.823153
55.080 12.236416
55.085 11.619012
55.090 11.41711
55.095 11.116912
55.100 10.864833
55.105 11.179105
55.110 10.651273
55.115 10.288037
55.120 10.882598
55.125 11.149446
55.130 11.442651
55.135 11.802724
55.140 11.665857
55.145 11.620165
55.150 11.479554
55.155 10.852259
55.160 11.488307
55.165 11.31601
55.170 10.788786
55.175 10.774097
55.180 11.330961
55.185 11.472984
55.190 11.130096
55.195 10.684932
55.200 10.789239
55.205 10.720589
55.210 10.396075
55.215 9.963058
55.220 9.687646
55.225 10.190132
55.230 10.408646
55.235 10.731876
55.240 11.292829
55.245 11.783437
55.250 11.854784
55.255 11.780447
55.260 11.405538
55.265 11.76179
55.270 12.079438
55.275 11.613495
55.280 11.694001
55.285 12.133529
55.290 12.05223
55.295 11.79212
55.300 10.834909
55.305 10.400013
55.310 10.12524
55.315 9.877909
55.320 10.174205
55.325 10.739883
55.330 11.026045
55.335 11.453306
55.340 11.653312
55.345 11.68533
55.350 11.797791
55.355 11.260188
55.360 10.730007
55.365 10.753551
55.370 10.837999
55.375 10.982133
55.380 11.491163
55.385 11.273889
55.390 11.237629
55.395 11.974716
55.400 11.727942
55.405 11.328444
55.410 11.176413
55.415 11.08407
55.420 11.674672
55.425 11.839265
55.430 11.417522
55.435 11.718863
55.440 12.491516
55.445 13.020611
55.450 12.969455
55.455 12.405626
55.460 12.488853
55.465 13.193562
55.470 13.378129
55.475 12.884331
55.480 12.421926
55.485 13.080159
55.490 13.801982
55.495 13.485826
55.500 12.91007
55.505 12.724597
55.510 12.678907
55.515 12.420111
55.520 11.669098
55.525 11.582064
55.530 11.424356
55.535 11.355391
55.540 11.193632
55.545 11.11921
55.550 10.96149
55.555 11.057147
55.560 10.993187
55.565 10.979445
55.570 11.1546
55.575 11.034288
55.580 11.418531
55.585 11.76287
55.590 11.747562
55.595 12.021093
55.600 12.831982
55.605 13.31405
55.610 13.18391
55.615 13.194486
55.620 13.015603
55.625 12.926466
55.630 12.846799
55.635 12.280292
55.640 12.442649
55.645 12.902022
55.650 12.977935
55.655 12.944703
55.660 12.895801
55.665 13.06479
55.670 13.079024
55.675 12.801584
55.680 12.435931
55.685 12.376494
55.690 12.305561
55.695 12.325924
55.700 12.204252
55.705 12.090872
55.710 11.650009
55.715 11.534866
55.720 11.662039
55.725 11.888414
55.730 11.624892
55.735 11.062274
55.740 10.733782
55.745 11.448942
55.750 11.772583
55.755 11.41409
55.760 10.833251
55.765 10.966608
55.770 11.332743
55.775 11.613446
55.780 11.165155
55.785 11.18223
55.790 11.862745
55.795 12.668599
55.800 12.83714
55.805 12.755318
55.810 12.489991
55.815 12.608659
55.820 12.358216
55.825 12.421427
55.830 12.445634
55.835 12.876596
55.840 13.634016
55.845 13.593966
55.850 13.385509
55.855 13.409119
55.860 13.485567
55.865 13.383174
55.870 13.243526
55.875 12.674273
55.880 12.640881
55.885 12.896764
55.890 12.376546
55.895 11.853624
55.900 11.590114
55.905 11.086509
55.910 11.448963
55.915 11.548293
55.920 11.630964
55.925 12.122988
55.930 12.252174
55.935 12.509345
55.940 13.051287
55.945 13.467759
55.950 13.382676
55.955 13.447577
55.960 13.264576
55.965 12.928292
55.970 12.689093
55.975 12.396031
55.980 12.137418
55.985 12.016803
55.990 11.733339
55.995 12.220927
56.000 12.31938
56.005 11.915586
56.010 12.059952
56.015 12.419838
56.020 12.209146
56.025 11.965499
56.030 11.764312
56.035 12.551952
56.040 13.245625
56.045 12.648141
56.050 12.560531
56.055 12.862595
56.060 13.141149
56.065 12.918204
56.070 12.423867
56.075 12.011705
56.080 12.126259
56.085 12.267633
56.090 11.991259
56.095 11.752191
56.100 11.792061
56.105 12.093483
56.110 12.430537
56.115 12.594239
56.120 12.510557
56.125 12.765805
56.130 12.802092
56.135 12.904714
56.140 12.763617
56.145 12.926769
56.150 12.893528
56.155 12.943705
56.160 12.998116
56.165 13.319636
56.170 13.290386
56.175 13.474039
56.180 12.957927
56.185 12.775248
56.190 12.528633
56.195 11.995953
56.200 11.380301
56.205 11.328022
56.210 11.232469
56.215 11.948293
56.220 11.972176
56.225 12.624382
56.230 13.919263
56.235 14.607063
56.240 14.472792
56.245 14.454442
56.250 14.139532
56.255 14.548226
56.260 14.583516
56.265 13.75569
56.270 13.752193
56.275 14.137867
56.280 14.099679
56.285 13.939809
56.290 14.156921
56.295 14.478932
56.300 14.533483
56.305 14.408148
56.310 14.276373
56.315 14.144448
56.320 13.83162
56.325 13.273981
56.330 13.164855
56.335 12.987116
56.340 12.877725
56.345 13.078121
56.350 13.498088
56.355 13.774036
56.360 13.552343
56.365 13.579491
56.370 13.301639
56.375 12.903246
56.380 12.542543
56.385 12.308178
56.390 12.014632
56.395 11.882293
56.400 11.603469
56.405 11.784797
56.410 12.007833
56.415 12.00412
56.420 12.394218
56.425 12.822872
56.430 12.835546
56.435 12.831006
56.440 12.929977
56.445 13.236431
56.450 13.286708
56.455 13.59367
56.460 13.516315
56.465 13.553252
56.470 13.857387
56.475 14.110502
56.480 14.057011
56.485 13.968663
56.490 14.338641
56.495 14.773172
56.500 14.675637
56.505 14.442773
56.510 14.248222
56.515 13.420226
56.520 13.076323
56.525 12.443205
56.530 11.953532
56.535 12.191932
56.540 12.666405
56.545 12.600128
56.550 13.204856
56.555 13.294809
56.560 13.137656
56.565 13.512699
56.570 13.216885
56.575 12.758434
56.580 13.002781
56.585 13.1831
56.590 13.584774
56.595 13.587838
56.600 13.242854
56.605 13.394263
56.610 14.286864
56.615 14.244168
56.620 14.008427
56.625 13.577807
56.630 13.477278
56.635 13.468291
56.640 12.701746
56.645 12.330447
56.650 12.236152
56.655 12.258566
56.660 12.757067
56.665 12.589913
56.670 12.368411
56.675 12.941155
56.680 12.587934
56.685 12.399176
56.690 12.182673
56.695 12.256939
56.700 13.033587
56.705 13.491384
56.710 13.467736
56.715 14.108848
56.720 14.397266
56.725 14.137998
56.730 13.685198
56.735 13.763587
56.740 13.866041
56.745 13.4044
56.750 13.529578
56.755 13.655178
56.760 14.085222
56.765 14.676059
56.770 14.475105
56.775 14.666877
56.780 15.005535
56.785 14.378507
56.790 14.407337
56.795 14.104171
56.800 13.817142
56.805 14.118848
56.810 13.853189
56.815 13.745214
56.820 14.367491
56.825 13.930788
56.830 13.637246
56.835 13.359895
56.840 12.949217
56.845 13.186496
56.850 13.314929
56.855 13.000314
56.860 13.518064
56.865 14.551929
56.870 14.649682
56.875 14.677212
56.880 14.56536
56.885 14.111662
56.890 14.001942
56.895 13.601044
56.900 12.199138
56.905 12.150235
56.910 12.202035
56.915 12.371161
56.920 12.80619
56.925 13.329673
56.930 13.713871
56.935 14.294843
56.940 14.124834
56.945 13.679398
56.950 13.010516
56.955 12.776318
56.960 13.104529
56.965 13.00237
56.970 12.959957
56.975 13.21003
56.980 13.597101
56.985 14.181817
56.990 14.02063
56.995 13.150232
57.000 12.914311
57.005 13.079691
57.010 13.287177
57.015 13.323275
57.020 12.874437
57.025 12.77263
57.030 13.055537
57.035 13.381336
57.040 13.070396
57.045 12.970081
57.050 12.773713
57.055 13.146815
57.060 13.573428
57.065 13.868209
57.070 14.047439
57.075 13.601051
57.080 13.421579
57.085 13.630729
57.090 13.764442
57.095 13.562645
57.100 13.238845
57.105 13.244998
57.110 14.128442
57.115 14.422118
57.120 14.490045
57.125 14.274564
57.130 14.479233
57.135 14.509426
57.140 14.278969
57.145 14.480233
57.150 14.170452
57.155 13.744371
57.160 13.344939
57.165 12.887903
57.170 13.192509
57.175 13.113396
57.180 12.755276
57.185 12.446484
57.190 12.514022
57.195 13.584439
57.200 13.910707
57.205 13.3556
57.210 13.245814
57.215 13.625981
57.220 14.398786
57.225 14.514538
57.230 13.713098
57.235 13.597253
57.240 14.157026
57.245 14.192328
57.250 13.987903
57.255 13.918989
57.260 14.118239
57.265 14.491426
57.270 14.496865
57.275 14.724459
57.280 14.782212
57.285 14.695211
57.290 14.828578
57.295 14.536777
57.300 14.625189
57.305 14.387338
57.310 13.812557
57.315 13.771171
57.320 13.641539
57.325 13.120642
57.330 13.624483
57.335 13.86189
57.340 14.240725
57.345 14.406149
57.350 14.073025
57.355 14.199935
57.360 14.320359
57.365 13.939983
57.370 13.417004
57.375 13.326909
57.380 13.662507
57.385 14.302191
57.390 14.557868
57.395 14.790811
57.400 15.275505
57.405 15.9444
57.410 16.06609
57.415 16.093027
57.420 15.879804
57.425 15.901304
57.430 15.951638
57.435 15.375657
57.440 14.837188
57.445 14.619558
57.450 14.357682
57.455 14.611446
57.460 14.003648
57.465 13.780474
57.470 13.796871
57.475 13.890117
57.480 13.855716
57.485 13.684113
57.490 13.3243
57.495 13.647895
57.500 14.215013
57.505 14.412679
57.510 14.455721
57.515 14.666962
57.520 14.742131
57.525 15.032894
57.530 14.906161
57.535 14.455809
57.540 14.065206
57.545 14.128704
57.550 13.931422
57.555 14.621883
57.560 14.371083
57.565 14.347465
57.570 14.376234
57.575 14.584664
57.580 14.259909
57.585 14.33145
57.590 14.067715
57.595 14.220659
57.600 14.224309
57.605 14.213029
57.610 14.187724
57.615 14.550673
57.620 14.812089
57.625 15.146116
57.630 15.331889
57.635 15.293201
57.640 15.505275
57.645 15.722969
57.650 15.51911
57.655 15.559559
57.660 14.573182
57.665 14.117455
57.670 13.994414
57.675 13.737973
57.680 13.249829
57.685 13.370755
57.690 12.996016
57.695 13.016258
57.700 13.208138
57.705 13.483553
57.710 14.020015
57.715 14.105047
57.720 13.683546
57.725 13.819243
57.730 13.996943
57.735 14.400852
57.740 14.421741
57.745 14.408181
57.750 14.75493
57.755 15.460194
57.760 15.234766
57.765 15.17415
57.770 14.792706
57.775 14.709481
57.780 15.14749
57.785 15.147675
57.790 15.231134
57.795 15.92575
57.800 15.842595
57.805 15.787205
57.810 15.670263
57.815 15.714498
57.820 15.248772
57.825 14.987731
57.830 14.941549
57.835 14.943316
57.840 14.750158
57.845 14.60055
57.850 14.396378
57.855 14.843452
57.860 14.93355
57.865 14.68655
57.870 14.887877
57.875 15.215141
57.880 15.21429
57.885 15.399661
57.890 15.288631
57.895 15.199901
57.900 14.855323
57.905 14.708404
57.910 14.353719
57.915 14.028296
57.920 13.452037
57.925 13.037334
57.930 13.356387
57.935 13.816236
57.940 14.086287
57.945 14.308363
57.950 14.291231
57.955 14.421005
57.960 14.684175
57.965 14.344676
57.970 14.260288
57.975 13.925576
57.980 13.842779
57.985 13.673559
57.990 13.920098
57.995 14.09512
58.000 14.006589
58.005 13.562256
58.010 13.534159
58.015 13.640827
58.020 13.980158
58.025 13.755735
58.030 13.72742
58.035 13.760551
58.040 14.808894
58.045 14.942328
58.050 15.084849
58.055 15.56005
58.060 15.778974
58.065 15.736272
58.070 15.648011
58.075 15.255384
58.080 15.707915
58.085 15.751666
58.090 15.573627
58.095 15.716193
58.100 16.041174
58.105 16.102575
58.110 15.717344
58.115 15.523605
58.120 15.318559
58.125 14.818831
58.130 14.504733
58.135 14.419021
58.140 14.727733
58.145 15.43476
58.150 15.889441
58.155 16.021706
58.160 16.300966
58.165 16.66049
58.170 16.674597
58.175 16.645142
58.180 16.301464
58.185 15.8815
58.190 16.387819
58.195 16.023907
58.200 16.216148
58.205 16.279821
58.210 16.61132
58.215 16.526915
58.220 16.359787
58.225 16.12995
58.230 16.330746
58.235 16.000502
58.240 15.699713
58.245 15.340888
58.250 14.919259
58.255 14.381527
58.260 13.981592
58.265 13.715398
58.270 13.610422
58.275 13.570628
58.280 13.844646
58.285 14.358932
58.290 14.536584
58.295 14.241766
58.300 13.622041
58.305 13.71549
58.310 14.048917
58.315 13.717222
58.320 13.714358
58.325 13.720928
58.330 14.114764
58.335 14.362584
58.340 14.215091
58.345 13.941014
58.350 14.221614
58.355 13.997191
58.360 14.283515
58.365 14.459901
58.370 14.94894
58.375 15.014586
58.380 14.640741
58.385 14.284214
58.390 14.825868
58.395 14.967267
58.400 15.119153
58.405 14.790684
58.410 14.912977
58.415 15.352087
58.420 15.651608
58.425 15.771877
58.430 15.561035
58.435 15.10038
58.440 15.234632
58.445 15.152207
58.450 15.28757
58.455 15.053071
58.460 14.58
58.465 14.763926
58.470 15.341866
58.475 15.362607
58.480 15.117313
