!@!!GADDS PLOTSO FILE: Chi integration type
!@!!Title/SampleName: map-181
!@!!Comment: ?
!@!!User: Bruker Instrument Administrator
!@!!Site: University of Illinois Chicago
!@!!Frame: map-181_01_000.gfrm
!@!!Wavelengths    1.54184   1.54056   1.54439
!@!!Frame angles: 2Theta: 63.000 Omega: 50.000 Phi: 0.000 Chi: 90.000
!@!!Integration range: 2Theta: 53.000 to 73.000  Gamma: -105.000 to -75.000
!@!!Integration method: bin normalized
!@!N
!@!SS
!@!M
!@!L 0.0 0.0 0.0 0.0
!@!XDegrees
!@!YCounts
53.000 6.558251
53.005 6.943707
53.010 7.011422
53.015 7.320957
53.020 7.037492
53.025 6.644352
53.030 6.73596
53.035 6.643672
53.040 6.726219
53.045 7.284325
53.050 7.114375
53.055 7.378676
53.060 7.297036
53.065 7.385817
53.070 7.531559
53.075 7.306348
53.080 6.882458
53.085 7.098974
53.090 7.554872
53.095 7.908301
53.100 7.722126
53.105 7.705014
53.110 7.976783
53.115 8.579246
53.120 8.460588
53.125 8.619694
53.130 8.801803
53.135 8.951445
53.140 9.11503
53.145 8.86284
53.150 8.255564
53.155 7.871085
53.160 7.908602
53.165 8.017444
53.170 8.200105
53.175 7.949353
53.180 7.697862
53.185 7.986714
53.190 8.000893
53.195 7.76117
53.200 7.930253
53.205 8.089105
53.210 8.519634
53.215 8.456152
53.220 8.315312
53.225 8.47032
53.230 8.498122
53.235 8.397397
53.240 8.234883
53.245 8.241518
53.250 8.317125
53.255 8.156181
53.260 8.426655
53.265 8.015179
53.270 7.584141
53.275 7.205873
53.280 7.22253
53.285 7.178036
53.290 7.230185
53.295 6.62191
53.300 6.889084
53.305 7.393814
53.310 7.601716
53.315 7.829538
53.320 8.038677
53.325 7.786562
53.330 7.858857
53.335 8.063975
53.340 8.046659
53.345 7.971141
53.350 7.364217
53.355 7.073485
53.360 7.317575
53.365 7.219347
53.370 6.829639
53.375 6.871225
53.380 6.719883
53.385 6.709768
53.390 7.041584
53.395 6.839372
53.400 7.223723
53.405 7.375263
53.410 7.223866
53.415 7.730422
53.420 7.557329
53.425 7.554858
53.430 8.240914
53.435 8.565091
53.440 8.436756
53.445 8.329043
53.450 8.378754
53.455 8.723561
53.460 8.348813
53.465 8.080411
53.470 7.662983
53.475 7.967732
53.480 7.859999
53.485 7.516841
53.490 7.263409
53.495 7.174337
53.500 6.994767
53.505 6.718588
53.510 6.651251
53.515 6.994491
53.520 7.536684
53.525 8.065904
53.530 8.17733
53.535 8.408591
53.540 8.824196
53.545 8.817079
53.550 8.759503
53.555 8.604568
53.560 8.590842
53.565 8.7756
53.570 8.797294
53.575 8.474967
53.580 8.65846
53.585 8.670551
53.590 8.853409
53.595 9.193054
53.600 8.811185
53.605 8.609649
53.610 8.367283
53.615 7.896163
53.620 7.50235
53.625 7.403606
53.630 7.13435
53.635 7.495574
53.640 7.933821
53.645 8.394773
53.650 8.565738
53.655 8.806294
53.660 8.934588
53.665 9.159907
53.670 9.021137
53.675 8.787048
53.680 8.629253
53.685 8.890315
53.690 9.204323
53.695 9.110242
53.700 9.102665
53.705 9.102767
53.710 9.168673
53.715 9.419468
53.720 9.441111
53.725 9.090745
53.730 8.970241
53.735 8.649624
53.740 8.539379
53.745 8.635386
53.750 8.440237
53.755 8.614083
53.760 8.333224
53.765 8.371031
53.770 8.807892
53.775 9.3434
53.780 9.358045
53.785 9.118228
53.790 9.306182
53.795 9.298295
53.800 9.297138
53.805 8.833273
53.810 8.21988
53.815 8.382202
53.820 8.385887
53.825 8.110272
53.830 8.317536
53.835 8.967574
53.840 9.379652
53.845 9.589684
53.850 9.417583
53.855 9.0352
53.860 8.925713
53.865 8.601098
53.870 8.269122
53.875 7.980524
53.880 7.80695
53.885 7.855873
53.890 8.184234
53.895 7.811475
53.900 7.171841
53.905 7.154575
53.910 7.166442
53.915 7.288695
53.920 7.375372
53.925 7.509942
53.930 8.061506
53.935 7.877708
53.940 7.913555
53.945 7.76336
53.950 7.683799
53.955 7.49319
53.960 7.3179
53.965 7.511538
53.970 7.714276
53.975 7.717115
53.980 7.776569
53.985 7.52494
53.990 7.472616
53.995 7.513656
54.000 7.502239
54.005 7.577281
54.010 7.504519
54.015 7.813812
54.020 7.819343
54.025 7.746194
54.030 7.544808
54.035 7.823334
54.040 7.865062
54.045 7.952806
54.050 8.080592
54.055 8.853201
54.060 9.13715
54.065 9.401495
54.070 9.066621
54.075 8.768085
54.080 8.734851
54.085 8.833286
54.090 8.196539
54.095 7.947251
54.100 7.41434
54.105 7.539914
54.110 7.992362
54.115 7.929192
54.120 7.364282
54.125 7.273771
54.130 7.764253
54.135 8.28019
54.140 8.160354
54.145 8.188143
54.150 8.505521
54.155 9.003837
54.160 9.408261
54.165 9.411043
54.170 9.549868
54.175 9.327096
54.180 8.973755
54.185 8.525678
54.190 8.529108
54.195 8.745585
54.200 9.127218
54.205 9.075377
54.210 9.185447
54.215 9.517672
54.220 9.643849
54.225 9.354186
54.230 8.89864
54.235 8.814422
54.240 9.095177
54.245 8.897617
54.250 8.6006
54.255 8.884335
54.260 9.308441
54.265 8.91243
54.270 8.478923
54.275 8.49991
54.280 8.858368
54.285 8.967276
54.290 8.972732
54.295 8.532333
54.300 8.476631
54.305 8.516333
54.310 8.434209
54.315 8.541377
54.320 8.618441
54.325 8.385648
54.330 8.574819
54.335 8.893336
54.340 8.912757
54.345 8.678914
54.350 8.084659
54.355 7.798082
54.360 8.229599
54.365 8.706453
54.370 8.533175
54.375 8.461171
54.380 8.769629
54.385 9.308468
54.390 9.771758
54.395 9.292711
54.400 8.836799
54.405 8.319947
54.410 8.50797
54.415 8.731863
54.420 8.620306
54.425 8.391083
54.430 8.775499
54.435 9.141142
54.440 9.529474
54.445 9.521371
54.450 9.570662
54.455 9.663451
54.460 9.573557
54.465 9.355902
54.470 9.193767
54.475 8.569392
54.480 7.778982
54.485 7.275354
54.490 7.108951
54.495 6.772701
54.500 6.949747
54.505 7.742579
54.510 8.42826
54.515 8.683331
54.520 8.767997
54.525 8.862117
54.530 9.021831
54.535 8.598783
54.540 7.901105
54.545 7.987919
54.550 7.714687
54.555 7.57035
54.560 7.718388
54.565 7.968109
54.570 8.017559
54.575 7.960558
54.580 8.276458
54.585 9.076112
54.590 9.214911
54.595 9.200315
54.600 8.687284
54.605 8.575274
54.610 8.410352
54.615 8.086965
54.620 7.823412
54.625 7.597418
54.630 7.794471
54.635 8.31541
54.640 8.564437
54.645 8.699116
54.650 8.87404
54.655 8.830346
54.660 8.887326
54.665 8.760404
54.670 8.81536
54.675 8.954849
54.680 9.031664
54.685 9.490496
54.690 9.883982
54.695 10.130687
54.700 9.736993
54.705 9.586396
54.710 9.235408
54.715 8.552711
54.720 7.921759
54.725 7.412426
54.730 7.488213
54.735 7.581264
54.740 7.692491
54.745 7.857099
54.750 7.912218
54.755 8.207532
54.760 8.281495
54.765 8.764024
54.770 9.155654
54.775 9.08038
54.780 9.327811
54.785 9.377715
54.790 9.113866
54.795 9.142895
54.800 8.636871
54.805 8.425259
54.810 8.670033
54.815 8.377353
54.820 8.681508
54.825 9.327887
54.830 9.385259
54.835 9.403547
54.840 9.766412
54.845 9.971381
54.850 10.137919
54.855 9.771975
54.860 9.3531
54.865 9.250141
54.870 9.030341
54.875 8.436032
54.880 8.259726
54.885 8.069324
54.890 8.007625
54.895 7.895045
54.900 7.989516
54.905 8.045549
54.910 7.997574
54.915 8.131439
54.920 8.338806
54.925 8.755546
54.930 8.767632
54.935 8.743834
54.940 9.299759
54.945 10.015791
54.950 10.116082
54.955 10.023718
54.960 10.275823
54.965 10.351575
54.970 10.081362
54.975 9.366676
54.980 9.200319
54.985 9.02914
54.990 9.062277
54.995 8.910666
55.000 8.784857
55.005 8.605558
55.010 8.727446
55.015 8.528402
55.020 8.719574
55.025 8.341786
55.030 8.03561
55.035 8.433585
55.040 8.931573
55.045 8.965356
55.050 8.978676
55.055 8.810463
55.060 8.922076
55.065 9.253095
55.070 9.176996
55.075 8.977796
55.080 9.059788
55.085 9.169951
55.090 9.354381
55.095 9.214972
55.100 8.88541
55.105 9.029404
55.110 9.276704
55.115 9.241935
55.120 9.023923
55.125 9.177309
55.130 9.965825
55.135 9.945758
55.140 9.516305
55.145 9.217831
55.150 9.161325
55.155 8.989176
55.160 8.599538
55.165 8.176115
55.170 8.557439
55.175 8.752276
55.180 8.851477
55.185 9.182662
55.190 9.221994
55.195 8.761309
55.200 8.489125
55.205 8.299153
55.210 8.483144
55.215 8.722812
55.220 8.043398
55.225 8.14693
55.230 8.705652
55.235 8.778803
55.240 8.396463
55.245 8.18784
55.250 8.415949
55.255 8.495368
55.260 8.25375
55.265 7.892819
55.270 8.195929
55.275 8.641203
55.280 8.558142
55.285 8.507976
55.290 8.923056
55.295 9.418701
55.300 9.446362
55.305 8.737361
55.310 8.450915
55.315 8.116384
55.320 8.176752
55.325 8.131111
55.330 8.249887
55.335 8.146088
55.340 8.571992
55.345 8.544456
55.350 8.99122
55.355 9.19913
55.360 8.975833
55.365 8.955332
55.370 8.656107
55.375 8.194182
55.380 7.951945
55.385 7.394347
55.390 7.1315
55.395 7.37291
55.400 7.365249
55.405 7.662066
55.410 8.122766
55.415 8.922009
55.420 9.113523
55.425 9.126116
55.430 9.130025
55.435 9.242964
55.440 9.634174
55.445 9.343224
55.450 8.871181
55.455 8.908068
55.460 9.011358
55.465 8.488345
55.470 8.230184
55.475 8.133601
55.480 8.263143
55.485 8.152569
55.490 8.012367
55.495 7.980762
55.500 8.230926
55.505 8.229088
55.510 8.450671
55.515 8.280879
55.520 8.239328
55.525 8.148603
55.530 8.462259
55.535 8.614258
55.540 8.414095
55.545 8.101901
55.550 8.06419
55.555 8.294905
55.560 8.166717
55.565 7.746499
55.570 7.67404
55.575 7.71802
55.580 7.971855
55.585 8.0098
55.590 8.315166
55.595 8.266251
55.600 7.755079
55.605 7.44872
55.610 7.241291
55.615 7.10871
55.620 7.275326
55.625 7.34632
55.630 7.635041
55.635 8.169954
55.640 8.398151
55.645 8.446872
55.650 8.705112
55.655 8.569485
55.660 8.176621
55.665 8.050616
55.670 7.824107
55.675 8.023939
55.680 8.342601
55.685 8.424683
55.690 8.503209
55.695 8.789936
55.700 8.945549
55.705 9.191281
55.710 8.856197
55.715 9.032303
55.720 9.040523
55.725 9.089033
55.730 8.897047
55.735 8.799208
55.740 8.711363
55.745 8.520006
55.750 8.141437
55.755 7.83099
55.760 7.570062
55.765 7.93997
55.770 8.101385
55.775 8.397329
55.780 8.943368
55.785 9.01931
55.790 9.262324
55.795 9.501088
55.800 8.951661
55.805 8.544255
55.810 8.153036
55.815 8.099665
55.820 8.572939
55.825 8.76447
55.830 9.17957
55.835 9.70384
55.840 9.926217
55.845 10.272737
55.850 10.019178
55.855 9.108495
55.860 8.750465
55.865 8.465197
55.870 8.462952
55.875 8.781734
55.880 8.169929
55.885 8.209215
55.890 8.623168
55.895 8.66803
55.900 8.35938
55.905 8.24634
55.910 8.264388
55.915 8.425677
55.920 8.62571
55.925 8.489088
55.930 8.604783
55.935 8.755294
55.940 8.59773
55.945 8.957047
55.950 9.266654
55.955 9.082214
55.960 8.89962
55.965 8.767848
55.970 8.590816
55.975 8.857938
55.980 8.688539
55.985 8.474302
55.990 8.396956
55.995 8.542167
56.000 8.301902
56.005 8.299021
56.010 7.637625
56.015 7.363054
56.020 7.237854
56.025 7.295856
56.030 7.414026
56.035 7.948252
56.040 8.236241
56.045 8.563184
56.050 8.410933
56.055 8.270053
56.060 8.105431
56.065 7.856317
56.070 7.569421
56.075 7.460112
56.080 7.690877
56.085 7.876318
56.090 7.915559
56.095 7.903756
56.100 8.042988
56.105 7.918828
56.110 7.494642
56.115 7.640721
56.120 7.818825
56.125 7.846728
56.130 7.864161
56.135 7.805182
56.140 8.087662
56.145 8.376067
56.150 7.999546
56.155 8.390346
56.160 8.5996
56.165 8.828591
56.170 8.964457
56.175 9.171885
56.180 9.283693
56.185 9.350386
56.190 9.127475
56.195 9.320262
56.200 9.172243
56.205 8.977306
56.210 8.839399
56.215 8.721314
56.220 8.545345
56.225 8.489445
56.230 8.641234
56.235 8.9953
56.240 9.347628
56.245 9.613348
56.250 9.673022
56.255 9.681957
56.260 9.749207
56.265 9.330428
56.270 9.282626
56.275 9.116465
56.280 8.796003
56.285 8.931289
56.290 8.921684
56.295 8.628203
56.300 8.472722
56.305 8.375186
56.310 8.346936
56.315 8.89101
56.320 9.189211
56.325 9.136633
56.330 9.225941
56.335 9.392174
56.340 9.287378
56.345 9.228734
56.350 9.158501
56.355 9.081159
56.360 9.195235
56.365 9.510558
56.370 9.565712
56.375 9.689729
56.380 9.875691
56.385 9.695856
56.390 9.485095
56.395 9.625994
56.400 9.667666
56.405 9.716161
56.410 9.671953
56.415 9.513972
56.420 9.963866
56.425 10.169957
56.430 10.204477
56.435 10.125595
56.440 9.970629
56.445 10.01168
56.450 10.15007
56.455 10.518468
56.460 10.808121
56.465 10.782916
56.470 10.722979
56.475 10.347333
56.480 10.211047
56.485 9.837115
56.490 9.68934
56.495 9.598505
56.500 9.547688
56.505 9.744199
56.510 10.328971
56.515 10.604679
56.520 10.45253
56.525 9.719083
56.530 9.682978
56.535 10.136089
56.540 10.33996
56.545 10.219955
56.550 10.16652
56.555 10.246641
56.560 10.420947
56.565 10.24363
56.570 9.822446
56.575 9.437774
56.580 9.378033
56.585 9.422438
56.590 9.714908
56.595 9.80138
56.600 9.68415
56.605 9.879307
56.610 10.201919
56.615 10.294871
56.620 10.83668
56.625 10.81013
56.630 10.702581
56.635 10.416065
56.640 10.31039
56.645 10.266323
56.650 9.787264
56.655 9.483698
56.660 9.543521
56.665 9.497108
56.670 9.779127
56.675 10.057594
56.680 10.035421
56.685 10.433806
56.690 10.395099
56.695 10.206989
56.700 10.707348
56.705 10.672962
56.710 10.405623
56.715 10.657603
56.720 10.280489
56.725 10.024365
56.730 9.921641
56.735 9.808969
56.740 9.723696
56.745 9.882841
56.750 9.362887
56.755 9.815097
56.760 9.803042
56.765 9.815404
56.770 9.449813
56.775 9.205725
56.780 8.814584
56.785 8.25047
56.790 7.625494
56.795 7.596408
56.800 7.425394
56.805 7.716126
56.810 8.060305
56.815 8.336308
56.820 8.832381
56.825 9.016131
56.830 9.44448
56.835 9.599031
56.840 9.724627
56.845 9.457193
56.850 9.1747
56.855 9.003757
56.860 8.516327
56.865 8.53597
56.870 8.538366
56.875 8.300191
56.880 8.510118
56.885 8.972758
56.890 9.486089
56.895 9.567937
56.900 8.866577
56.905 8.533775
56.910 8.189609
56.915 8.147299
56.920 7.964241
56.925 7.877176
56.930 8.35216
56.935 8.420012
56.940 8.839472
56.945 8.863843
56.950 8.392121
56.955 8.459366
56.960 8.244073
56.965 8.057061
56.970 8.295791
56.975 7.890808
56.980 8.049378
56.985 8.09491
56.990 7.880133
56.995 8.069771
57.000 8.044149
57.005 7.74992
57.010 8.229564
57.015 8.586329
57.020 8.63937
57.025 8.924757
57.030 9.135324
57.035 9.538667
57.040 10.164485
57.045 9.747366
57.050 9.729546
57.055 9.731535
57.060 9.206456
57.065 8.799706
57.070 8.200876
57.075 7.502894
57.080 7.537889
57.085 7.495785
57.090 7.667518
57.095 7.663272
57.100 7.684953
57.105 8.102165
57.110 8.535186
57.115 8.405175
57.120 8.175429
57.125 8.289817
57.130 8.468956
57.135 8.572562
57.140 8.507451
57.145 8.349026
57.150 8.256465
57.155 8.195038
57.160 7.540914
57.165 7.524244
57.170 7.650275
57.175 7.425805
57.180 7.144177
57.185 7.635599
57.190 8.144843
57.195 8.545269
57.200 8.251336
57.205 8.366813
57.210 8.428366
57.215 8.657816
57.220 8.227092
57.225 8.027402
57.230 8.285231
57.235 8.245659
57.240 8.098469
57.245 8.245013
57.250 8.356861
57.255 8.042483
57.260 7.827173
57.265 7.661958
57.270 7.690223
57.275 7.490576
57.280 7.531269
57.285 7.942809
57.290 8.129644
57.295 8.329839
57.300 8.758153
57.305 8.706146
57.310 8.706097
57.315 8.737852
57.320 8.791011
57.325 9.723677
57.330 9.781417
57.335 9.830363
57.340 10.123829
57.345 10.238983
57.350 10.379957
57.355 10.529967
57.360 10.129458
57.365 10.179134
57.370 9.937959
57.375 9.770132
57.380 9.704244
57.385 9.283699
57.390 8.80731
57.395 8.688948
57.400 8.352333
57.405 7.884014
57.410 7.539532
57.415 7.693085
57.420 7.689333
57.425 7.843153
57.430 7.599912
57.435 7.587606
57.440 7.881947
57.445 7.854901
57.450 7.938469
57.455 7.924474
57.460 7.740319
57.465 7.657841
57.470 7.888746
57.475 7.872866
57.480 8.286929
57.485 8.115737
57.490 7.910118
57.495 7.785884
57.500 7.565896
57.505 7.508433
57.510 7.386024
57.515 6.927032
57.520 6.762686
57.525 7.105119
57.530 7.24179
57.535 7.685838
57.540 7.98493
57.545 8.365116
57.550 8.409115
57.555 8.305928
57.560 8.272374
57.565 8.295182
57.570 8.102808
57.575 8.19544
57.580 8.236439
57.585 8.40144
57.590 8.766754
57.595 8.839775
57.600 9.338738
57.605 9.363672
57.610 9.115689
57.615 9.227886
57.620 9.283275
57.625 9.77025
57.630 9.817733
57.635 9.35232
57.640 9.424239
57.645 9.667323
57.650 9.866398
57.655 9.770781
57.660 9.086632
57.665 8.611408
57.670 8.500255
57.675 8.660985
57.680 8.714984
57.685 8.862011
57.690 9.095197
57.695 9.383013
57.700 9.854276
57.705 10.070727
57.710 9.675707
57.715 9.326442
57.720 9.122945
57.725 8.947146
57.730 9.15083
57.735 8.632277
57.740 8.565199
57.745 8.550993
57.750 8.328206
57.755 8.115593
57.760 7.76322
57.765 7.798281
57.770 8.461502
57.775 8.602356
57.780 8.636521
57.785 8.579981
57.790 8.855607
57.795 8.696684
57.800 8.007082
57.805 7.470621
57.810 7.463017
57.815 7.689674
57.820 7.897767
57.825 8.113836
57.830 8.647051
57.835 9.135002
57.840 9.230746
57.845 9.081406
57.850 8.956579
57.855 8.801549
57.860 8.76006
57.865 8.418726
57.870 8.217534
57.875 8.303265
57.880 8.749567
57.885 8.852768
57.890 8.732149
57.895 8.329618
57.900 8.888137
57.905 9.083528
57.910 9.095298
57.915 8.917428
57.920 8.826476
57.925 8.674129
57.930 8.904728
57.935 8.226631
57.940 7.914566
57.945 7.550433
57.950 7.499847
57.955 7.463377
57.960 7.510659
57.965 7.298838
57.970 7.31424
57.975 7.724383
57.980 7.793637
57.985 7.725446
57.990 8.215309
57.995 8.475232
58.000 8.828844
58.005 8.980746
58.010 8.810435
58.015 9.095695
58.020 8.951912
58.025 8.91891
58.030 9.29127
58.035 9.248764
58.040 9.580258
58.045 9.485017
58.050 9.489102
58.055 9.496507
58.060 9.092642
58.065 8.576989
58.070 8.402723
58.075 8.333006
58.080 8.127355
58.085 8.143974
58.090 8.104126
58.095 8.312573
58.100 8.418615
58.105 8.610261
58.110 9.162786
58.115 9.189242
58.120 9.419433
58.125 9.722693
58.130 9.601774
58.135 10.00491
58.140 9.841438
58.145 9.341331
58.150 9.668532
58.155 9.921418
58.160 9.500894
58.165 9.405436
58.170 9.320162
58.175 8.969748
58.180 8.473054
58.185 7.820807
58.190 7.244064
58.195 7.307485
58.200 7.305963
58.205 7.070425
58.210 7.295215
58.215 7.839319
58.220 8.11749
58.225 7.903042
58.230 8.003332
58.235 7.855763
58.240 8.04116
58.245 8.31028
58.250 8.340501
58.255 8.508621
58.260 8.980114
58.265 9.237295
58.270 9.246019
58.275 8.990136
58.280 9.008507
58.285 9.055295
58.290 9.059264
58.295 9.147122
58.300 9.023338
58.305 9.264483
58.310 9.172894
58.315 8.898484
58.320 8.902577
58.325 8.844734
58.330 8.808914
58.335 8.91809
58.340 8.522469
58.345 8.703465
58.350 8.333074
58.355 7.916089
58.360 7.477769
58.365 6.887395
58.370 6.897789
58.375 7.165956
58.380 6.994455
58.385 7.220862
58.390 7.196022
58.395 7.366062
58.400 7.386399
58.405 7.208762
58.410 7.144203
58.415 7.637717
58.420 7.893198
58.425 8.122518
58.430 8.323619
58.435 8.315943
58.440 8.302095
58.445 8.309894
58.450 7.877883
58.455 7.566936
58.460 7.745972
58.465 7.9263
58.470 7.894112
58.475 7.752372
58.480 7.657634
58.485 7.855011
58.490 8.393128
58.495 8.015962
58.500 8.181581
58.505 8.846381
58.510 9.085248
58.515 9.032084
58.520 8.776518
58.525 8.239005
58.530 8.077289
58.535 7.599769
58.540 7.523226
58.545 7.768554
58.550 7.81228
58.555 7.921535
58.560 7.842855
58.565 8.21539
58.570 8.043078
58.575 7.803028
58.580 7.739839
58.585 7.893031
58.590 7.948081
58.595 7.856242
58.600 7.777544
58.605 7.880556
58.610 7.665792
58.615 7.819676
58.620 7.886519
58.625 8.299319
58.630 9.034334
58.635 8.978881
58.640 9.025094
58.645 8.88841
58.650 8.86503
58.655 8.950154
58.660 8.342456
58.665 8.274454
58.670 8.343896
58.675 8.356977
58.680 8.471869
58.685 8.401402
58.690 8.588988
58.695 8.944476
58.700 9.105218
58.705 9.240815
58.710 9.246203
58.715 9.417841
58.720 9.423397
58.725 9.496599
58.730 9.718789
58.735 9.409946
58.740 9.316337
58.745 9.575839
