!@!!GADDS PLOTSO FILE: Chi integration type
!@!!Title/SampleName: map-112
!@!!Comment: ?
!@!!User: Bruker Instrument Administrator
!@!!Site: University of Illinois Chicago
!@!!Frame: map-112_01_000.gfrm
!@!!Wavelengths    1.54184   1.54056   1.54439
!@!!Frame angles: 2Theta: 63.000 Omega: 50.000 Phi: 0.000 Chi: 90.000
!@!!Integration range: 2Theta: 53.000 to 73.000  Gamma: -105.000 to -75.000
!@!!Integration method: bin normalized
!@!N
!@!SS
!@!M
!@!L 0.0 0.0 0.0 0.0
!@!XDegrees
!@!YCounts
53.000 8.197725
53.005 7.706327
53.010 7.612499
53.015 7.495061
53.020 7.791211
53.025 8.37778
53.030 8.536476
53.035 9.059898
53.040 8.999939
53.045 8.971543
53.050 9.09013
53.055 9.056082
53.060 8.604245
53.065 8.663468
53.070 8.434116
53.075 8.288622
53.080 8.327669
53.085 8.066545
53.090 8.234877
53.095 8.679902
53.100 9.134608
53.105 9.760549
53.110 9.77982
53.115 9.559368
53.120 9.871164
53.125 9.577883
53.130 9.425982
53.135 8.996426
53.140 9.191127
53.145 9.471483
53.150 9.339916
53.155 9.457023
53.160 9.401854
53.165 9.312073
53.170 9.315228
53.175 8.895446
53.180 9.251499
53.185 9.698237
53.190 9.408747
53.195 9.426404
53.200 9.489146
53.205 9.525458
53.210 9.284255
53.215 8.570477
53.220 8.444902
53.225 8.416698
53.230 8.342558
53.235 8.242081
53.240 8.121636
53.245 8.373954
53.250 8.455444
53.255 8.432902
53.260 8.551482
53.265 8.376677
53.270 8.229409
53.275 8.114791
53.280 8.07938
53.285 7.965279
53.290 7.737478
53.295 7.639914
53.300 7.924299
53.305 8.64925
53.310 8.922245
53.315 9.134702
53.320 9.640192
53.325 10.190361
53.330 10.452376
53.335 10.553502
53.340 10.545506
53.345 10.440315
53.350 10.595636
53.355 10.384092
53.360 10.323533
53.365 10.304464
53.370 10.17966
53.375 10.02904
53.380 9.952293
53.385 9.76894
53.390 9.560196
53.395 9.167319
53.400 8.962624
53.405 8.885447
53.410 8.680788
53.415 8.669797
53.420 8.577549
53.425 8.695022
53.430 8.795433
53.435 8.617355
53.440 8.475252
53.445 8.68263
53.450 8.766308
53.455 9.563178
53.460 9.47587
53.465 9.878067
53.470 9.920101
53.475 9.87813
53.480 10.114229
53.485 9.455724
53.490 9.419456
53.495 9.235426
53.500 9.215055
53.505 9.538511
53.510 9.761917
53.515 10.300281
53.520 10.770625
53.525 10.722385
53.530 10.866129
53.535 10.555131
53.540 10.51677
53.545 10.09636
53.550 9.362018
53.555 8.845856
53.560 8.52099
53.565 8.663785
53.570 8.759043
53.575 8.558139
53.580 8.681483
53.585 9.013824
53.590 9.409256
53.595 9.291492
53.600 9.254167
53.605 9.560659
53.610 9.587809
53.615 9.152175
53.620 9.254977
53.625 9.819503
53.630 9.893892
53.635 9.80168
53.640 9.280871
53.645 9.536772
53.650 9.823866
53.655 9.589279
53.660 8.998744
53.665 8.769382
53.670 8.821499
53.675 8.996403
53.680 8.964905
53.685 9.197634
53.690 9.08954
53.695 9.30349
53.700 9.037915
53.705 9.090498
53.710 9.371271
53.715 9.203249
53.720 8.757405
53.725 8.571749
53.730 8.82951
53.735 9.535291
53.740 9.815319
53.745 9.616274
53.750 9.651725
53.755 10.0036
53.760 10.151041
53.765 10.45858
53.770 10.013861
53.775 10.128489
53.780 10.35306
53.785 10.396516
53.790 10.309442
53.795 10.412119
53.800 10.429536
53.805 10.063679
53.810 9.944636
53.815 9.719603
53.820 9.417495
53.825 9.250658
53.830 8.932598
53.835 8.973454
53.840 9.391307
53.845 9.313909
53.850 9.91606
53.855 10.492966
53.860 10.566032
53.865 10.513525
53.870 10.454484
53.875 10.580356
53.880 10.219943
53.885 9.878829
53.890 9.679366
53.895 9.294199
53.900 9.197793
53.905 8.7456
53.910 8.329495
53.915 7.906753
53.920 7.8077
53.925 8.154715
53.930 8.627449
53.935 8.705688
53.940 8.95066
53.945 9.360858
53.950 9.512161
53.955 9.323335
53.960 9.541214
53.965 9.874063
53.970 9.923401
53.975 9.988108
53.980 9.860065
53.985 9.574575
53.990 9.577616
53.995 9.73636
54.000 9.450564
54.005 9.493341
54.010 9.587326
54.015 9.787967
54.020 9.975636
54.025 9.944178
54.030 9.351886
54.035 9.450695
54.040 9.163466
54.045 8.967425
54.050 8.942961
54.055 9.121697
54.060 9.115083
54.065 9.273428
54.070 9.742829
54.075 10.043497
54.080 10.817591
54.085 10.962432
54.090 10.913955
54.095 10.572444
54.100 10.772736
54.105 10.741545
54.110 10.792306
54.115 10.342464
54.120 10.975029
54.125 11.473404
54.130 11.682277
54.135 11.900605
54.140 12.439423
54.145 12.764762
54.150 12.940017
54.155 12.738623
54.160 12.707051
54.165 12.477878
54.170 11.917138
54.175 10.975099
54.180 10.81432
54.185 10.948404
54.190 10.568115
54.195 10.41226
54.200 10.253936
54.205 9.985736
54.210 10.218181
54.215 9.722295
54.220 9.138859
54.225 9.427521
54.230 9.550582
54.235 9.92543
54.240 10.591024
54.245 10.263088
54.250 10.391355
54.255 10.55723
54.260 10.442449
54.265 10.830077
54.270 10.500804
54.275 10.017312
54.280 10.308784
54.285 10.687664
54.290 11.127925
54.295 10.976477
54.300 10.553169
54.305 10.810648
54.310 10.821591
54.315 10.691439
54.320 10.462359
54.325 10.403488
54.330 10.687485
54.335 10.778956
54.340 10.623332
54.345 10.80227
54.350 11.188769
54.355 11.534449
54.360 11.325896
54.365 11.350755
54.370 11.458511
54.375 11.880026
54.380 12.133592
54.385 11.872345
54.390 11.505907
54.395 11.460683
54.400 11.332541
54.405 11.263058
54.410 10.445609
54.415 9.764281
54.420 9.644712
54.425 9.632955
54.430 10.064104
54.435 10.246224
54.440 10.470991
54.445 10.83786
54.450 11.353329
54.455 11.374048
54.460 10.990644
54.465 10.368752
54.470 9.723225
54.475 9.521912
54.480 9.314898
54.485 9.388515
54.490 9.656987
54.495 9.840106
54.500 10.615438
54.505 10.539289
54.510 10.44315
54.515 10.8239
54.520 10.368792
54.525 10.198917
54.530 10.122046
54.535 9.876783
54.540 10.53861
54.545 10.360057
54.550 10.175474
54.555 10.467297
54.560 10.562608
54.565 10.619856
54.570 10.28259
54.575 9.922868
54.580 9.922533
54.585 9.526572
54.590 9.097761
54.595 8.917042
54.600 9.108252
54.605 9.391831
54.610 9.607245
54.615 9.592963
54.620 9.525431
54.625 9.281075
54.630 8.811633
54.635 8.645127
54.640 8.306631
54.645 8.404885
54.650 8.896213
54.655 9.47049
54.660 10.365653
54.665 10.757864
54.670 10.597829
54.675 10.43442
54.680 10.532633
54.685 10.933566
54.690 10.694345
54.695 10.630474
54.700 10.581399
54.705 10.701118
54.710 10.602852
54.715 10.483882
54.720 10.711089
54.725 11.042067
54.730 11.040043
54.735 11.615091
54.740 11.584128
54.745 11.53836
54.750 10.848679
54.755 10.480141
54.760 10.156085
54.765 9.962375
54.770 9.727196
54.775 10.162005
54.780 10.600372
54.785 11.004016
54.790 11.146644
54.795 11.460397
54.800 11.646542
54.805 11.36839
54.810 11.587452
54.815 11.577459
54.820 11.079656
54.825 11.454276
54.830 11.076684
54.835 10.975826
54.840 11.020715
54.845 10.631502
54.850 10.794989
54.855 11.195258
54.860 10.852942
54.865 10.960191
54.870 10.666536
54.875 10.959474
54.880 11.866844
54.885 11.734876
54.890 11.333457
54.895 10.992511
54.900 10.837913
54.905 11.338919
54.910 11.125869
54.915 10.804889
54.920 11.067096
54.925 11.463168
54.930 12.258699
54.935 12.595798
54.940 12.318558
54.945 12.194734
54.950 12.330965
54.955 11.603511
54.960 11.47872
54.965 10.655883
54.970 10.732464
54.975 10.625278
54.980 10.547523
54.985 10.549232
54.990 11.108322
54.995 11.468456
55.000 11.705813
55.005 11.624743
55.010 11.896573
55.015 11.787789
55.020 11.50528
55.025 10.833084
55.030 10.671229
55.035 10.794933
55.040 10.570589
55.045 10.700191
55.050 11.110674
55.055 11.377148
55.060 11.214489
55.065 10.646442
55.070 10.636812
55.075 11.032569
55.080 11.270422
55.085 11.275822
55.090 11.836952
55.095 12.337063
55.100 12.803667
55.105 12.220523
55.110 11.286617
55.115 10.770267
55.120 10.558435
55.125 10.008851
55.130 10.123743
55.135 10.240434
55.140 10.567706
55.145 11.035598
55.150 11.004704
55.155 10.492455
55.160 10.623236
55.165 10.763203
55.170 10.943862
55.175 11.445026
55.180 11.502927
55.185 11.773802
55.190 11.86643
55.195 11.660527
55.200 11.183132
55.205 10.641227
55.210 10.207543
55.215 10.29575
55.220 10.3538
55.225 10.095725
55.230 9.799124
55.235 10.049371
55.240 10.256872
55.245 10.387764
55.250 10.55379
55.255 10.668797
55.260 11.488744
55.265 11.491575
55.270 11.163671
55.275 11.161916
55.280 10.885461
55.285 10.47528
55.290 9.96201
55.295 9.869997
55.300 10.145545
55.305 10.929382
55.310 11.176346
55.315 11.647121
55.320 12.047652
55.325 12.552766
55.330 12.515655
55.335 12.907392
55.340 12.480734
55.345 12.661464
55.350 12.349231
55.355 12.238072
55.360 12.397898
55.365 12.2166
55.370 11.885125
55.375 11.892598
55.380 11.752591
55.385 11.843523
55.390 11.846929
55.395 11.648956
55.400 11.612037
55.405 11.419395
55.410 11.446811
55.415 11.540155
55.420 11.842454
55.425 11.671197
55.430 11.89173
55.435 12.199712
55.440 12.083052
55.445 12.221724
55.450 12.211717
55.455 12.357991
55.460 12.537228
55.465 12.458199
55.470 12.540412
55.475 12.523105
55.480 11.905253
55.485 11.222911
55.490 10.6951
55.495 10.764329
55.500 10.692643
55.505 10.606369
55.510 10.554847
55.515 10.903353
55.520 11.332725
55.525 11.458578
55.530 11.26681
55.535 11.386309
55.540 11.416622
55.545 11.226744
55.550 11.020956
55.555 11.100847
55.560 11.267507
55.565 11.995932
55.570 11.721655
55.575 11.993685
55.580 12.155146
55.585 12.417049
55.590 12.748158
55.595 13.1258
55.600 13.142333
55.605 13.102306
55.610 13.300279
55.615 13.481864
55.620 13.347319
55.625 13.017574
55.630 12.667129
55.635 12.278059
55.640 11.719144
55.645 11.259083
55.650 11.691532
55.655 11.526767
55.660 11.059711
55.665 10.842752
55.670 10.829495
55.675 11.259381
55.680 11.134237
55.685 10.687279
55.690 11.306976
55.695 11.808863
55.700 11.84141
55.705 12.300701
55.710 12.12327
55.715 11.897452
55.720 12.155328
55.725 12.070292
55.730 11.969164
55.735 11.92507
55.740 11.923236
55.745 11.964962
55.750 12.315285
55.755 11.766325
55.760 11.839544
55.765 12.192824
55.770 12.147958
55.775 11.957864
55.780 11.861027
55.785 11.76757
55.790 11.838993
55.795 11.407736
55.800 11.082136
55.805 11.442464
55.810 12.14089
55.815 12.234467
55.820 12.246563
55.825 12.323042
55.830 12.678998
55.835 12.73784
55.840 12.245614
55.845 12.183858
55.850 12.32937
55.855 12.262658
55.860 12.243425
55.865 11.619778
55.870 11.657573
55.875 11.703165
55.880 11.695933
55.885 11.804293
55.890 11.740817
55.895 12.283375
55.900 12.339996
55.905 11.819934
55.910 11.861441
55.915 11.586618
55.920 12.003193
55.925 12.274107
55.930 12.341536
55.935 12.342372
55.940 12.490053
55.945 12.63047
55.950 12.723516
55.955 12.389085
55.960 11.955292
55.965 11.466707
55.970 11.849545
55.975 12.030463
55.980 12.177267
55.985 12.241108
55.990 12.168359
55.995 12.604478
56.000 12.695993
56.005 12.732967
56.010 12.560262
56.015 12.984338
56.020 13.411687
56.025 13.474787
56.030 13.397121
56.035 13.217119
56.040 13.179361
56.045 12.832878
56.050 11.905843
56.055 11.545919
56.060 11.015643
56.065 10.831384
56.070 10.874484
56.075 10.89115
56.080 11.510383
56.085 11.71824
56.090 11.736762
56.095 12.023134
56.100 12.140812
56.105 12.655876
56.110 12.974577
56.115 12.780258
56.120 12.77432
56.125 13.129595
56.130 13.520341
56.135 13.892167
56.140 13.228653
56.145 13.026811
56.150 12.857659
56.155 12.692981
56.160 12.509808
56.165 12.475058
56.170 12.730515
56.175 12.450953
56.180 11.888228
56.185 11.759226
56.190 11.92061
56.195 11.636321
56.200 11.171051
56.205 10.824362
56.210 11.221226
56.215 11.754907
56.220 11.944626
56.225 12.218996
56.230 12.788669
56.235 12.960597
56.240 13.236778
56.245 13.540563
56.250 13.526905
56.255 13.279948
56.260 12.667457
56.265 11.903983
56.270 11.657532
56.275 11.227533
56.280 10.889961
56.285 10.725441
56.290 11.506972
56.295 12.008458
56.300 12.75508
56.305 13.018739
56.310 13.538499
56.315 13.698357
56.320 13.40203
56.325 13.044402
56.330 12.801517
56.335 12.291657
56.340 11.991015
56.345 11.870324
56.350 12.062287
56.355 12.241195
56.360 11.998978
56.365 11.755824
56.370 11.933051
56.375 11.648658
56.380 11.4875
56.385 11.036744
56.390 11.216875
56.395 11.236929
56.400 11.356056
56.405 11.642953
56.410 12.057104
56.415 12.351623
56.420 12.783398
56.425 12.454946
56.430 12.744523
56.435 12.823369
56.440 12.232014
56.445 11.847485
56.450 11.62204
56.455 11.52631
56.460 11.925774
56.465 12.085265
56.470 11.971314
56.475 11.961408
56.480 12.304305
56.485 12.25999
56.490 12.256273
56.495 11.953803
56.500 12.143215
56.505 12.694701
56.510 13.121316
56.515 13.1988
56.520 13.438868
56.525 13.492014
56.530 13.883618
56.535 13.416096
56.540 12.816722
56.545 12.344914
56.550 12.256685
56.555 12.805243
56.560 12.869196
56.565 12.780488
56.570 13.419711
56.575 14.22369
56.580 14.703741
56.585 14.652056
56.590 13.868839
56.595 13.482749
56.600 13.40484
56.605 13.202016
56.610 12.885815
56.615 12.406507
56.620 11.929787
56.625 12.425
56.630 12.806674
56.635 12.704692
56.640 12.764461
56.645 12.811702
56.650 13.128868
56.655 13.747304
56.660 13.587395
56.665 13.747329
56.670 13.597139
56.675 13.010889
56.680 12.729726
56.685 12.83521
56.690 12.930444
56.695 12.731891
56.700 12.418675
56.705 12.149465
56.710 12.544744
56.715 13.19807
56.720 12.808108
56.725 12.617637
56.730 12.817862
56.735 13.082436
56.740 13.729919
56.745 13.864975
56.750 14.041377
56.755 14.359512
56.760 14.577388
56.765 14.380079
56.770 14.439713
56.775 14.217023
56.780 13.773664
56.785 13.792431
56.790 14.006018
56.795 13.968193
56.800 14.143033
56.805 14.128749
56.810 14.691659
56.815 14.911855
56.820 14.514744
56.825 14.113153
56.830 13.919181
56.835 13.820546
56.840 13.247322
56.845 13.098776
56.850 13.277817
56.855 13.035533
56.860 13.102109
56.865 13.62278
56.870 14.289868
56.875 15.271982
56.880 14.992184
56.885 14.706106
56.890 14.750134
56.895 14.854286
56.900 14.171335
56.905 13.641531
56.910 12.869406
56.915 12.695363
56.920 12.608843
56.925 12.413997
56.930 12.611263
56.935 12.76257
56.940 12.518165
56.945 12.962661
56.950 12.851403
56.955 13.359749
56.960 13.366129
56.965 12.866995
56.970 13.083951
56.975 13.290772
56.980 13.469689
56.985 13.329009
56.990 13.11194
56.995 12.935636
57.000 12.782287
57.005 12.780426
57.010 12.551322
57.015 12.472954
57.020 12.465658
57.025 12.43399
57.030 12.899268
57.035 12.962709
57.040 12.716714
57.045 13.033036
57.050 13.118771
57.055 13.363166
57.060 13.264659
57.065 13.0403
57.070 13.346944
57.075 14.01708
57.080 14.34837
57.085 14.527716
57.090 14.727592
57.095 14.626967
57.100 14.815983
57.105 14.602269
57.110 13.739559
57.115 13.060517
57.120 12.312857
57.125 12.287606
57.130 12.534393
57.135 12.80322
57.140 12.955427
57.145 13.175413
57.150 13.557548
57.155 13.743377
57.160 14.017015
57.165 14.189072
57.170 13.896457
57.175 13.844652
57.180 13.488846
57.185 13.4434
57.190 12.933901
57.195 12.665389
57.200 12.762671
57.205 12.880112
57.210 12.976775
57.215 13.016123
57.220 12.806384
57.225 13.150759
57.230 12.672725
57.235 12.247044
57.240 11.967862
57.245 11.671225
57.250 11.858714
57.255 11.748937
57.260 11.719036
57.265 12.361191
57.270 12.948725
57.275 13.251605
57.280 13.23212
57.285 13.869631
57.290 14.386644
57.295 14.424271
57.300 13.632611
57.305 13.183319
57.310 12.90423
57.315 12.902217
57.320 12.83238
57.325 12.731264
57.330 12.889134
57.335 13.693551
57.340 13.769738
57.345 14.163068
57.350 14.401908
57.355 14.18373
57.360 14.420334
57.365 14.170873
57.370 13.970351
57.375 14.257929
57.380 14.13594
57.385 14.094476
57.390 14.123
57.395 14.486724
57.400 14.649555
57.405 14.181649
57.410 13.950393
57.415 14.0207
57.420 14.044619
57.425 13.960724
57.430 14.10245
57.435 14.311863
57.440 14.405609
57.445 14.772046
57.450 15.133794
57.455 14.457428
57.460 13.890323
57.465 13.504772
57.470 13.430153
57.475 13.175764
57.480 12.803705
57.485 12.700954
57.490 12.940758
57.495 13.330476
57.500 13.235214
57.505 13.341897
57.510 13.882257
57.515 13.823974
57.520 13.555793
57.525 13.694616
57.530 13.465384
57.535 13.754169
57.540 13.591496
57.545 13.69812
57.550 13.900758
57.555 13.974513
57.560 14.216455
57.565 13.798744
57.570 13.388073
57.575 13.522838
57.580 13.331464
57.585 13.548118
57.590 13.388459
57.595 13.134236
57.600 13.59471
57.605 13.890168
57.610 13.920417
57.615 13.782971
57.620 13.714233
57.625 14.136487
57.630 14.460021
57.635 14.333046
57.640 14.264841
57.645 13.937037
57.650 14.025195
57.655 13.931292
57.660 13.960176
57.665 13.523451
57.670 13.623336
57.675 13.809734
57.680 13.68732
57.685 13.387176
57.690 13.217938
57.695 13.681749
57.700 13.649394
57.705 13.605619
57.710 13.423625
57.715 13.731472
57.720 13.957853
57.725 14.575857
57.730 14.586126
57.735 14.874204
57.740 15.011513
57.745 15.197904
57.750 15.319798
57.755 15.464649
57.760 14.881902
57.765 14.770557
57.770 14.578188
57.775 14.269085
57.780 14.786792
57.785 14.663264
57.790 14.216811
57.795 13.966978
57.800 13.793617
57.805 14.0529
57.810 14.603476
57.815 13.979224
57.820 13.717082
57.825 14.053905
57.830 14.158592
57.835 14.412939
57.840 14.309422
57.845 13.781773
57.850 13.752398
57.855 13.671224
57.860 13.628738
57.865 13.3146
57.870 13.069342
57.875 13.101375
57.880 13.412868
57.885 13.41979
57.890 13.650889
57.895 13.604487
57.900 13.32073
57.905 13.466923
57.910 14.003637
57.915 14.132854
57.920 14.279173
57.925 14.646867
57.930 15.046383
57.935 15.700755
57.940 15.216324
57.945 14.493702
57.950 14.327188
57.955 14.351827
57.960 13.904845
57.965 13.942529
57.970 14.499775
57.975 15.45781
57.980 15.431656
57.985 14.893888
57.990 14.342065
57.995 14.133427
58.000 13.705334
58.005 13.229726
58.010 12.799926
58.015 12.978338
58.020 13.483606
58.025 14.056713
58.030 14.662305
58.035 15.027283
58.040 15.123574
58.045 15.465534
58.050 15.849625
58.055 16.469534
58.060 16.428148
58.065 16.169563
58.070 16.115641
58.075 16.142565
58.080 15.960335
58.085 15.105189
58.090 14.63519
58.095 14.434129
58.100 14.17893
58.105 13.915836
58.110 14.200484
58.115 13.783932
58.120 14.135554
58.125 14.292204
58.130 14.423233
58.135 14.417274
58.140 14.308117
58.145 13.530386
58.150 13.533145
58.155 13.75443
58.160 13.940729
58.165 14.187172
58.170 14.362996
58.175 14.424024
58.180 14.957127
58.185 15.465232
58.190 15.373252
58.195 15.02802
58.200 14.639211
58.205 13.938745
58.210 14.073207
58.215 13.807293
58.220 13.473539
58.225 13.377028
58.230 13.192892
58.235 13.496522
58.240 14.008832
58.245 14.194343
58.250 14.579776
58.255 14.806686
58.260 14.776178
58.265 14.471457
58.270 14.261312
58.275 14.374478
58.280 14.036026
58.285 14.110183
58.290 14.680696
58.295 15.399605
58.300 15.846968
58.305 16.337938
58.310 15.925436
58.315 15.927217
58.320 15.630014
58.325 15.427078
58.330 15.059692
58.335 15.370657
58.340 15.306835
58.345 15.468407
58.350 15.586582
58.355 15.011474
58.360 14.392952
58.365 14.137195
58.370 14.158522
58.375 13.998975
58.380 13.726144
58.385 13.642982
58.390 14.024131
58.395 14.374753
58.400 14.477005
58.405 14.173293
58.410 14.774041
58.415 15.05925
58.420 15.301112
58.425 15.347305
58.430 15.426887
58.435 14.882048
58.440 14.842279
58.445 14.917971
58.450 14.767967
58.455 14.30207
58.460 14.180832
58.465 14.114049
58.470 14.432637
58.475 14.203314
58.480 14.295559
58.485 15.003945
58.490 15.366458
58.495 15.485087
58.500 15.789576
