!@!!GADDS PLOTSO FILE: Chi integration type
!@!!Title/SampleName: map-11
!@!!Comment: ?
!@!!User: Bruker Instrument Administrator
!@!!Site: University of Illinois Chicago
!@!!Frame: map-11_01_000.gfrm
!@!!Wavelengths    1.54184   1.54056   1.54439
!@!!Frame angles: 2Theta: 63.000 Omega: 50.000 Phi: 0.000 Chi: 90.000
!@!!Integration range: 2Theta: 53.000 to 73.000  Gamma: -105.000 to -75.000
!@!!Integration method: bin normalized
!@!N
!@!SS
!@!M
!@!L 0.0 0.0 0.0 0.0
!@!XDegrees
!@!YCounts
53.000 8.109522
53.005 8.099396
53.010 8.099157
53.015 8.006837
53.020 8.293649
53.025 8.538881
53.030 8.494162
53.035 8.652122
53.040 8.813945
53.045 8.856916
53.050 8.855375
53.055 9.020266
53.060 8.791613
53.065 8.918023
53.070 8.642483
53.075 8.433897
53.080 8.734878
53.085 8.614286
53.090 8.459154
53.095 8.363041
53.100 8.163145
53.105 8.34834
53.110 8.552238
53.115 7.908055
53.120 7.856884
53.125 7.867044
53.130 8.122904
53.135 8.357124
53.140 7.921212
53.145 7.507495
53.150 7.738471
53.155 7.733773
53.160 7.506951
53.165 7.426237
53.170 7.224186
53.175 7.501927
53.180 7.865527
53.185 8.18286
53.190 8.465263
53.195 8.781607
53.200 9.133889
53.205 9.095579
53.210 9.333097
53.215 9.604589
53.220 9.373414
53.225 9.489268
53.230 8.924417
53.235 8.96209
53.240 9.069167
53.245 9.129835
53.250 9.02833
53.255 9.239558
53.260 9.504026
53.265 9.473108
53.270 9.619962
53.275 9.484968
53.280 9.463357
53.285 9.272033
53.290 8.757305
53.295 8.990785
53.300 9.013031
53.305 9.046625
53.310 9.28973
53.315 9.453506
53.320 9.738129
53.325 9.494695
53.330 9.229227
53.335 9.391446
53.340 9.650283
53.345 9.489617
53.350 9.447745
53.355 9.45986
53.360 9.415345
53.365 9.636041
53.370 9.920728
53.375 10.061932
53.380 9.852152
53.385 9.799053
53.390 9.747992
53.395 9.759643
53.400 9.41421
53.405 8.342333
53.410 8.363297
53.415 8.470566
53.420 8.381889
53.425 8.33406
53.430 8.719572
53.435 8.754296
53.440 9.092579
53.445 8.831989
53.450 8.681532
53.455 8.744172
53.460 8.92616
53.465 8.706323
53.470 9.115916
53.475 9.555684
53.480 9.769485
53.485 9.880173
53.490 9.546321
53.495 9.544011
53.500 9.228944
53.505 8.575055
53.510 8.159065
53.515 8.33084
53.520 8.454601
53.525 8.640789
53.530 8.216568
53.535 8.559643
53.540 8.766958
53.545 9.209832
53.550 9.104545
53.555 9.080888
53.560 9.173625
53.565 10.0803
53.570 10.342793
53.575 10.663558
53.580 10.488555
53.585 10.778148
53.590 10.984286
53.595 10.612688
53.600 10.077294
53.605 10.085607
53.610 9.577174
53.615 9.144382
53.620 8.763339
53.625 8.656647
53.630 9.383855
53.635 9.666789
53.640 9.46886
53.645 9.659192
53.650 9.947685
53.655 10.108415
53.660 10.157063
53.665 9.77207
53.670 9.074206
53.675 9.032863
53.680 8.98633
53.685 9.116859
53.690 9.036244
53.695 9.247722
53.700 9.584565
53.705 10.055425
53.710 10.26974
53.715 10.112031
53.720 9.986288
53.725 10.497915
53.730 10.335537
53.735 9.885343
53.740 9.922948
53.745 9.919295
53.750 10.097092
53.755 9.713262
53.760 9.26062
53.765 9.211546
53.770 9.33875
53.775 9.466913
53.780 9.470633
53.785 9.758121
53.790 9.903272
53.795 10.232167
53.800 10.409843
53.805 10.501378
53.810 10.747478
53.815 11.235756
53.820 11.370696
53.825 11.603868
53.830 11.546263
53.835 11.372966
53.840 11.314466
53.845 10.828341
53.850 10.252029
53.855 9.947448
53.860 9.38217
53.865 8.918106
53.870 9.164007
53.875 9.40484
53.880 8.896915
53.885 9.11237
53.890 9.410406
53.895 9.420434
53.900 9.716735
53.905 9.454134
53.910 9.315986
53.915 10.06146
53.920 9.831664
53.925 10.010898
53.930 10.781796
53.935 11.344383
53.940 12.002889
53.945 12.15808
53.950 11.79403
53.955 11.983053
53.960 12.377123
53.965 12.090567
53.970 11.53126
53.975 11.193825
53.980 11.22363
53.985 11.046837
53.990 10.759577
53.995 10.21192
54.000 10.09422
54.005 9.555474
54.010 9.053045
54.015 9.095946
54.020 9.245411
54.025 9.593566
54.030 9.510489
54.035 9.428741
54.040 10.136704
54.045 10.765289
54.050 11.310196
54.055 11.51725
54.060 11.002776
54.065 10.67801
54.070 10.66096
54.075 10.37959
54.080 9.984892
54.085 9.353209
54.090 9.044231
54.095 9.374875
54.100 9.461123
54.105 9.473428
54.110 9.702212
54.115 10.049963
54.120 10.150515
54.125 10.00936
54.130 10.454091
54.135 10.43762
54.140 10.710302
54.145 10.701451
54.150 10.390265
54.155 10.321464
54.160 10.508926
54.165 11.024073
54.170 11.34639
54.175 10.416749
54.180 9.894099
54.185 10.532346
54.190 10.737176
54.195 10.327685
54.200 10.182309
54.205 10.71997
54.210 11.346226
54.215 11.08711
54.220 10.316994
54.225 10.30267
54.230 10.789616
54.235 10.172599
54.240 9.791802
54.245 9.834586
54.250 9.930404
54.255 10.379445
54.260 10.452648
54.265 10.233071
54.270 10.486185
54.275 10.545074
54.280 10.058254
54.285 10.18965
54.290 9.946391
54.295 9.714592
54.300 9.585718
54.305 9.294152
54.310 9.346312
54.315 9.774751
54.320 9.605254
54.325 9.819105
54.330 10.089285
54.335 10.487237
54.340 10.445095
54.345 10.683601
54.350 10.995979
54.355 11.737191
54.360 11.653658
54.365 11.633617
54.370 11.756977
54.375 11.861152
54.380 11.495435
54.385 11.416257
54.390 11.62971
54.395 12.011247
54.400 11.669422
54.405 11.75879
54.410 12.054775
54.415 12.710003
54.420 12.591014
54.425 12.074077
54.430 11.622324
54.435 11.386781
54.440 11.007703
54.445 10.754931
54.450 10.255908
54.455 10.095687
54.460 10.300451
54.465 10.91688
54.470 11.076534
54.475 11.089781
54.480 11.08679
54.485 11.377137
54.490 11.756495
54.495 11.609931
54.500 11.441747
54.505 11.531481
54.510 11.770838
54.515 11.838935
54.520 11.846588
54.525 11.604868
54.530 11.574366
54.535 11.35914
54.540 11.562915
54.545 11.0512
54.550 10.798691
54.555 10.510504
54.560 10.686029
54.565 10.650486
54.570 10.508229
54.575 10.431783
54.580 10.52381
54.585 10.847939
54.590 10.840454
54.595 10.841805
54.600 11.117568
54.605 10.828318
54.610 10.882828
54.615 11.119024
54.620 10.829304
54.625 10.838164
54.630 10.501898
54.635 10.651936
54.640 11.504065
54.645 11.494534
54.650 11.375228
54.655 11.477908
54.660 11.513042
54.665 11.854614
54.670 11.461262
54.675 11.383779
54.680 11.560273
54.685 11.502573
54.690 11.378632
54.695 10.870796
54.700 10.484704
54.705 10.212093
54.710 10.409101
54.715 10.701453
54.720 10.722318
54.725 11.150465
54.730 11.529014
54.735 11.547934
54.740 11.593793
54.745 11.192852
54.750 10.843674
54.755 10.747744
54.760 10.653097
54.765 10.722902
54.770 10.854523
54.775 11.140937
54.780 11.235701
54.785 11.038814
54.790 10.975273
54.795 10.886691
54.800 10.802664
54.805 11.241645
54.810 11.0855
54.815 10.887078
54.820 11.379233
54.825 11.583673
54.830 11.68546
54.835 11.487582
54.840 10.985876
54.845 10.820964
54.850 11.002599
54.855 11.005876
54.860 10.797929
54.865 10.664499
54.870 10.533904
54.875 10.435092
54.880 10.807057
54.885 11.039176
54.890 11.123134
54.895 11.104995
54.900 11.529847
54.905 11.65349
54.910 11.494709
54.915 11.128669
54.920 11.208756
54.925 11.30368
54.930 10.886036
54.935 10.560116
54.940 10.746445
54.945 11.144082
54.950 11.45408
54.955 11.302043
54.960 11.251069
54.965 11.34552
54.970 11.642032
54.975 11.767673
54.980 11.568618
54.985 11.298068
54.990 11.376335
54.995 11.370656
55.000 11.545732
55.005 11.622996
55.010 11.64862
55.015 11.493434
55.020 11.174867
55.025 11.505671
55.030 11.812019
55.035 11.870622
55.040 11.590675
55.045 11.307632
55.050 11.595693
55.055 11.706082
55.060 11.451331
55.065 11.036487
55.070 11.359184
55.075 11.510987
55.080 11.630287
55.085 11.486477
55.090 11.415073
55.095 11.478233
55.100 11.550115
55.105 11.720337
55.110 11.687696
55.115 11.849727
55.120 11.585347
55.125 11.758908
55.130 11.872766
55.135 11.69507
55.140 11.335535
55.145 11.210098
55.150 11.155847
55.155 11.1901
55.160 10.921364
55.165 10.901894
55.170 11.28879
55.175 11.288344
55.180 11.134921
55.185 11.375597
55.190 11.823852
55.195 11.650407
55.200 11.212646
55.205 11.060882
55.210 11.257911
55.215 11.726205
55.220 11.50036
55.225 11.483363
55.230 12.015798
55.235 12.514295
55.240 12.635036
55.245 12.724454
55.250 12.393303
55.255 12.418483
55.260 11.739889
55.265 11.760208
55.270 11.312146
55.275 10.965957
55.280 10.893293
55.285 11.155448
55.290 11.572971
55.295 12.346031
55.300 12.348595
55.305 12.343448
55.310 12.156604
55.315 12.160244
55.320 11.795012
55.325 11.649138
55.330 11.320973
55.335 11.149387
55.340 11.651195
55.345 11.653599
55.350 11.684179
55.355 11.54475
55.360 11.227324
55.365 10.872647
55.370 10.780628
55.375 10.308351
55.380 10.2761
55.385 9.77697
55.390 9.401082
55.395 9.477345
55.400 9.516948
55.405 10.125504
55.410 10.512217
55.415 10.593801
55.420 11.392193
55.425 11.849291
55.430 11.667027
55.435 11.641918
55.440 11.608867
55.445 11.397863
55.450 11.722054
55.455 11.265038
55.460 11.436835
55.465 11.93906
55.470 12.342276
55.475 12.271776
55.480 12.438375
55.485 12.450127
55.490 12.738143
55.495 12.624142
55.500 12.928266
55.505 12.598881
55.510 12.354097
55.515 12.185225
55.520 12.107903
55.525 12.789257
55.530 12.874811
55.535 12.498983
55.540 12.550773
55.545 12.815902
55.550 12.884743
55.555 12.770343
55.560 12.380342
55.565 12.452538
55.570 12.314457
55.575 12.12165
55.580 12.562765
55.585 12.765933
55.590 12.84901
55.595 12.143227
55.600 11.476655
55.605 11.339367
55.610 11.10043
55.615 10.711854
55.620 10.274365
55.625 10.342802
55.630 10.922638
55.635 11.300272
55.640 11.933512
55.645 11.826739
55.650 12.431038
55.655 12.832653
55.660 12.869287
55.665 12.892262
55.670 12.936822
55.675 13.063162
55.680 13.519017
55.685 13.539939
55.690 13.888065
55.695 13.753871
55.700 13.31481
55.705 13.348559
55.710 13.070068
55.715 12.989754
55.720 12.945516
55.725 12.459067
55.730 12.801793
55.735 13.192335
55.740 13.066377
55.745 13.178204
55.750 13.07378
55.755 12.828669
55.760 12.494621
55.765 12.110336
55.770 11.510724
55.775 11.126095
55.780 11.280605
55.785 11.385715
55.790 12.081308
55.795 12.173368
55.800 12.116371
55.805 12.291501
55.810 12.21046
55.815 12.150037
55.820 11.745505
55.825 11.858578
55.830 12.731335
55.835 13.571517
55.840 14.431693
55.845 14.82163
55.850 14.844454
55.855 14.371154
55.860 13.598989
55.865 13.103807
55.870 12.249065
55.875 11.810117
55.880 11.385726
55.885 11.463191
55.890 11.737247
55.895 12.148298
55.900 12.061774
55.905 12.026885
55.910 11.577334
55.915 11.533694
55.920 11.355614
55.925 11.116997
55.930 11.42606
55.935 11.754119
55.940 12.728188
55.945 13.762304
55.950 14.272597
55.955 14.946105
55.960 14.999618
55.965 14.306019
55.970 13.950304
55.975 13.439692
55.980 13.187136
55.985 13.024224
55.990 12.609022
55.995 12.46793
56.000 12.536818
56.005 12.983864
56.010 12.59706
56.015 12.068361
56.020 11.725586
56.025 11.637568
56.030 11.430989
56.035 11.599982
56.040 11.306652
56.045 11.694636
56.050 12.466135
56.055 12.660795
56.060 12.885264
56.065 13.371156
56.070 13.606161
56.075 14.114525
56.080 14.195334
56.085 14.013101
56.090 14.443197
56.095 14.146094
56.100 13.928667
56.105 13.311142
56.110 12.806394
56.115 12.471669
56.120 12.650233
56.125 12.222965
56.130 11.877789
56.135 12.075447
56.140 12.252103
56.145 12.017673
56.150 11.89965
56.155 11.727912
56.160 11.951835
56.165 12.391354
56.170 12.143907
56.175 11.956122
56.180 12.120106
56.185 12.11248
56.190 11.988963
56.195 11.958055
56.200 11.622427
56.205 11.399106
56.210 11.483083
56.215 11.710967
56.220 11.608217
56.225 11.409737
56.230 11.532462
56.235 12.35107
56.240 12.996711
56.245 13.182908
56.250 13.544323
56.255 13.834011
56.260 13.483392
56.265 13.703555
56.270 13.473808
56.275 13.15945
56.280 12.526101
56.285 12.688304
56.290 13.088651
56.295 13.618949
56.300 13.094387
56.305 12.869093
56.310 12.758685
56.315 12.706873
56.320 11.708951
56.325 11.587685
56.330 11.627294
56.335 11.797001
56.340 11.995893
56.345 12.500592
56.350 12.757498
56.355 12.891935
56.360 12.854706
56.365 12.844957
56.370 13.141955
56.375 13.11883
56.380 12.837862
56.385 13.099053
56.390 13.30824
56.395 13.359288
56.400 13.347931
56.405 13.191976
56.410 13.108523
56.415 13.239863
56.420 12.974649
56.425 12.80458
56.430 12.9199
56.435 12.962909
56.440 12.964557
56.445 12.57026
56.450 12.688458
56.455 12.920633
56.460 12.853667
56.465 12.791311
56.470 12.839183
56.475 12.826224
56.480 12.974553
56.485 12.779099
56.490 12.961082
56.495 13.248486
56.500 13.113888
56.505 12.901139
56.510 13.419339
56.515 13.671317
56.520 13.897694
56.525 13.682266
56.530 12.990421
56.535 12.98986
56.540 12.677189
56.545 12.110901
56.550 12.12706
56.555 11.514761
56.560 12.183108
56.565 12.408219
56.570 12.095314
56.575 12.320064
56.580 12.44114
56.585 12.455969
56.590 12.717712
56.595 12.451695
56.600 12.817844
56.605 13.078641
56.610 13.076867
56.615 13.172767
56.620 13.242816
56.625 12.650028
56.630 12.233365
56.635 12.623261
56.640 12.9609
56.645 13.088012
56.650 13.090828
56.655 13.387068
56.660 13.78627
56.665 14.402384
56.670 13.783196
56.675 13.459096
56.680 13.516453
56.685 13.408626
56.690 13.657761
56.695 14.19659
56.700 13.731746
56.705 14.375956
56.710 14.943229
56.715 15.219898
56.720 15.473085
56.725 15.479307
56.730 15.295121
56.735 15.569985
56.740 15.129609
56.745 15.106408
56.750 14.734144
56.755 14.469113
56.760 14.03435
56.765 13.82634
56.770 13.451823
56.775 13.370092
56.780 13.270721
56.785 13.977224
56.790 14.238302
56.795 14.263261
56.800 14.630863
56.805 15.454562
56.810 15.24367
56.815 15.210157
56.820 14.561585
56.825 14.401368
56.830 14.73568
56.835 14.568712
56.840 14.238154
56.845 14.959919
56.850 14.643339
56.855 15.010653
56.860 14.830941
56.865 14.739816
56.870 15.0736
56.875 14.617025
56.880 14.610368
56.885 14.827182
56.890 14.394199
56.895 14.457296
56.900 14.452379
56.905 14.697494
56.910 14.609737
56.915 13.80563
56.920 13.971893
56.925 14.48324
56.930 14.749169
56.935 14.611775
56.940 14.222505
56.945 14.428851
56.950 14.545405
56.955 14.548431
56.960 14.811019
56.965 15.051979
56.970 15.042316
56.975 15.091699
56.980 15.031357
56.985 14.989623
56.990 15.241547
56.995 14.850027
57.000 14.288152
57.005 14.454318
57.010 14.679374
57.015 14.943641
57.020 14.911115
57.025 14.24076
57.030 14.30821
57.035 14.509871
57.040 13.96757
57.045 13.958318
57.050 13.769013
57.055 13.925308
57.060 14.018679
57.065 13.614667
57.070 13.231787
57.075 13.530079
57.080 13.147408
57.085 13.183435
57.090 12.829104
57.095 12.723262
57.100 12.596725
57.105 12.890484
57.110 12.661997
57.115 12.733379
57.120 12.801369
57.125 13.408393
57.130 13.359849
57.135 13.793692
57.140 13.264552
57.145 13.399014
57.150 13.815084
57.155 13.623062
57.160 13.310103
57.165 13.468074
57.170 13.145356
57.175 13.808411
57.180 14.070764
57.185 13.727154
57.190 13.889923
57.195 13.973906
57.200 14.27502
57.205 14.583923
57.210 14.470521
57.215 14.1878
57.220 14.466832
57.225 14.635496
57.230 14.734293
57.235 14.410252
57.240 13.95691
57.245 13.414895
57.250 13.186502
57.255 12.803265
57.260 12.782047
57.265 12.605693
57.270 13.098881
57.275 13.42412
57.280 13.696157
57.285 13.998287
57.290 14.18172
57.295 14.421186
57.300 14.699384
57.305 14.372271
57.310 13.974766
57.315 14.96349
57.320 14.521657
57.325 14.50431
57.330 14.215384
57.335 14.204507
57.340 13.89464
57.345 13.924017
57.350 12.561975
57.355 13.030259
57.360 13.035807
57.365 13.386643
57.370 13.072757
57.375 13.039248
57.380 13.430184
57.385 14.053188
57.390 13.720499
57.395 13.524946
57.400 13.341283
57.405 13.798834
57.410 14.036374
57.415 13.807845
57.420 14.011769
57.425 14.34429
57.430 14.369267
57.435 14.246812
57.440 14.359853
57.445 14.507895
57.450 14.565886
57.455 14.356972
57.460 14.097701
57.465 13.652049
57.470 13.457207
57.475 13.043854
57.480 13.071319
57.485 13.077177
57.490 12.789167
57.495 12.870823
57.500 13.284442
57.505 13.843497
57.510 14.023208
57.515 13.758673
57.520 14.059274
57.525 14.284228
57.530 14.0631
57.535 13.912587
57.540 13.591319
57.545 13.025434
57.550 13.036987
57.555 12.768344
57.560 12.586457
57.565 12.621975
57.570 12.544976
57.575 12.195925
57.580 12.703617
57.585 12.907151
57.590 13.174337
57.595 13.675779
57.600 13.913245
57.605 14.245465
57.610 14.352623
57.615 14.304093
57.620 14.184459
57.625 14.390463
57.630 14.011004
57.635 13.950794
57.640 14.218023
57.645 14.525855
57.650 14.608147
57.655 14.658515
57.660 14.308476
57.665 13.884957
57.670 13.270982
57.675 12.741181
57.680 12.634856
57.685 12.597432
57.690 12.526321
57.695 12.492954
57.700 13.195798
57.705 13.799951
57.710 14.136854
57.715 14.116468
57.720 14.280042
57.725 14.566049
57.730 14.830632
57.735 14.367616
57.740 14.094123
57.745 13.944827
57.750 14.252387
57.755 14.594597
57.760 14.591487
57.765 15.088919
57.770 15.466788
57.775 15.621386
57.780 15.753078
57.785 15.74603
57.790 15.414103
57.795 15.64373
57.800 15.426504
57.805 15.241118
57.810 15.198318
57.815 14.972718
57.820 14.760219
57.825 14.331696
57.830 13.339167
57.835 13.229594
57.840 13.482608
57.845 13.718939
57.850 13.475901
57.855 14.076303
57.860 14.414217
57.865 15.109346
57.870 15.192173
57.875 15.169711
57.880 15.18391
57.885 15.618082
57.890 15.387761
57.895 15.678369
57.900 15.447601
57.905 15.837357
57.910 15.850161
57.915 15.870636
57.920 15.811811
57.925 15.893836
57.930 15.719864
57.935 15.510304
57.940 15.303145
57.945 15.003963
57.950 14.912774
57.955 14.484311
57.960 14.159389
57.965 14.247332
57.970 14.146638
57.975 13.184882
57.980 13.15084
57.985 13.750231
57.990 13.959764
57.995 13.883331
58.000 13.592803
58.005 14.000967
58.010 14.658547
58.015 14.46521
58.020 13.72781
58.025 13.134745
58.030 13.134029
58.035 13.538748
58.040 13.968349
58.045 13.724272
58.050 13.62786
58.055 13.99646
58.060 14.311769
58.065 14.534307
58.070 14.436589
58.075 14.468964
58.080 15.002822
58.085 15.28007
58.090 15.290762
58.095 15.544385
58.100 15.204944
58.105 14.935081
58.110 14.735228
58.115 14.769172
58.120 15.40169
58.125 15.687876
58.130 15.74256
58.135 15.96402
58.140 16.354599
58.145 16.539322
58.150 15.8131
58.155 15.582113
58.160 15.583681
58.165 15.662917
58.170 15.75894
58.175 15.471114
58.180 15.814811
58.185 15.994301
58.190 15.625769
58.195 15.260369
58.200 15.325315
58.205 15.476704
58.210 15.547943
58.215 15.000576
58.220 15.383489
58.225 15.534942
58.230 15.675367
58.235 15.578666
58.240 15.236916
58.245 15.454718
58.250 15.762854
58.255 15.722939
58.260 15.786407
58.265 15.736335
58.270 15.727282
58.275 15.546704
58.280 15.49419
58.285 14.999149
58.290 14.508065
58.295 14.477443
58.300 14.559773
58.305 14.299423
58.310 14.181511
58.315 14.000227
58.320 14.061132
58.325 13.946293
58.330 14.053759
58.335 14.203193
58.340 14.412204
58.345 14.399426
58.350 14.462886
58.355 15.226484
58.360 15.047497
58.365 14.455894
58.370 14.733306
58.375 14.897265
58.380 14.89733
58.385 14.17207
58.390 14.230679
58.395 14.762495
58.400 14.942633
58.405 14.044466
58.410 14.166928
58.415 14.456168
58.420 14.347759
58.425 14.273869
58.430 14.296198
58.435 14.633587
58.440 15.225524
58.445 15.1788
58.450 15.272299
58.455 15.809426
58.460 15.907432
58.465 15.653008
58.470 15.761339
58.475 15.36048
58.480 15.423826
58.485 15.35336
58.490 15.284849
58.495 15.059877
