!@!!GADDS PLOTSO FILE: Chi integration type
!@!!Title/SampleName: map-40
!@!!Comment: ?
!@!!User: Bruker Instrument Administrator
!@!!Site: University of Illinois Chicago
!@!!Frame: map-40_01_000.gfrm
!@!!Wavelengths    1.54184   1.54056   1.54439
!@!!Frame angles: 2Theta: 63.000 Omega: 50.000 Phi: 0.000 Chi: 90.000
!@!!Integration range: 2Theta: 53.000 to 73.000  Gamma: -105.000 to -75.000
!@!!Integration method: bin normalized
!@!N
!@!SS
!@!M
!@!L 0.0 0.0 0.0 0.0
!@!XDegrees
!@!YCounts
53.000 8.449273
53.005 9.402335
53.010 9.79659
53.015 9.847384
53.020 9.250072
53.025 8.915342
53.030 8.462884
53.035 7.786108
53.040 7.363386
53.045 7.489397
53.050 7.758303
53.055 8.33273
53.060 8.304442
53.065 8.42954
53.070 8.483266
53.075 8.365836
53.080 8.413963
53.085 8.01692
53.090 7.558511
53.095 7.796017
53.100 7.981126
53.105 8.113928
53.110 8.055743
53.115 7.884605
53.120 7.825451
53.125 7.858048
53.130 7.750593
53.135 7.575917
53.140 7.934227
53.145 7.953808
53.150 8.023263
53.155 7.882504
53.160 7.512702
53.165 7.315554
53.170 7.266271
53.175 6.756401
53.180 6.499436
53.185 6.181588
53.190 6.227761
53.195 6.408922
53.200 6.485102
53.205 6.496501
53.210 6.75353
53.215 7.165496
53.220 7.61832
53.225 7.712157
53.230 7.829913
53.235 8.151652
53.240 7.894927
53.245 7.965142
53.250 7.926246
53.255 7.908035
53.260 7.930868
53.265 8.133208
53.270 8.4612
53.275 8.796523
53.280 8.504833
53.285 8.504122
53.290 8.634726
53.295 8.757949
53.300 8.480376
53.305 8.40857
53.310 8.750418
53.315 9.034312
53.320 9.033511
53.325 8.862237
53.330 8.594962
53.335 8.444133
53.340 8.440806
53.345 8.118005
53.350 8.023198
53.355 8.013607
53.360 8.102423
53.365 8.330576
53.370 8.21311
53.375 8.172413
53.380 8.280426
53.385 8.489248
53.390 8.452087
53.395 8.482925
53.400 8.639217
53.405 8.692344
53.410 8.782805
53.415 8.585902
53.420 8.731477
53.425 8.595035
53.430 8.219835
53.435 8.381823
53.440 8.624821
53.445 8.400151
53.450 8.446355
53.455 8.457291
53.460 8.826762
53.465 9.050926
53.470 9.091846
53.475 9.001916
53.480 9.2123
53.485 8.901655
53.490 8.485149
53.495 8.431734
53.500 8.397882
53.505 7.489265
53.510 7.463627
53.515 7.985475
53.520 8.395587
53.525 8.700708
53.530 8.536189
53.535 8.514216
53.540 8.982255
53.545 8.952983
53.550 8.563334
53.555 8.458622
53.560 8.43681
53.565 8.709887
53.570 8.714097
53.575 8.221633
53.580 8.027034
53.585 7.957876
53.590 8.221409
53.595 8.297023
53.600 8.41766
53.605 8.831212
53.610 9.022435
53.615 9.273456
53.620 9.376177
53.625 9.370948
53.630 9.587677
53.635 9.399835
53.640 9.167802
53.645 9.1699
53.650 8.996192
53.655 8.699609
53.660 8.356542
53.665 8.395927
53.670 8.670753
53.675 8.705298
53.680 9.010568
53.685 9.110121
53.690 9.164671
53.695 9.044497
53.700 8.744646
53.705 8.415445
53.710 8.181488
53.715 8.101914
53.720 8.432755
53.725 8.863382
53.730 9.105444
53.735 9.15337
53.740 9.5397
53.745 9.555009
53.750 9.433219
53.755 9.37845
53.760 9.090657
53.765 9.060284
53.770 9.093477
53.775 9.192062
53.780 9.468283
53.785 9.559286
53.790 9.83226
53.795 10.164715
53.800 10.13485
53.805 10.377494
53.810 10.065082
53.815 10.062769
53.820 9.960337
53.825 9.036779
53.830 8.557841
53.835 7.915564
53.840 7.467964
53.845 7.355738
53.850 6.737404
53.855 6.764872
53.860 7.201795
53.865 7.493777
53.870 7.853645
53.875 7.911904
53.880 8.266004
53.885 8.307126
53.890 8.031973
53.895 7.940344
53.900 8.187089
53.905 8.711263
53.910 8.959836
53.915 8.760199
53.920 8.727601
53.925 9.077055
53.930 9.305214
53.935 9.222256
53.940 9.169146
53.945 9.168064
53.950 9.70473
53.955 9.524428
53.960 9.334461
53.965 9.619514
53.970 9.727196
53.975 9.879665
53.980 10.148954
53.985 10.543687
53.990 10.805862
53.995 10.530489
54.000 10.176525
54.005 9.972299
54.010 9.801314
54.015 9.234204
54.020 8.895884
54.025 8.77741
54.030 8.639874
54.035 8.754487
54.040 8.555353
54.045 8.347402
54.050 8.268623
54.055 8.507642
54.060 8.789596
54.065 8.811494
54.070 8.354576
54.075 8.602962
54.080 8.698685
54.085 9.060399
54.090 8.953485
54.095 8.588755
54.100 8.562099
54.105 8.593043
54.110 8.284715
54.115 8.482284
54.120 8.394068
54.125 8.204173
54.130 8.570556
54.135 8.888875
54.140 9.457395
54.145 9.802557
54.150 9.565295
54.155 9.661326
54.160 10.263248
54.165 10.715638
54.170 10.642204
54.175 10.439179
54.180 10.502677
54.185 10.376808
54.190 10.329471
54.195 9.964878
54.200 9.817984
54.205 9.942657
54.210 10.122982
54.215 10.037024
54.220 9.747242
54.225 9.40927
54.230 9.326519
54.235 9.391315
54.240 9.303166
54.245 9.034117
54.250 9.254859
54.255 9.450249
54.260 9.738582
54.265 9.806527
54.270 9.896339
54.275 10.152459
54.280 9.942635
54.285 9.6425
54.290 10.012779
54.295 10.259545
54.300 10.213738
54.305 9.941118
54.310 9.796713
54.315 10.276885
54.320 10.765974
54.325 10.254264
54.330 10.336044
54.335 10.444187
54.340 10.695317
54.345 10.822966
54.350 10.614512
54.355 10.500524
54.360 10.667417
54.365 10.301263
54.370 9.799559
54.375 9.643353
54.380 9.368753
54.385 8.873707
54.390 8.813271
54.395 8.73419
54.400 9.088279
54.405 9.115962
54.410 9.0573
54.415 9.01825
54.420 9.162601
54.425 8.915936
54.430 8.448447
54.435 7.907434
54.440 7.914167
54.445 7.573869
54.450 7.716883
54.455 7.691597
54.460 8.149587
54.465 8.612377
54.470 8.754107
54.475 9.109663
54.480 9.499784
54.485 9.382372
54.490 9.189024
54.495 9.134721
54.500 9.215143
54.505 8.99705
54.510 9.360122
54.515 9.984773
54.520 10.26729
54.525 10.27287
54.530 9.966081
54.535 10.00433
54.540 9.94974
54.545 9.386126
54.550 9.018229
54.555 9.279064
54.560 9.25247
54.565 9.535951
54.570 9.440503
54.575 9.378325
54.580 9.267352
54.585 9.771709
54.590 9.669802
54.595 9.588783
54.600 9.540999
54.605 10.016321
54.610 10.224908
54.615 9.825519
54.620 9.367482
54.625 9.370287
54.630 9.396216
54.635 9.385503
54.640 8.9569
54.645 9.249478
54.650 9.290933
54.655 9.207471
54.660 9.282171
54.665 9.021443
54.670 8.915889
54.675 8.789828
54.680 9.036841
54.685 8.790297
54.690 8.659871
54.695 8.533264
54.700 8.897837
54.705 9.353741
54.710 9.287266
54.715 9.42964
54.720 9.641521
54.725 10.246341
54.730 10.425641
54.735 10.148409
54.740 9.636954
54.745 9.249312
54.750 8.884929
54.755 8.715725
54.760 8.775995
54.765 9.156708
54.770 9.693673
54.775 10.143632
54.780 10.680847
54.785 10.863816
54.790 11.094371
54.795 10.726753
54.800 10.733005
54.805 10.664385
54.810 10.706128
54.815 10.801708
54.820 10.53749
54.825 10.589293
54.830 10.800395
54.835 11.010919
54.840 11.089456
54.845 10.86544
54.850 11.161487
54.855 11.164539
54.860 11.086086
54.865 10.862982
54.870 10.783233
54.875 10.721718
54.880 10.830714
54.885 10.774203
54.890 11.069188
54.895 11.037312
54.900 11.147558
54.905 10.944026
54.910 10.910614
54.915 10.811189
54.920 10.50825
54.925 10.625548
54.930 10.717906
54.935 10.607629
54.940 10.739446
54.945 10.594274
54.950 10.101191
54.955 10.294994
54.960 10.306825
54.965 10.336343
54.970 10.327425
54.975 10.094193
54.980 10.816761
54.985 11.89597
54.990 12.2928
54.995 12.50677
55.000 12.595982
55.005 12.725832
55.010 12.918023
55.015 12.665409
55.020 12.106573
55.025 11.52315
55.030 11.060825
55.035 10.793084
55.040 10.516393
55.045 9.972672
55.050 9.303638
55.055 9.266486
55.060 9.362069
55.065 9.654868
55.070 9.674495
55.075 9.957378
55.080 10.535582
55.085 10.667027
55.090 10.764502
55.095 10.780159
55.100 10.549602
55.105 10.681283
55.110 10.781868
55.115 10.681315
55.120 10.66774
55.125 10.347206
55.130 10.555618
55.135 11.006656
55.140 11.26434
55.145 11.254514
55.150 11.675721
55.155 11.825984
55.160 11.949191
55.165 11.701636
55.170 11.450699
55.175 11.003181
55.180 10.961246
55.185 10.943113
55.190 11.241366
55.195 11.484015
55.200 11.586852
55.205 11.367646
55.210 11.358387
55.215 11.146366
55.220 10.723593
55.225 10.147596
55.230 9.714132
55.235 9.683773
55.240 9.649355
55.245 9.378513
55.250 9.553462
55.255 9.560817
55.260 9.782215
55.265 9.740151
55.270 9.725104
55.275 9.965425
55.280 10.092073
55.285 9.825956
55.290 9.819664
55.295 10.105931
55.300 10.227674
55.305 10.160324
55.310 10.221038
55.315 10.310433
55.320 10.498052
55.325 10.468423
55.330 10.448741
55.335 10.550422
55.340 10.549852
55.345 10.453005
55.350 10.757987
55.355 11.133766
55.360 11.579198
55.365 11.331695
55.370 11.354415
55.375 11.103044
55.380 10.915649
55.385 10.587558
55.390 9.999226
55.395 9.634244
55.400 9.975684
55.405 10.581721
55.410 11.218862
55.415 11.53429
55.420 11.886876
55.425 12.031075
55.430 11.893153
55.435 11.915343
55.440 11.713966
55.445 11.836538
55.450 11.641455
55.455 11.976842
55.460 11.669018
55.465 11.756793
55.470 11.669293
55.475 11.310259
55.480 11.067457
55.485 11.036145
55.490 10.736578
55.495 11.128943
55.500 11.850077
55.505 12.088698
55.510 11.896259
55.515 11.727159
55.520 11.601837
55.525 12.063683
55.530 12.0981
55.535 11.424581
55.540 11.37534
55.545 11.750297
55.550 12.085953
55.555 12.434675
55.560 12.056761
55.565 12.278242
55.570 12.149696
55.575 11.778016
55.580 11.776856
55.585 11.053588
55.590 10.694979
55.595 10.728814
55.600 10.101628
55.605 9.939493
55.610 10.127458
55.615 10.532827
55.620 11.084461
55.625 11.457926
55.630 11.75083
55.635 12.157595
55.640 12.730872
55.645 12.167645
55.650 11.973927
55.655 11.534974
55.660 11.111785
55.665 10.498021
55.670 10.403517
55.675 10.012702
55.680 10.269168
55.685 10.187393
55.690 10.32334
55.695 10.434736
55.700 10.629333
55.705 10.862969
55.710 11.225851
55.715 10.929869
55.720 10.831804
55.725 11.060559
55.730 11.26037
55.735 11.04128
55.740 10.569685
55.745 10.482923
55.750 11.10969
55.755 11.30241
55.760 10.904308
55.765 10.702813
55.770 10.755461
55.775 11.186496
55.780 11.539925
55.785 11.344742
55.790 11.584592
55.795 11.970342
55.800 12.274403
55.805 12.252287
55.810 12.04123
55.815 11.976612
55.820 12.144744
55.825 12.041907
55.830 12.247181
55.835 12.456871
55.840 12.811483
55.845 12.732748
55.850 12.504463
55.855 12.183882
55.860 12.1231
55.865 11.83633
55.870 11.848575
55.875 11.131904
55.880 10.58084
55.885 10.874256
55.890 11.134826
55.895 11.119596
55.900 11.438132
55.905 11.683656
55.910 12.015147
55.915 12.219084
55.920 11.848673
55.925 12.092513
55.930 11.668439
55.935 11.501773
55.940 11.398734
55.945 11.621607
55.950 11.837676
55.955 11.691727
55.960 11.12089
55.965 11.0001
55.970 10.340702
55.975 10.183982
55.980 10.321359
55.985 10.604096
55.990 10.847917
55.995 10.777818
56.000 10.929444
56.005 11.239954
56.010 11.007596
56.015 10.269558
56.020 9.670092
56.025 9.870397
56.030 10.647201
56.035 10.625252
56.040 10.331623
56.045 10.286939
56.050 10.540456
56.055 10.650789
56.060 10.630994
56.065 10.514418
56.070 10.562306
56.075 10.912181
56.080 11.102627
56.085 11.57901
56.090 11.700113
56.095 11.820978
56.100 12.206662
56.105 12.307971
56.110 12.638323
56.115 12.592103
56.120 12.465955
56.125 12.378443
56.130 12.090614
56.135 12.139687
56.140 12.611676
56.145 12.165243
56.150 12.322006
56.155 12.537287
56.160 12.548036
56.165 12.174077
56.170 12.141389
56.175 11.871641
56.180 11.694746
56.185 12.089223
56.190 11.908976
56.195 11.674255
56.200 12.071431
56.205 11.811189
56.210 11.796568
56.215 12.469591
56.220 12.164753
56.225 12.445593
56.230 12.62993
56.235 12.496671
56.240 12.494104
56.245 12.574643
56.250 11.791962
56.255 11.411862
56.260 11.324637
56.265 11.492234
56.270 11.785509
56.275 11.773335
56.280 11.170831
56.285 11.138614
56.290 11.631944
56.295 11.50653
56.300 11.125909
56.305 10.650335
56.310 10.657057
56.315 10.79492
56.320 10.727337
56.325 10.298616
56.330 10.653168
56.335 10.644541
56.340 11.055021
56.345 11.411606
56.350 11.951291
56.355 12.555167
56.360 12.947039
56.365 12.754167
56.370 12.794182
56.375 12.748636
56.380 12.736959
56.385 12.460269
56.390 12.269302
56.395 11.830675
56.400 11.992003
56.405 12.299993
56.410 12.057983
56.415 12.026709
56.420 11.893822
56.425 12.043848
56.430 12.700227
56.435 12.934572
56.440 12.356216
56.445 12.319759
56.450 12.492014
56.455 12.973221
56.460 13.077728
56.465 12.81801
56.470 12.261005
56.475 12.76603
56.480 13.036988
56.485 12.811266
56.490 12.519684
56.495 12.675816
56.500 12.266278
56.505 12.569486
56.510 12.34416
56.515 11.985255
56.520 11.890949
56.525 12.050966
56.530 12.078851
56.535 12.08021
56.540 11.679412
56.545 11.313263
56.550 11.446933
56.555 11.648752
56.560 11.21723
56.565 11.081883
56.570 11.526194
56.575 12.083484
56.580 12.180865
56.585 11.828782
56.590 11.185129
56.595 11.387365
56.600 11.309091
56.605 10.896105
56.610 10.318977
56.615 10.40713
56.620 11.105473
56.625 11.351163
56.630 11.582167
56.635 11.487114
56.640 11.953322
56.645 12.891057
56.650 12.403338
56.655 11.921795
56.660 11.958076
56.665 12.103532
56.670 11.950079
56.675 11.394928
56.680 11.027436
56.685 11.402847
56.690 11.91326
56.695 11.903906
56.700 11.879778
56.705 12.03771
56.710 12.413686
56.715 12.701647
56.720 13.201419
56.725 13.320723
56.730 13.373378
56.735 13.690663
56.740 14.076204
56.745 13.951056
56.750 13.566606
56.755 13.256725
56.760 13.306662
56.765 13.303839
56.770 13.02284
56.775 13.073908
56.780 13.392449
56.785 13.281518
56.790 12.698046
56.795 12.375651
56.800 12.578303
56.805 12.514766
56.810 12.276669
56.815 11.851261
56.820 12.171604
56.825 12.259891
56.830 12.351099
56.835 12.197865
56.840 12.091339
56.845 12.334499
56.850 12.671224
56.855 13.238097
56.860 13.528545
56.865 13.352208
56.870 13.02024
56.875 12.743325
56.880 12.685963
56.885 12.151813
56.890 11.495234
56.895 10.894473
56.900 10.883435
56.905 10.959647
56.910 11.078969
56.915 11.271728
56.920 11.286246
56.925 11.518872
56.930 11.721189
56.935 12.307776
56.940 12.778487
56.945 13.085203
56.950 13.203849
56.955 13.495583
56.960 13.483001
56.965 13.696175
56.970 13.293073
56.975 13.131599
56.980 13.683784
56.985 14.111658
56.990 14.504376
56.995 14.664421
57.000 14.412041
57.005 14.219181
57.010 13.712516
57.015 13.446752
57.020 13.078362
57.025 13.070905
57.030 13.216364
57.035 13.472007
57.040 13.595675
57.045 14.087799
57.050 13.982074
57.055 13.862719
57.060 13.586917
57.065 13.187849
57.070 13.141138
57.075 12.71951
57.080 12.584163
57.085 12.879752
57.090 13.09911
57.095 13.097793
57.100 13.308613
57.105 13.430326
57.110 13.629067
57.115 12.886302
57.120 12.373206
57.125 12.217022
57.130 12.431664
57.135 12.6855
57.140 12.556797
57.145 12.543406
57.150 13.035835
57.155 12.929435
57.160 12.65274
57.165 12.332434
57.170 12.068465
57.175 12.155032
57.180 12.10865
57.185 12.091715
57.190 12.227209
57.195 12.247671
57.200 12.067993
57.205 12.119654
57.210 12.789557
57.215 13.034817
57.220 12.935948
57.225 12.905992
57.230 13.029031
57.235 12.935479
57.240 12.947774
57.245 12.205544
57.250 11.838954
57.255 11.545959
57.260 11.872643
57.265 12.170416
57.270 12.464286
57.275 12.340205
57.280 12.724857
57.285 13.274016
57.290 13.487604
57.295 13.875866
57.300 13.971755
57.305 13.924995
57.310 13.79165
57.315 13.849296
57.320 13.971788
57.325 14.036316
57.330 14.085549
57.335 14.798804
57.340 15.281861
57.345 15.710232
57.350 16.079573
57.355 15.852422
57.360 15.327572
57.365 15.135745
57.370 14.652308
57.375 14.535153
57.380 14.487479
57.385 14.142411
57.390 14.317788
57.395 14.248758
57.400 14.07345
57.405 13.812469
57.410 13.821253
57.415 13.382228
57.420 13.402169
57.425 13.67664
57.430 13.508709
57.435 12.783066
57.440 12.335765
57.445 12.421959
57.450 12.275331
57.455 11.780763
57.460 11.412025
57.465 11.821905
57.470 12.362742
57.475 12.695156
57.480 12.673702
57.485 13.347424
57.490 13.374127
57.495 13.24809
57.500 13.336212
57.505 13.408678
57.510 13.184014
57.515 13.071178
57.520 13.071676
57.525 13.314089
57.530 13.554687
57.535 13.473851
57.540 13.230412
57.545 13.478967
57.550 13.456391
57.555 13.361811
57.560 13.491366
57.565 13.173312
57.570 13.300469
57.575 13.542863
57.580 13.372053
57.585 13.57845
57.590 13.694343
57.595 14.035641
57.600 14.459061
57.605 14.629486
57.610 14.427306
57.615 14.240883
57.620 13.878757
57.625 13.480964
57.630 13.096983
57.635 12.890038
57.640 12.765383
57.645 13.149225
57.650 13.395705
57.655 13.473796
57.660 14.093136
57.665 14.126279
57.670 13.88154
57.675 13.889658
57.680 13.194663
57.685 12.912683
57.690 12.740163
57.695 12.396711
57.700 12.083899
57.705 11.866036
57.710 11.736683
57.715 12.102204
57.720 12.616118
57.725 12.90659
57.730 12.974523
57.735 12.614957
57.740 12.873013
57.745 13.030054
57.750 13.059766
57.755 12.79296
57.760 12.453823
57.765 12.374561
57.770 12.870105
57.775 12.803828
57.780 12.655728
57.785 12.541493
57.790 12.548671
57.795 12.455481
57.800 12.450006
57.805 12.426583
57.810 12.745413
57.815 13.115474
57.820 13.409638
57.825 13.137265
57.830 13.206672
57.835 13.622447
57.840 13.744723
57.845 13.063867
57.850 12.803136
57.855 12.75354
57.860 13.857688
57.865 13.997547
57.870 14.289674
57.875 14.76096
57.880 15.211303
57.885 15.588423
57.890 15.050544
57.895 14.389706
57.900 14.456016
57.905 13.97459
57.910 13.596012
57.915 13.411637
57.920 13.510679
57.925 13.977833
57.930 14.12089
57.935 13.856396
57.940 14.001276
57.945 14.050209
57.950 14.166366
57.955 13.476107
57.960 13.023088
57.965 12.630026
57.970 12.737298
57.975 12.556778
57.980 12.677535
57.985 12.646873
57.990 12.915594
57.995 13.214659
58.000 13.320101
58.005 13.166787
58.010 13.059158
58.015 12.910534
58.020 13.016564
58.025 13.178222
58.030 13.666065
58.035 14.133771
58.040 14.338643
58.045 14.247104
58.050 14.286502
58.055 14.554745
58.060 14.332206
58.065 14.085518
58.070 14.075471
58.075 14.110724
58.080 14.414101
58.085 14.218379
58.090 14.299931
58.095 14.585148
58.100 14.061399
58.105 14.149585
58.110 14.412169
58.115 14.56004
58.120 14.506584
58.125 14.394243
58.130 13.997005
58.135 13.856938
58.140 13.479295
58.145 12.810651
58.150 12.762132
58.155 12.560404
58.160 12.286444
58.165 12.754975
58.170 13.044121
58.175 13.168358
58.180 13.219257
58.185 13.038251
58.190 13.261942
58.195 13.432506
58.200 13.048538
58.205 13.066865
58.210 13.389403
58.215 13.845836
58.220 14.091276
58.225 14.058868
58.230 13.958925
58.235 14.424088
58.240 14.742579
58.245 14.587983
58.250 14.970842
58.255 15.318839
58.260 15.38645
58.265 15.507782
58.270 14.977402
58.275 14.674756
58.280 14.692868
58.285 13.824326
58.290 13.822591
58.295 14.038261
58.300 14.272497
58.305 14.640931
58.310 14.709757
58.315 14.357724
58.320 14.179834
58.325 13.975721
58.330 14.508377
58.335 15.051146
58.340 15.401074
58.345 15.207998
58.350 15.202185
58.355 15.375035
58.360 15.145857
58.365 14.105535
58.370 13.546769
58.375 13.479322
58.380 13.595112
58.385 14.236512
58.390 14.372822
58.395 15.416479
58.400 16.085331
58.405 16.131975
58.410 15.936256
58.415 16.144604
58.420 15.598792
58.425 15.406969
58.430 14.493369
58.435 14.293976
58.440 14.62924
58.445 14.213966
58.450 14.078281
58.455 14.109109
58.460 14.554603
58.465 14.538792
58.470 14.153631
58.475 13.850861
58.480 14.160373
58.485 14.210567
58.490 14.406842
58.495 14.072989
58.500 14.275123
58.505 14.166107
58.510 13.756562
58.515 13.572607
58.520 13.388396
58.525 13.744934
58.530 14.251245
