!@!!GADDS PLOTSO FILE: Chi integration type
!@!!Title/SampleName: map-150
!@!!Comment: ?
!@!!User: Bruker Instrument Administrator
!@!!Site: University of Illinois Chicago
!@!!Frame: map-150_01_000.gfrm
!@!!Wavelengths    1.54184   1.54056   1.54439
!@!!Frame angles: 2Theta: 63.000 Omega: 50.000 Phi: 0.000 Chi: 90.000
!@!!Integration range: 2Theta: 53.000 to 73.000  Gamma: -105.000 to -75.000
!@!!Integration method: bin normalized
!@!N
!@!SS
!@!M
!@!L 0.0 0.0 0.0 0.0
!@!XDegrees
!@!YCounts
53.000 10.292559
53.005 10.303473
53.010 10.056236
53.015 9.204433
53.020 8.529124
53.025 8.097281
53.030 7.56102
53.035 7.779787
53.040 8.002598
53.045 8.232919
53.050 8.423171
53.055 8.280334
53.060 8.801036
53.065 9.137994
53.070 9.090282
53.075 9.294516
53.080 9.597527
53.085 9.897719
53.090 9.864352
53.095 9.829468
53.100 9.722045
53.105 9.82141
53.110 9.487758
53.115 9.666223
53.120 9.961804
53.125 9.641639
53.130 9.902822
53.135 10.418648
53.140 10.692443
53.145 10.587403
53.150 10.288651
53.155 10.370015
53.160 10.447808
53.165 9.995462
53.170 9.571191
53.175 9.656506
53.180 9.911432
53.185 9.832327
53.190 9.852118
53.195 9.934283
53.200 10.343771
53.205 10.161063
53.210 10.100655
53.215 10.615559
53.220 10.47877
53.225 10.79708
53.230 10.416299
53.235 10.126629
53.240 10.349367
53.245 10.059289
53.250 9.713951
53.255 9.706706
53.260 9.101809
53.265 9.316872
53.270 9.717699
53.275 9.478132
53.280 9.563408
53.285 9.20167
53.290 9.727005
53.295 10.858979
53.300 11.132112
53.305 10.993299
53.310 11.259438
53.315 11.30179
53.320 11.397053
53.325 11.350915
53.330 11.074102
53.335 11.006481
53.340 10.593976
53.345 10.604506
53.350 10.677043
53.355 10.60687
53.360 10.317865
53.365 10.082681
53.370 9.791183
53.375 9.852064
53.380 9.905641
53.385 9.534189
53.390 9.626137
53.395 9.427627
53.400 9.739411
53.405 9.875963
53.410 9.755482
53.415 9.597422
53.420 9.571584
53.425 9.371759
53.430 9.315276
53.435 9.064896
53.440 9.229089
53.445 9.44186
53.450 9.565995
53.455 9.619235
53.460 9.983908
53.465 10.292765
53.470 10.289852
53.475 10.162703
53.480 10.325321
53.485 10.480082
53.490 10.419504
53.495 9.977717
53.500 10.168571
53.505 10.528693
53.510 10.783236
53.515 10.623876
53.520 10.784093
53.525 11.437185
53.530 12.087074
53.535 11.430823
53.540 10.943754
53.545 10.854761
53.550 10.983755
53.555 10.737992
53.560 10.005811
53.565 9.623394
53.570 9.913597
53.575 10.201896
53.580 10.029752
53.585 10.236144
53.590 10.287536
53.595 10.467873
53.600 10.801358
53.605 11.078382
53.610 10.619836
53.615 10.770913
53.620 10.89939
53.625 10.742092
53.630 9.935971
53.635 9.49736
53.640 9.292485
53.645 9.325895
53.650 9.099414
53.655 8.720861
53.660 9.28262
53.665 9.936173
53.670 10.011312
53.675 10.16977
53.680 10.22512
53.685 10.632449
53.690 10.767718
53.695 10.799317
53.700 10.545993
53.705 10.428932
53.710 10.03411
53.715 9.781265
53.720 9.477721
53.725 9.337934
53.730 8.963471
53.735 9.04053
53.740 9.357141
53.745 9.436849
53.750 9.37635
53.755 9.30628
53.760 9.552302
53.765 9.747198
53.770 10.097858
53.775 10.272449
53.780 10.413988
53.785 10.367895
53.790 10.761431
53.795 11.339531
53.800 11.240678
53.805 11.512391
53.810 11.460491
53.815 11.597621
53.820 11.656483
53.825 11.602537
53.830 11.473537
53.835 11.845228
53.840 11.824894
53.845 12.199883
53.850 12.562817
53.855 12.472213
53.860 12.276674
53.865 12.029901
53.870 11.722211
53.875 11.444575
53.880 10.863178
53.885 10.343289
53.890 10.165551
53.895 9.766774
53.900 9.348593
53.905 9.220566
53.910 9.11919
53.915 9.381852
53.920 9.356757
53.925 9.371811
53.930 9.341967
53.935 9.706584
53.940 9.715632
53.945 9.511412
53.950 9.642733
53.955 9.570849
53.960 9.726305
53.965 10.471167
53.970 10.467796
53.975 10.137726
53.980 10.121662
53.985 10.13554
53.990 10.491882
53.995 10.204165
54.000 9.413116
54.005 9.035139
54.010 9.587073
54.015 9.636105
54.020 9.56209
54.025 9.237823
54.030 9.391479
54.035 9.527726
54.040 10.018275
54.045 10.137366
54.050 10.593923
54.055 10.966778
54.060 10.916674
54.065 10.857193
54.070 10.83102
54.075 10.811167
54.080 10.580797
54.085 10.361917
54.090 10.491696
54.095 11.153533
54.100 11.292952
54.105 11.469853
54.110 11.255505
54.115 10.911994
54.120 10.845062
54.125 10.265699
54.130 10.351487
54.135 10.18926
54.140 10.005796
54.145 10.11694
54.150 10.221927
54.155 10.420797
54.160 10.464831
54.165 9.4074
54.170 9.648084
54.175 9.781125
54.180 9.398181
54.185 9.099003
54.190 9.043176
54.195 9.540195
54.200 10.11512
54.205 9.844782
54.210 10.3234
54.215 10.885324
54.220 11.07202
54.225 11.14393
54.230 11.065125
54.235 11.340631
54.240 11.41194
54.245 11.553731
54.250 12.073071
54.255 12.203773
54.260 12.384037
54.265 12.621035
54.270 12.258513
54.275 12.278285
54.280 12.123121
54.285 12.088313
54.290 12.025196
54.295 11.738592
54.300 11.252107
54.305 11.451361
54.310 11.437654
54.315 10.883488
54.320 10.255624
54.325 9.802933
54.330 10.002847
54.335 10.791858
54.340 11.479157
54.345 11.252625
54.350 11.453566
54.355 11.596755
54.360 11.555471
54.365 11.382209
54.370 10.50263
54.375 9.531281
54.380 9.162035
54.385 9.408903
54.390 10.044089
54.395 10.022128
54.400 10.005874
54.405 9.930621
54.410 10.357984
54.415 11.017651
54.420 10.77338
54.425 10.658735
54.430 10.563434
54.435 10.832151
54.440 11.215031
54.445 11.108517
54.450 10.733482
54.455 10.635423
54.460 10.451184
54.465 11.088642
54.470 10.778073
54.475 10.497375
54.480 10.734076
54.485 10.672545
54.490 10.742197
54.495 10.911764
54.500 10.511883
54.505 10.602542
54.510 11.105273
54.515 11.122766
54.520 11.063946
54.525 10.998727
54.530 10.931584
54.535 10.964106
54.540 10.945128
54.545 10.519005
54.550 10.460622
54.555 10.845756
54.560 10.77597
54.565 10.431401
54.570 10.526481
54.575 10.655051
54.580 11.086066
54.585 11.151752
54.590 11.244306
54.595 11.397777
54.600 11.07862
54.605 10.576397
54.610 10.313965
54.615 10.125508
54.620 10.282937
54.625 9.999975
54.630 9.810092
54.635 10.335584
54.640 10.513357
54.645 10.263175
54.650 10.184501
54.655 10.04438
54.660 10.212193
54.665 10.781304
54.670 10.833449
54.675 11.116179
54.680 11.305541
54.685 11.384024
54.690 11.33913
54.695 11.294785
54.700 10.974784
54.705 11.152903
54.710 11.333791
54.715 11.27348
54.720 11.087476
54.725 11.242256
54.730 11.170954
54.735 11.367501
54.740 11.459231
54.745 11.269628
54.750 11.672072
54.755 11.69137
54.760 11.412729
54.765 11.693825
54.770 11.704582
54.775 11.637519
54.780 11.962075
54.785 11.860625
54.790 12.621646
54.795 13.269215
54.800 12.941545
54.805 12.938723
54.810 12.78174
54.815 12.53279
54.820 12.323026
54.825 11.992665
54.830 11.573551
54.835 11.685558
54.840 11.50702
54.845 11.534745
54.850 11.506063
54.855 11.433687
54.860 10.899077
54.865 10.812979
54.870 10.815052
54.875 10.897272
54.880 10.952019
54.885 10.380208
54.890 10.307055
54.895 10.253408
54.900 10.229511
54.905 9.979645
54.910 10.095296
54.915 10.295636
54.920 10.439703
54.925 10.483034
54.930 10.817491
54.935 10.657608
54.940 10.706172
54.945 10.703633
54.950 10.656009
54.955 10.496842
54.960 10.429563
54.965 10.35401
54.970 10.508621
54.975 10.883955
54.980 10.938336
54.985 11.05162
54.990 11.099726
54.995 11.012938
55.000 11.377891
55.005 11.909797
55.010 11.773494
55.015 11.810713
55.020 12.837873
55.025 13.242988
55.030 13.619412
55.035 13.15727
55.040 12.349399
55.045 12.34812
55.050 12.0788
55.055 11.726036
55.060 12.017723
55.065 12.304595
55.070 12.434887
55.075 12.911502
55.080 13.129072
55.085 12.881898
55.090 12.607019
55.095 12.144161
55.100 11.807895
55.105 12.087675
55.110 12.011079
55.115 11.900994
55.120 12.24394
55.125 12.128473
55.130 12.353822
55.135 12.118252
55.140 11.512401
55.145 11.14199
55.150 11.086409
55.155 10.695179
55.160 10.608836
55.165 10.409498
55.170 10.330874
55.175 10.813865
55.180 11.622128
55.185 11.639901
55.190 12.110682
55.195 11.880605
55.200 12.250868
55.205 12.300729
55.210 11.623247
55.215 10.794438
55.220 10.784903
55.225 10.614229
55.230 10.499808
55.235 10.064954
55.240 10.072028
55.245 10.508078
55.250 10.825891
55.255 11.175189
55.260 11.346147
55.265 11.997971
55.270 12.625951
55.275 12.796493
55.280 12.284069
55.285 11.989482
55.290 11.666794
55.295 11.850598
55.300 11.336091
55.305 11.422548
55.310 11.460889
55.315 11.625799
55.320 11.483819
55.325 11.309435
55.330 11.279545
55.335 11.328003
55.340 11.282362
55.345 11.407362
55.350 11.334599
55.355 11.522178
55.360 11.797419
55.365 11.963024
55.370 11.79596
55.375 11.451857
55.380 11.379046
55.385 11.232665
55.390 11.110372
55.395 11.005479
55.400 10.459583
55.405 10.623847
55.410 10.793164
55.415 11.299215
55.420 11.6879
55.425 12.187748
55.430 12.104723
55.435 12.803729
55.440 13.12376
55.445 12.940718
55.450 12.516092
55.455 12.113729
55.460 11.65405
55.465 11.27234
55.470 10.735997
55.475 10.505807
55.480 11.044187
55.485 11.290207
55.490 11.661119
55.495 11.962749
55.500 12.433026
55.505 12.56942
55.510 12.325889
55.515 11.811906
55.520 11.596189
55.525 11.708019
55.530 11.340174
55.535 10.700434
55.540 10.369946
55.545 10.24954
55.550 10.486392
55.555 10.301596
55.560 9.720228
55.565 9.803709
55.570 10.586982
55.575 10.925375
55.580 10.816765
55.585 10.780441
55.590 11.237056
55.595 11.56763
55.600 11.548229
55.605 10.97479
55.610 11.347019
55.615 11.319387
55.620 11.064206
55.625 10.71576
55.630 10.755828
55.635 11.437536
55.640 11.449298
55.645 11.334789
55.650 11.638223
55.655 12.097999
55.660 12.315536
55.665 11.772449
55.670 11.118114
55.675 10.684146
55.680 10.338876
55.685 10.410844
55.690 10.35473
55.695 10.78131
55.700 11.320375
55.705 11.49041
55.710 11.996677
55.715 11.978992
55.720 11.667256
55.725 11.700801
55.730 11.551797
55.735 11.66861
55.740 11.661525
55.745 11.438612
55.750 11.597098
55.755 11.67382
55.760 11.31905
55.765 11.096121
55.770 10.891103
55.775 10.831036
55.780 10.977441
55.785 11.051692
55.790 11.146374
55.795 11.402495
55.800 11.331611
55.805 11.470302
55.810 11.426397
55.815 11.140648
55.820 11.16701
55.825 11.237394
55.830 11.461737
55.835 11.990342
55.840 11.703303
55.845 12.114322
55.850 12.251514
55.855 12.33169
55.860 12.253289
55.865 12.054221
55.870 11.598803
55.875 11.907346
55.880 11.884621
55.885 11.939129
55.890 11.779003
55.895 11.541066
55.900 11.385117
55.905 11.204483
55.910 10.80542
55.915 10.682007
55.920 10.89348
55.925 11.141536
55.930 11.266889
55.935 11.395729
55.940 11.679552
55.945 12.679306
55.950 13.49219
55.955 13.130463
55.960 13.485786
55.965 13.905315
55.970 14.346222
55.975 14.335184
55.980 13.357556
55.985 12.740087
55.990 12.314778
55.995 11.70395
56.000 11.29953
56.005 10.889783
56.010 11.023357
56.015 10.757611
56.020 10.773129
56.025 11.177528
56.030 11.343532
56.035 11.612543
56.040 11.485059
56.045 10.815358
56.050 10.93244
56.055 10.999362
56.060 10.909551
56.065 11.426949
56.070 11.200455
56.075 11.637301
56.080 11.822341
56.085 12.39022
56.090 12.722021
56.095 12.414132
56.100 11.82923
56.105 11.565362
56.110 11.260907
56.115 11.272394
56.120 10.835421
56.125 10.62491
56.130 10.520161
56.135 10.389791
56.140 10.672948
56.145 10.789324
56.150 11.254346
56.155 11.118983
56.160 11.066198
56.165 11.367312
56.170 11.837938
56.175 11.934587
56.180 11.993037
56.185 11.843359
56.190 12.003386
56.195 12.049134
56.200 11.781513
56.205 11.753146
56.210 11.97915
56.215 11.78019
56.220 11.939444
56.225 11.912327
56.230 11.778374
56.235 12.093083
56.240 12.360768
56.245 12.121596
56.250 11.992184
56.255 12.237199
56.260 12.578097
56.265 12.839416
56.270 12.312407
56.275 11.984748
56.280 12.132381
56.285 12.370911
56.290 12.238441
56.295 12.411523
56.300 12.890944
56.305 13.15521
56.310 13.043185
56.315 12.979423
56.320 13.047858
56.325 12.845004
56.330 12.690307
56.335 12.479281
56.340 12.406255
56.345 12.438745
56.350 12.397405
56.355 12.356633
56.360 12.279796
56.365 12.419116
56.370 12.721648
56.375 12.805173
56.380 12.430252
56.385 11.729543
56.390 11.767659
56.395 11.937123
56.400 11.663147
56.405 11.169785
56.410 11.069001
56.415 11.55373
56.420 12.581051
56.425 12.776757
56.430 12.597153
56.435 12.519865
56.440 12.611596
56.445 12.377815
56.450 12.299478
56.455 12.399534
56.460 11.645846
56.465 11.276802
56.470 11.072679
56.475 11.008346
56.480 11.626699
56.485 11.848177
56.490 11.858419
56.495 11.552778
56.500 11.930597
56.505 12.332509
56.510 12.767302
56.515 12.452039
56.520 11.885672
56.525 11.979293
56.530 12.555535
56.535 12.378613
56.540 12.186172
56.545 11.943966
56.550 12.163047
56.555 12.749475
56.560 12.842006
56.565 12.819522
56.570 12.956203
56.575 12.647924
56.580 12.377996
56.585 11.674577
56.590 11.19982
56.595 10.897956
56.600 10.87296
56.605 10.638028
56.610 10.903571
56.615 11.28423
56.620 11.573793
56.625 11.454683
56.630 11.364738
56.635 11.75527
56.640 12.5986
56.645 12.585197
56.650 12.295411
56.655 12.296634
56.660 12.527672
56.665 12.63986
56.670 12.299456
56.675 12.047363
56.680 12.516066
56.685 12.968866
56.690 12.860353
56.695 12.825617
56.700 12.803349
56.705 13.068885
56.710 12.543855
56.715 11.792651
56.720 11.344767
56.725 11.441916
56.730 11.6925
56.735 12.16899
56.740 11.729264
56.745 11.614384
56.750 11.957928
56.755 12.036339
56.760 11.974991
56.765 11.744319
56.770 11.667044
56.775 12.314523
56.780 13.164652
56.785 13.383459
56.790 13.729415
56.795 13.902874
56.800 14.018031
56.805 13.585213
56.810 13.138892
56.815 12.43535
56.820 12.550647
56.825 12.692131
56.830 13.027466
56.835 12.515661
56.840 12.747451
56.845 13.081705
56.850 13.482655
56.855 13.504636
56.860 13.23203
56.865 13.032327
56.870 13.285386
56.875 12.750434
56.880 12.480132
56.885 12.006916
56.890 11.790907
56.895 11.433925
56.900 11.140122
56.905 11.105988
56.910 11.149542
56.915 11.44599
56.920 11.497541
56.925 11.440964
56.930 11.66451
56.935 11.700539
56.940 12.176687
56.945 12.390252
56.950 12.02724
56.955 11.917989
56.960 12.561522
56.965 12.712367
56.970 12.618181
56.975 12.296519
56.980 12.07448
56.985 12.655021
56.990 12.693631
56.995 12.256539
57.000 12.443809
57.005 12.859232
57.010 12.811066
57.015 12.75614
57.020 12.284114
57.025 12.011307
57.030 11.707061
57.035 11.058835
57.040 10.363739
57.045 10.300733
57.050 10.687083
57.055 10.758018
57.060 10.937903
57.065 11.375709
57.070 11.661185
57.075 11.993877
57.080 11.778996
57.085 11.918037
57.090 12.488539
57.095 12.308309
57.100 12.123663
57.105 11.80057
57.110 11.968642
57.115 11.893953
57.120 11.540113
57.125 11.105946
57.130 11.164506
57.135 11.360046
57.140 11.339541
57.145 11.150668
57.150 11.508862
57.155 11.526889
57.160 11.932443
57.165 12.174305
57.170 12.009292
57.175 12.344779
57.180 12.44886
57.185 12.285177
57.190 12.292095
57.195 11.819687
57.200 11.884252
57.205 12.00639
57.210 12.061847
57.215 11.770252
57.220 11.392123
57.225 10.914863
57.230 10.709533
57.235 10.505461
57.240 10.625296
57.245 10.304227
57.250 10.457012
57.255 10.95467
57.260 10.993479
57.265 11.464258
57.270 11.567645
57.275 11.462873
57.280 12.063437
57.285 12.569749
57.290 12.498796
57.295 13.175557
57.300 13.046371
57.305 12.960336
57.310 13.261889
57.315 13.110701
57.320 12.375751
57.325 12.489018
57.330 12.330782
57.335 12.357574
57.340 12.222037
57.345 11.696928
57.350 11.55255
57.355 11.776411
57.360 11.354754
57.365 10.734956
57.370 10.425073
57.375 10.597017
57.380 10.629607
57.385 10.653776
57.390 10.499308
57.395 10.453874
57.400 10.764373
57.405 10.607059
57.410 10.358258
57.415 10.360977
57.420 10.366594
57.425 10.499033
57.430 10.944618
57.435 11.249877
57.440 11.533855
57.445 11.689487
57.450 11.84337
57.455 11.992803
57.460 12.629493
57.465 12.431149
57.470 12.514267
57.475 12.655174
57.480 12.526585
57.485 12.328727
57.490 12.126346
57.495 11.894041
57.500 11.898816
57.505 12.023289
57.510 11.89889
57.515 11.908827
57.520 12.201301
57.525 12.250425
57.530 12.179132
57.535 12.387848
57.540 12.464861
57.545 12.805328
57.550 12.685915
57.555 12.724141
57.560 12.757079
57.565 13.405385
57.570 13.158418
57.575 12.673597
57.580 12.242205
57.585 12.831119
57.590 13.40844
57.595 13.12635
57.600 12.577329
57.605 12.7903
57.610 13.336576
57.615 13.538716
57.620 13.049294
57.625 12.873801
57.630 12.516968
57.635 12.348621
57.640 11.916345
57.645 11.670253
57.650 11.912001
57.655 11.794977
57.660 11.757727
57.665 12.237494
57.670 12.687968
57.675 12.900921
57.680 12.922503
57.685 12.810534
57.690 12.670792
57.695 12.500708
57.700 12.392404
57.705 12.296247
57.710 12.147217
57.715 12.269513
57.720 12.105145
57.725 11.863636
57.730 11.689798
57.735 11.748774
57.740 12.361914
57.745 12.293451
57.750 12.359847
57.755 12.975699
57.760 13.177728
57.765 13.35254
57.770 13.013412
57.775 12.426571
57.780 12.40298
57.785 12.296398
57.790 12.0906
57.795 12.752162
57.800 12.953997
57.805 12.786279
57.810 12.908884
57.815 12.748629
57.820 12.30889
57.825 11.858333
57.830 11.268775
57.835 11.141154
57.840 11.728689
57.845 11.907691
57.850 12.292819
57.855 12.743161
57.860 13.063898
57.865 13.010261
57.870 13.237181
57.875 12.992345
57.880 13.099113
57.885 12.855807
57.890 12.441038
57.895 11.98429
57.900 11.756254
57.905 11.484383
57.910 11.809613
57.915 11.864461
57.920 11.692489
57.925 11.835202
57.930 11.916127
57.935 11.96312
57.940 11.832727
57.945 11.604949
57.950 11.487222
57.955 12.093559
57.960 12.176744
57.965 12.476515
57.970 12.701286
57.975 13.049494
57.980 12.819813
57.985 13.289932
57.990 13.210085
57.995 13.112299
58.000 13.08591
58.005 12.955886
58.010 12.855179
58.015 12.318095
58.020 11.748791
58.025 11.461018
58.030 11.861945
58.035 12.031768
58.040 12.183568
58.045 11.897367
58.050 12.045602
58.055 12.065528
58.060 12.17566
58.065 12.125178
58.070 12.196797
58.075 12.117233
58.080 12.854227
58.085 13.349718
58.090 13.481303
58.095 13.618557
58.100 13.61992
58.105 13.459621
58.110 13.290224
58.115 12.553668
58.120 12.54518
58.125 12.848325
58.130 12.739408
58.135 12.745523
58.140 13.014001
58.145 13.248178
58.150 13.01345
58.155 12.944413
58.160 12.396595
58.165 12.004115
58.170 11.579986
58.175 11.306953
58.180 10.87909
58.185 10.813588
58.190 10.463784
58.195 10.534222
58.200 11.012918
58.205 10.867687
58.210 11.190646
58.215 12.176593
58.220 12.807201
58.225 13.08624
58.230 12.988605
58.235 12.945168
58.240 13.237481
58.245 13.22558
58.250 12.840629
58.255 12.66337
58.260 12.966763
58.265 13.031186
58.270 13.15602
58.275 13.004698
58.280 12.764761
58.285 12.644843
58.290 12.516045
58.295 12.574002
58.300 12.843547
58.305 13.147681
58.310 12.986181
58.315 12.785976
58.320 12.947856
58.325 13.171197
58.330 12.802865
58.335 12.406804
58.340 12.316458
58.345 12.88751
58.350 13.572674
58.355 13.744982
58.360 14.072818
58.365 14.057519
58.370 14.483599
58.375 14.372782
58.380 13.899187
58.385 13.462141
58.390 13.058405
58.395 12.63486
58.400 12.9719
58.405 12.852541
58.410 13.048199
58.415 12.781199
58.420 13.486793
58.425 13.562099
58.430 13.602047
58.435 13.597537
58.440 13.442636
58.445 13.920012
58.450 14.488148
58.455 14.208126
58.460 14.491855
58.465 14.586312
58.470 14.691375
58.475 14.461237
