!@!!GADDS PLOTSO FILE: Chi integration type
!@!!Title/SampleName: map-126
!@!!Comment: ?
!@!!User: Bruker Instrument Administrator
!@!!Site: University of Illinois Chicago
!@!!Frame: map-126_01_000.gfrm
!@!!Wavelengths    1.54184   1.54056   1.54439
!@!!Frame angles: 2Theta: 63.000 Omega: 50.000 Phi: 0.000 Chi: 90.000
!@!!Integration range: 2Theta: 53.000 to 73.000  Gamma: -105.000 to -75.000
!@!!Integration method: bin normalized
!@!N
!@!SS
!@!M
!@!L 0.0 0.0 0.0 0.0
!@!XDegrees
!@!YCounts
53.000 5.818763
53.005 5.438035
53.010 5.447562
53.015 5.186158
53.020 4.900029
53.025 4.709412
53.030 4.362936
53.035 4.30338
53.040 4.406644
53.045 4.539428
53.050 4.637559
53.055 4.42653
53.060 4.33005
53.065 4.414719
53.070 4.29808
53.075 4.531629
53.080 4.753624
53.085 4.973094
53.090 5.20701
53.095 5.114713
53.100 4.9963
53.105 4.810271
53.110 4.56197
53.115 4.779315
53.120 4.571258
53.125 4.623321
53.130 4.462561
53.135 4.268215
53.140 4.337737
53.145 4.260438
53.150 4.181835
53.155 4.585088
53.160 4.590245
53.165 5.027308
53.170 5.336844
53.175 5.500108
53.180 5.243206
53.185 4.958724
53.190 5.077218
53.195 5.189054
53.200 5.039831
53.205 4.917018
53.210 4.635325
53.215 4.741681
53.220 4.692727
53.225 4.414855
53.230 4.368304
53.235 4.465644
53.240 4.813083
53.245 5.190985
53.250 5.334295
53.255 5.577114
53.260 5.522857
53.265 5.529197
53.270 5.467563
53.275 5.317271
53.280 5.250601
53.285 4.877063
53.290 4.60866
53.295 4.838065
53.300 5.005144
53.305 5.091142
53.310 5.005608
53.315 5.08772
53.320 5.195216
53.325 4.856004
53.330 4.558405
53.335 4.504022
53.340 4.318073
53.345 4.187468
53.350 4.410173
53.355 4.925359
53.360 4.979981
53.365 5.075244
53.370 5.167149
53.375 5.215831
53.380 5.180902
53.385 4.861921
53.390 4.731176
53.395 5.126554
53.400 5.197698
53.405 4.959167
53.410 5.183009
53.415 5.399104
53.420 5.726084
53.425 5.813188
53.430 5.795254
53.435 5.706655
53.440 5.723078
53.445 5.698006
53.450 5.492753
53.455 5.466452
53.460 5.528298
53.465 5.100475
53.470 5.144342
53.475 5.20703
53.480 5.298991
53.485 5.715093
53.490 5.745064
53.495 5.663939
53.500 5.927997
53.505 5.775206
53.510 5.458714
53.515 5.427689
53.520 4.98496
53.525 4.662041
53.530 4.53593
53.535 4.705894
53.540 5.221023
53.545 5.23762
53.550 5.195524
53.555 5.272566
53.560 5.714566
53.565 6.031852
53.570 5.862239
53.575 5.848597
53.580 5.965796
53.585 6.023479
53.590 5.923837
53.595 5.450476
53.600 5.266664
53.605 4.764791
53.610 4.308786
53.615 4.228533
53.620 4.406839
53.625 4.445547
53.630 4.534388
53.635 4.796293
53.640 5.189182
53.645 5.574227
53.650 5.652564
53.655 5.072062
53.660 5.222543
53.665 5.519176
53.670 5.471524
53.675 5.490262
53.680 5.507675
53.685 5.475697
53.690 5.666282
53.695 5.709141
53.700 5.564032
53.705 5.532586
53.710 5.124258
53.715 4.933888
53.720 5.035316
53.725 5.139594
53.730 4.770995
53.735 4.629727
53.740 4.964958
53.745 5.263789
53.750 5.403616
53.755 5.360053
53.760 4.945579
53.765 5.443264
53.770 5.273258
53.775 5.271024
53.780 4.999384
53.785 4.943323
53.790 5.490923
53.795 5.845876
53.800 5.446128
53.805 5.484377
53.810 5.214717
53.815 5.608417
53.820 5.821434
53.825 5.447631
53.830 5.455272
53.835 5.465959
53.840 5.264104
53.845 5.590253
53.850 5.370496
53.855 5.185615
53.860 5.250798
53.865 5.234521
53.870 5.572946
53.875 5.717459
53.880 5.403412
53.885 5.196939
53.890 5.259399
53.895 5.488313
53.900 5.568488
53.905 5.670875
53.910 6.065035
53.915 6.721102
53.920 6.704226
53.925 6.4746
53.930 6.488456
53.935 5.963151
53.940 5.54717
53.945 5.098783
53.950 4.529597
53.955 4.273219
53.960 4.023074
53.965 4.289308
53.970 4.576769
53.975 4.538624
53.980 4.671584
53.985 5.15043
53.990 5.475
53.995 5.655154
54.000 5.353986
54.005 5.485681
54.010 5.352362
54.015 5.173144
54.020 4.91027
54.025 4.690978
54.030 4.513075
54.035 4.34309
54.040 4.354394
54.045 4.35777
54.050 4.642824
54.055 4.675882
54.060 4.554287
54.065 4.675669
54.070 4.839119
54.075 5.076145
54.080 5.278364
54.085 5.238434
54.090 5.69016
54.095 5.921959
54.100 6.133653
54.105 6.009725
54.110 6.094492
54.115 5.877006
54.120 5.594936
54.125 5.524535
54.130 5.704463
54.135 5.419393
54.140 5.717437
54.145 5.608843
54.150 5.580027
54.155 5.792102
54.160 5.64762
54.165 5.591283
54.170 5.754595
54.175 5.764584
54.180 6.000489
54.185 6.196848
54.190 6.216226
54.195 5.935769
54.200 6.230086
54.205 6.280872
54.210 5.995687
54.215 6.028273
54.220 6.039916
54.225 5.951188
54.230 6.17429
54.235 6.34553
54.240 6.017572
54.245 5.977468
54.250 5.688519
54.255 5.574135
54.260 5.800064
54.265 5.157176
54.270 5.130942
54.275 5.126189
54.280 5.236777
54.285 5.38855
54.290 5.249694
54.295 5.149282
54.300 5.466174
54.305 5.27287
54.310 5.347704
54.315 5.271461
54.320 5.163158
54.325 5.180351
54.330 5.499676
54.335 5.579949
54.340 5.703722
54.345 5.870628
54.350 5.842041
54.355 6.174653
54.360 6.134603
54.365 5.969124
54.370 6.290489
54.375 6.164079
54.380 5.965317
54.385 5.80095
54.390 5.310266
54.395 5.339046
54.400 5.344305
54.405 4.862479
54.410 4.981979
54.415 5.217113
54.420 5.56188
54.425 5.8443
54.430 5.876966
54.435 5.766472
54.440 5.746905
54.445 5.648326
54.450 5.618893
54.455 5.644736
54.460 5.764658
54.465 5.411465
54.470 5.759371
54.475 6.126318
54.480 6.377855
54.485 6.28475
54.490 6.370608
54.495 6.609849
54.500 6.419933
54.505 6.037366
54.510 5.942637
54.515 5.991778
54.520 6.027281
54.525 5.648089
54.530 5.928849
54.535 6.380639
54.540 6.301934
54.545 6.046029
54.550 6.144436
54.555 6.149841
54.560 6.061264
54.565 5.71788
54.570 5.80242
54.575 6.261046
54.580 6.455208
54.585 6.097596
54.590 6.389942
54.595 6.74859
54.600 6.853577
54.605 6.761995
54.610 6.766729
54.615 6.637995
54.620 6.772258
54.625 6.68714
54.630 6.457497
54.635 6.215888
54.640 5.967731
54.645 5.922975
54.650 6.093401
54.655 5.827534
54.660 5.709489
54.665 5.599393
54.670 5.598976
54.675 5.524932
54.680 5.808399
54.685 5.920238
54.690 5.984013
54.695 5.908082
54.700 5.997106
54.705 5.934357
54.710 5.865109
54.715 5.274121
54.720 5.292098
54.725 5.281867
54.730 5.273996
54.735 5.354718
54.740 5.865821
54.745 6.27102
54.750 6.230695
54.755 6.052166
54.760 6.023088
54.765 6.155418
54.770 6.039497
54.775 5.747932
54.780 5.379336
54.785 5.543643
54.790 5.733901
54.795 5.986835
54.800 6.062181
54.805 5.908764
54.810 5.950358
54.815 6.090426
54.820 5.719742
54.825 5.555876
54.830 5.558041
54.835 5.626184
54.840 5.779552
54.845 5.544075
54.850 5.421563
54.855 5.56751
54.860 5.691559
54.865 5.628064
54.870 5.420933
54.875 5.613736
54.880 5.851105
54.885 5.862153
54.890 5.622595
54.895 5.268382
54.900 5.398909
54.905 5.458369
54.910 5.312706
54.915 5.294418
54.920 5.561237
54.925 5.885346
54.930 6.02196
54.935 6.312271
54.940 6.268904
54.945 5.968032
54.950 6.165698
54.955 5.934943
54.960 5.656116
54.965 5.439397
54.970 4.799403
54.975 4.956119
54.980 5.041565
54.985 5.138779
54.990 5.671181
54.995 5.649582
55.000 5.824952
55.005 5.811197
55.010 5.449445
55.015 5.321423
55.020 5.040358
55.025 4.895535
55.030 5.526977
55.035 5.73079
55.040 5.930977
55.045 6.257729
55.050 6.519587
55.055 6.435964
55.060 6.11417
55.065 5.580886
55.070 5.360909
55.075 5.197716
55.080 4.959989
55.085 4.810276
55.090 4.715602
55.095 5.046649
55.100 5.28695
55.105 5.466056
55.110 5.608258
55.115 5.558685
55.120 5.790444
55.125 5.994592
55.130 5.991726
55.135 5.664261
55.140 5.61254
55.145 5.44262
55.150 5.258269
55.155 5.043284
55.160 4.808772
55.165 5.037421
55.170 5.242563
55.175 5.419095
55.180 5.895408
55.185 6.285546
55.190 7.226162
55.195 7.462646
55.200 7.621763
55.205 7.712578
55.210 7.500431
55.215 7.204571
55.220 6.913806
55.225 6.579614
55.230 6.542276
55.235 6.485739
55.240 6.564314
55.245 6.722035
55.250 6.61833
55.255 6.739045
55.260 6.438164
55.265 6.461352
55.270 6.703732
55.275 6.647256
55.280 6.714796
55.285 6.824377
55.290 6.554258
55.295 6.704168
55.300 6.695323
55.305 6.325121
55.310 6.166475
55.315 6.170423
55.320 6.100992
55.325 6.122449
55.330 6.213711
55.335 5.865811
55.340 5.560797
55.345 5.460833
55.350 5.520501
55.355 5.995805
55.360 5.860902
55.365 5.496644
55.370 5.812243
55.375 5.825648
55.380 5.811833
55.385 5.759795
55.390 5.296152
55.395 5.278777
55.400 5.302606
55.405 5.151198
55.410 5.898994
55.415 6.143672
55.420 6.248952
55.425 6.541583
55.430 6.621223
55.435 6.699347
55.440 6.415231
55.445 6.010562
55.450 5.737318
55.455 5.426822
55.460 4.951199
55.465 4.79755
55.470 5.193685
55.475 5.369107
55.480 5.21719
55.485 5.556888
55.490 5.854314
55.495 6.708358
55.500 6.909281
55.505 6.804622
55.510 6.907494
55.515 6.852595
55.520 6.776731
55.525 6.507946
55.530 5.740871
55.535 5.772061
55.540 5.928007
55.545 6.04231
55.550 6.222851
55.555 6.480411
55.560 6.615162
55.565 6.62095
55.570 6.546844
55.575 6.509762
55.580 6.769888
55.585 6.531027
55.590 6.131137
55.595 6.415862
55.600 6.685408
55.605 6.21683
55.610 6.187796
55.615 6.389783
55.620 6.510333
55.625 6.692744
55.630 6.443543
55.635 6.508765
55.640 6.952816
55.645 6.98545
55.650 6.7943
55.655 6.714813
55.660 6.56135
55.665 6.723254
55.670 6.935752
55.675 6.904011
55.680 6.608193
55.685 6.436976
55.690 6.567378
55.695 6.960841
55.700 6.708881
55.705 6.642154
55.710 6.569843
55.715 6.491897
55.720 6.753771
55.725 6.894775
55.730 6.838767
55.735 7.191163
55.740 6.819242
55.745 6.723197
55.750 6.728531
55.755 6.376079
55.760 5.862894
55.765 5.667143
55.770 5.523649
55.775 5.747689
55.780 5.756164
55.785 5.525571
55.790 5.593175
55.795 5.731852
55.800 5.67904
55.805 5.871331
55.810 5.519555
55.815 5.692445
55.820 6.114713
55.825 6.362362
55.830 6.590474
55.835 6.541836
55.840 6.097063
55.845 6.530945
55.850 6.481268
55.855 6.177919
55.860 5.94417
55.865 5.735945
55.870 5.755938
55.875 6.115102
55.880 5.696408
55.885 5.576375
55.890 5.808937
55.895 5.936712
55.900 6.077035
55.905 6.087464
55.910 5.885695
55.915 6.048505
55.920 5.925694
55.925 5.949414
55.930 6.005482
55.935 5.743479
55.940 5.534542
55.945 5.846143
55.950 6.196043
55.955 6.294485
55.960 6.130952
55.965 6.045399
55.970 6.208758
55.975 6.218854
55.980 6.009409
55.985 5.826016
55.990 5.989189
55.995 5.957434
56.000 6.226656
56.005 6.385048
56.010 6.805465
56.015 6.707035
56.020 6.891555
56.025 7.015167
56.030 7.27481
56.035 7.276364
56.040 7.113748
56.045 7.031833
56.050 7.057867
56.055 7.135501
56.060 6.897752
56.065 6.998664
56.070 6.917522
56.075 7.103135
56.080 7.306579
56.085 7.106458
56.090 6.899152
56.095 6.689041
56.100 6.319866
56.105 6.445117
56.110 6.373309
56.115 6.544007
56.120 6.314682
56.125 6.134069
56.130 6.281519
56.135 6.593774
56.140 6.491497
56.145 5.679416
56.150 5.249457
56.155 5.611999
56.160 5.803991
56.165 5.8998
56.170 6.251706
56.175 6.524124
56.180 7.552687
56.185 8.006651
56.190 7.755388
56.195 7.630992
56.200 7.405796
56.205 7.22256
56.210 6.974576
56.215 6.222218
56.220 5.642242
56.225 5.947316
56.230 6.494932
56.235 6.614979
56.240 6.522065
56.245 6.675971
56.250 7.121837
56.255 7.447875
56.260 7.1181
56.265 6.620391
56.270 6.585931
56.275 6.495306
56.280 6.446739
56.285 6.720163
56.290 6.83234
56.295 7.344354
56.300 7.593833
56.305 7.335528
56.310 7.425995
56.315 7.562206
56.320 7.645066
56.325 7.707363
56.330 7.54712
56.335 7.685545
56.340 7.39704
56.345 7.138468
56.350 6.704959
56.355 6.355398
56.360 6.084246
56.365 5.606176
56.370 5.371109
56.375 5.533754
56.380 5.533001
56.385 5.580859
56.390 5.432855
56.395 5.823249
56.400 6.09598
56.405 6.602798
56.410 6.82814
56.415 6.849959
56.420 6.970919
56.425 6.97763
56.430 6.544667
56.435 6.429555
56.440 6.294079
56.445 6.103165
56.450 6.184416
56.455 6.37376
56.460 6.623472
56.465 6.380369
56.470 6.533279
56.475 6.626203
56.480 6.76598
56.485 6.595286
56.490 6.803541
56.495 6.924581
56.500 7.616196
56.505 7.256598
56.510 7.136665
56.515 6.933268
56.520 6.943009
56.525 6.994133
56.530 7.153097
56.535 6.967412
56.540 7.298748
56.545 7.544799
56.550 8.060609
56.555 8.131719
56.560 7.830923
56.565 7.75536
56.570 7.476806
56.575 7.191176
56.580 6.80197
56.585 6.586102
56.590 6.501369
56.595 6.389534
56.600 6.313179
56.605 6.710824
56.610 6.988791
56.615 7.301014
56.620 7.172761
56.625 7.077092
56.630 6.623483
56.635 6.261395
56.640 5.909343
56.645 5.701439
56.650 5.630069
56.655 5.455005
56.660 5.73281
56.665 6.247583
56.670 6.438914
56.675 6.491519
56.680 6.589747
56.685 6.70534
56.690 6.80287
56.695 6.957003
56.700 7.026071
56.705 7.167842
56.710 7.25715
56.715 7.346684
56.720 7.360363
56.725 7.169895
56.730 7.225436
56.735 7.438251
56.740 7.826174
56.745 8.050036
56.750 8.054351
56.755 8.164615
56.760 8.41922
56.765 8.190274
56.770 7.925304
56.775 7.522296
56.780 7.484193
56.785 7.675507
56.790 7.796215
56.795 7.722138
56.800 7.856818
56.805 7.925798
56.810 7.96257
56.815 7.626985
56.820 7.301244
56.825 7.006011
56.830 6.927367
56.835 7.059983
56.840 7.273759
56.845 7.002399
56.850 7.030878
56.855 7.110675
56.860 7.239735
56.865 7.265457
56.870 6.837303
56.875 6.520078
56.880 6.63651
56.885 6.501793
56.890 6.278105
56.895 6.183327
56.900 5.980339
56.905 6.112763
56.910 6.699393
56.915 7.112852
56.920 7.249102
56.925 7.323287
56.930 7.553276
56.935 7.829885
56.940 7.79803
56.945 7.490505
56.950 7.500435
56.955 7.93256
56.960 8.014177
56.965 7.635038
56.970 7.747421
56.975 7.771995
56.980 7.967128
56.985 7.591467
56.990 7.747897
56.995 7.963581
57.000 8.177959
57.005 7.932474
57.010 7.630814
57.015 7.346892
57.020 7.352856
57.025 7.111618
57.030 7.287106
57.035 7.350747
57.040 7.256169
57.045 7.445888
57.050 7.641041
57.055 7.538226
57.060 7.329775
57.065 7.16547
57.070 7.676661
57.075 7.617918
57.080 7.759289
57.085 7.798463
57.090 7.511094
57.095 7.499104
57.100 7.048027
57.105 6.910359
57.110 7.329476
57.115 7.301964
57.120 7.57881
57.125 7.81768
57.130 7.817018
57.135 8.196729
57.140 8.071482
57.145 7.964516
57.150 7.664369
57.155 7.558985
57.160 8.146821
57.165 7.981747
57.170 7.615809
57.175 7.494327
57.180 7.251171
57.185 7.255435
57.190 7.214097
57.195 7.21575
57.200 7.810969
57.205 7.901778
57.210 7.79115
57.215 8.155642
57.220 8.468204
57.225 8.615941
57.230 8.427711
57.235 8.032182
57.240 8.02382
57.245 8.292765
57.250 8.079022
57.255 8.02295
57.260 8.130738
57.265 8.409191
57.270 8.627884
57.275 9.261185
57.280 8.936757
57.285 9.073498
57.290 8.912264
57.295 8.489807
57.300 8.032878
57.305 8.031328
57.310 7.693416
57.315 8.076377
57.320 8.079092
57.325 8.340389
57.330 8.869501
57.335 9.170599
57.340 8.895133
57.345 8.406417
57.350 7.646323
57.355 7.162863
57.360 6.843359
57.365 6.729027
57.370 6.631875
57.375 6.753124
57.380 6.981132
57.385 7.078659
57.390 7.544497
57.395 7.870593
57.400 7.560935
57.405 7.270214
57.410 7.241828
57.415 7.394936
57.420 7.788517
57.425 7.30336
57.430 7.107421
57.435 7.088905
57.440 7.164185
57.445 7.582749
57.450 7.359856
57.455 6.88343
57.460 7.094676
57.465 7.208885
57.470 7.565145
57.475 7.948546
57.480 7.621894
57.485 7.87462
57.490 8.389454
57.495 8.691618
57.500 8.94768
57.505 8.408889
57.510 8.319688
57.515 8.616796
57.520 8.556354
57.525 8.544001
57.530 7.887534
57.535 7.467091
57.540 7.654055
57.545 7.596326
57.550 7.462486
57.555 7.604032
57.560 7.504817
57.565 7.592766
57.570 7.844873
57.575 7.431524
57.580 7.161664
57.585 7.277806
57.590 6.71827
57.595 6.806411
57.600 6.790654
57.605 6.639264
57.610 7.325619
57.615 7.781308
57.620 7.58278
57.625 8.01805
57.630 7.985196
57.635 7.660872
57.640 7.6783
57.645 7.322618
57.650 6.99616
57.655 6.97413
57.660 6.673669
57.665 6.785391
57.670 7.495407
57.675 7.1882
57.680 7.346213
57.685 7.704298
57.690 8.068735
57.695 7.978571
57.700 7.69119
57.705 7.692548
57.710 8.086611
57.715 8.050581
57.720 8.135368
57.725 8.439037
57.730 9.004745
57.735 9.081759
57.740 8.943727
57.745 8.960469
57.750 9.310477
57.755 9.261434
57.760 8.758492
57.765 8.687356
57.770 8.487064
57.775 8.792679
57.780 8.873018
57.785 8.630713
57.790 8.236184
57.795 8.282431
57.800 8.431935
57.805 8.879467
57.810 8.723536
57.815 8.613419
57.820 8.427714
57.825 8.757944
57.830 9.019783
57.835 8.732006
57.840 8.357871
57.845 8.210507
57.850 8.404671
57.855 8.457531
57.860 8.638625
57.865 8.721073
57.870 8.599854
57.875 8.580139
57.880 8.564826
57.885 8.238911
57.890 8.193565
57.895 8.074342
57.900 7.970377
57.905 8.255404
57.910 8.310912
57.915 8.281924
57.920 8.437503
57.925 8.39605
57.930 8.124534
57.935 7.960646
57.940 8.008109
57.945 8.043022
57.950 8.001915
57.955 7.982066
57.960 8.23114
57.965 8.134667
57.970 8.491074
57.975 8.500302
57.980 8.425175
57.985 8.036321
57.990 7.670844
57.995 7.901506
58.000 7.93034
58.005 7.733566
58.010 7.434642
58.015 7.902816
58.020 8.370554
58.025 8.314538
58.030 7.950615
58.035 8.05302
58.040 7.966756
58.045 7.960554
58.050 7.864442
58.055 7.938993
58.060 8.360602
58.065 8.4106
58.070 8.555768
58.075 8.749261
58.080 8.976867
58.085 9.18383
58.090 9.640506
58.095 9.618467
58.100 9.86723
58.105 9.816949
58.110 10.036618
58.115 9.80207
58.120 9.824423
58.125 9.666479
58.130 9.704165
58.135 9.96041
58.140 10.10042
58.145 9.967377
58.150 10.15698
58.155 9.844776
58.160 9.786628
58.165 10.118538
58.170 10.033413
58.175 10.039764
58.180 10.307012
58.185 10.311044
58.190 10.161098
58.195 10.34592
58.200 10.044624
58.205 9.983641
58.210 9.917841
58.215 9.881079
58.220 10.127477
58.225 10.579546
58.230 9.95313
58.235 9.724571
58.240 9.692948
58.245 9.933826
58.250 10.043925
58.255 9.666543
58.260 8.954423
58.265 9.137251
58.270 9.340567
58.275 9.353739
58.280 9.205054
58.285 9.052996
58.290 9.087328
58.295 9.401139
58.300 9.390849
58.305 9.489313
58.310 10.09537
58.315 10.133754
58.320 10.315778
58.325 10.73682
58.330 10.682765
58.335 10.966141
58.340 10.733921
58.345 10.346944
58.350 10.453421
58.355 10.43741
58.360 10.230159
58.365 10.709344
58.370 10.542409
58.375 10.449291
58.380 10.373821
58.385 10.673778
58.390 10.813395
58.395 11.488893
58.400 12.073261
58.405 12.468862
58.410 12.457144
58.415 12.616138
58.420 12.449839
58.425 12.474736
58.430 11.87072
58.435 11.046917
58.440 11.151505
58.445 11.181737
58.450 11.555699
58.455 12.020812
58.460 12.046878
58.465 12.697515
58.470 13.19428
58.475 13.261695
58.480 13.403718
58.485 13.161391
58.490 13.514367
58.495 13.626433
58.500 13.259279
58.505 13.685145
58.510 13.933835
58.515 14.586169
58.520 14.717669
58.525 14.254693
58.530 14.608542
58.535 14.941107
58.540 14.767864
58.545 15.047594
58.550 14.775492
58.555 15.42902
58.560 16.27021
58.565 16.634125
58.570 17.390177
58.575 18.238188
58.580 18.545029
58.585 18.817898
58.590 18.287121
58.595 18.604084
58.600 18.804338
58.605 18.514448
58.610 18.077766
58.615 18.306492
58.620 18.823473
58.625 18.678478
58.630 18.537786
58.635 18.329254
58.640 18.325701
58.645 18.84882
58.650 18.524275
58.655 18.26889
58.660 18.856676
58.665 19.023722
58.670 18.703386
58.675 19.134878
58.680 18.435987
58.685 18.099277
58.690 17.880028
58.695 17.838207
58.700 17.397421
58.705 17.538815
58.710 17.152884
58.715 16.954294
58.720 17.409052
58.725 17.454044
58.730 17.151522
58.735 17.324682
