!@!!GADDS PLOTSO FILE: Chi integration type
!@!!Title/SampleName: map-7e
!@!!Comment: ?
!@!!User: Bruker Instrument Administrator
!@!!Site: University of Illinois Chicago
!@!!Frame: map-7e_01_000.gfrm
!@!!Wavelengths    1.54184   1.54056   1.54439
!@!!Frame angles: 2Theta: 63.000 Omega: 50.000 Phi: 0.000 Chi: 90.000
!@!!Integration range: 2Theta: 53.000 to 73.000  Gamma: -105.000 to -75.000
!@!!Integration method: bin normalized
!@!N
!@!SS
!@!M
!@!L 0.0 0.0 0.0 0.0
!@!XDegrees
!@!YCounts
53.000 9.612648
53.005 8.962194
53.010 8.668339
53.015 8.445878
53.020 8.013342
53.025 7.627969
53.030 7.737162
53.035 7.710385
53.040 8.203681
53.045 8.35291
53.050 8.383111
53.055 8.714864
53.060 8.573079
53.065 8.671307
53.070 8.589783
53.075 8.514716
53.080 9.014594
53.085 9.179444
53.090 9.68277
53.095 10.421942
53.100 10.231141
53.105 10.186339
53.110 10.023354
53.115 9.942442
53.120 10.223633
53.125 9.844601
53.130 9.348558
53.135 9.5588
53.140 9.452834
53.145 9.728013
53.150 9.641897
53.155 9.349675
53.160 9.322095
53.165 9.605814
53.170 9.777823
53.175 9.691535
53.180 9.537365
53.185 9.141004
53.190 9.258172
53.195 9.376516
53.200 9.113857
53.205 8.921697
53.210 9.092094
53.215 9.030844
53.220 9.355565
53.225 9.466129
53.230 9.539807
53.235 9.716354
53.240 9.738695
53.245 9.723939
53.250 9.6339
53.255 9.370756
53.260 9.303983
53.265 9.461846
53.270 9.448426
53.275 9.420929
53.280 9.213104
53.285 9.588948
53.290 9.123488
53.295 8.791133
53.300 8.554554
53.305 8.512487
53.310 8.51966
53.315 8.433835
53.320 8.37371
53.325 9.127467
53.330 9.400746
53.335 9.278821
53.340 9.247989
53.345 8.825147
53.350 8.875016
53.355 9.237362
53.360 8.9559
53.365 9.123291
53.370 9.042766
53.375 9.507699
53.380 10.049619
53.385 10.111868
53.390 9.666922
53.395 9.499409
53.400 9.207582
53.405 9.254205
53.410 8.986624
53.415 8.887237
53.420 8.610154
53.425 8.644824
53.430 8.690767
53.435 9.259848
53.440 9.341825
53.445 9.738389
53.450 9.824174
53.455 10.127362
53.460 10.187283
53.465 10.270247
53.470 10.224048
53.475 10.590179
53.480 10.575488
53.485 10.751562
53.490 10.794979
53.495 11.293214
53.500 11.022136
53.505 10.790885
53.510 10.204317
53.515 9.830622
53.520 9.619568
53.525 10.024813
53.530 9.63793
53.535 9.410032
53.540 9.3145
53.545 9.438355
53.550 9.355047
53.555 9.191976
53.560 8.629541
53.565 8.607709
53.570 9.348737
53.575 9.634551
53.580 9.814947
53.585 10.05813
53.590 10.574035
53.595 10.50893
53.600 10.231943
53.605 9.692401
53.610 9.169098
53.615 9.109255
53.620 8.522764
53.625 8.068436
53.630 8.405255
53.635 8.948242
53.640 9.483038
53.645 9.974994
53.650 10.169896
53.655 10.47086
53.660 10.352136
53.665 9.695905
53.670 9.271714
53.675 9.011158
53.680 8.712104
53.685 8.571851
53.690 8.55203
53.695 8.541667
53.700 9.124968
53.705 9.323269
53.710 9.347707
53.715 9.831048
53.720 10.228136
53.725 10.312039
53.730 10.894569
53.735 10.664815
53.740 11.011212
53.745 10.476474
53.750 10.108607
53.755 10.190548
53.760 10.245729
53.765 10.047499
53.770 10.046878
53.775 9.997655
53.780 10.881898
53.785 11.163244
53.790 10.774412
53.795 10.517609
53.800 10.811935
53.805 10.747571
53.810 11.198051
53.815 10.561574
53.820 10.311394
53.825 10.668663
53.830 11.224524
53.835 10.905886
53.840 10.307494
53.845 9.783957
53.850 9.875494
53.855 10.043081
53.860 10.165097
53.865 9.574843
53.870 9.923827
53.875 9.95114
53.880 10.003345
53.885 9.940747
53.890 9.418762
53.895 9.630418
53.900 10.159141
53.905 10.660632
53.910 10.712547
53.915 10.427446
53.920 10.307981
53.925 10.532476
53.930 10.134305
53.935 10.057061
53.940 9.750006
53.945 10.374328
53.950 10.985736
53.955 11.082857
53.960 11.080446
53.965 10.577482
53.970 10.237425
53.975 9.865247
53.980 9.279398
53.985 9.260663
53.990 9.619654
53.995 10.045527
54.000 10.36592
54.005 10.142721
54.010 10.005524
54.015 9.87266
54.020 10.027779
54.025 9.582989
54.030 9.393788
54.035 9.713888
54.040 10.343449
54.045 10.710149
54.050 10.603749
54.055 10.412762
54.060 10.499502
54.065 10.336722
54.070 10.11142
54.075 9.868499
54.080 10.288872
54.085 10.23206
54.090 10.330369
54.095 10.695653
54.100 10.211185
54.105 10.394535
54.110 10.091
54.115 10.039043
54.120 10.368112
54.125 10.313567
54.130 9.875112
54.135 9.690471
54.140 9.753642
54.145 9.947846
54.150 9.62805
54.155 9.576988
54.160 9.438554
54.165 9.982634
54.170 10.535379
54.175 10.34284
54.180 10.402251
54.185 10.83981
54.190 10.580501
54.195 10.911285
54.200 11.441778
54.205 11.878957
54.210 12.234403
54.215 12.029023
54.220 11.922326
54.225 12.03387
54.230 11.494202
54.235 10.94888
54.240 10.643653
54.245 10.651253
54.250 10.585303
54.255 10.334824
54.260 10.118333
54.265 9.83906
54.270 9.499456
54.275 9.344197
54.280 9.357453
54.285 9.721273
54.290 9.986671
54.295 10.29532
54.300 10.818465
54.305 11.290882
54.310 11.294477
54.315 10.860675
54.320 10.582594
54.325 11.033607
54.330 10.884763
54.335 10.518468
54.340 10.25475
54.345 10.381156
54.350 10.836794
54.355 10.850833
54.360 10.82539
54.365 11.168437
54.370 11.899847
54.375 11.955267
54.380 11.784077
54.385 11.200107
54.390 10.898129
54.395 10.496329
54.400 10.637892
54.405 10.37473
54.410 10.657462
54.415 10.957606
54.420 11.161705
54.425 11.41926
54.430 11.373353
54.435 10.949151
54.440 10.695805
54.445 10.267381
54.450 9.945036
54.455 9.961423
54.460 10.292467
54.465 10.123349
54.470 9.570304
54.475 9.505995
54.480 9.493741
54.485 9.495004
54.490 9.13092
54.495 8.896127
54.500 8.899459
54.505 9.475943
54.510 9.843239
54.515 10.449945
54.520 10.644872
54.525 11.05416
54.530 11.197646
54.535 11.553054
54.540 11.800248
54.545 11.857806
54.550 11.798722
54.555 11.52735
54.560 11.170211
54.565 11.157764
54.570 10.597572
54.575 9.794147
54.580 9.820712
54.585 9.937126
54.590 10.481973
54.595 10.477139
54.600 10.446491
54.605 11.373924
54.610 11.809259
54.615 11.483671
54.620 11.540213
54.625 10.963138
54.630 10.868537
54.635 10.552308
54.640 10.011035
54.645 9.861064
54.650 9.794834
54.655 9.853619
54.660 10.096668
54.665 10.413002
54.670 10.51876
54.675 10.595046
54.680 10.790402
54.685 11.092038
54.690 11.353522
54.695 11.208163
54.700 11.136849
54.705 11.105671
54.710 11.351498
54.715 11.537031
54.720 11.306233
54.725 11.356133
54.730 11.307739
54.735 11.305145
54.740 11.528813
54.745 11.34895
54.750 11.460487
54.755 11.194813
54.760 11.238544
54.765 11.562555
54.770 11.328737
54.775 11.434235
54.780 11.308499
54.785 10.527785
54.790 10.428963
54.795 10.582073
54.800 10.467749
54.805 10.657463
54.810 10.355191
54.815 10.55726
54.820 11.397724
54.825 11.988115
54.830 11.803817
54.835 11.511344
54.840 11.330607
54.845 11.745936
54.850 12.143898
54.855 12.309348
54.860 12.318007
54.865 12.425691
54.870 12.520238
54.875 12.908807
54.880 12.340958
54.885 11.469051
54.890 11.024199
54.895 10.558579
54.900 10.377921
54.905 10.257248
54.910 10.091442
54.915 10.006496
54.920 10.323259
54.925 10.661941
54.930 11.071856
54.935 11.423836
54.940 11.539116
54.945 11.259466
54.950 11.94874
54.955 12.071651
54.960 11.888454
54.965 11.659705
54.970 11.497873
54.975 11.526337
54.980 11.69008
54.985 11.446935
54.990 11.309855
54.995 11.263779
55.000 11.233206
55.005 11.230721
55.010 11.320374
55.015 11.5014
55.020 11.387789
55.025 11.384314
55.030 11.49038
55.035 11.503614
55.040 11.674745
55.045 11.88154
55.050 11.695422
55.055 11.659218
55.060 11.947863
55.065 11.724136
55.070 11.767823
55.075 11.99544
55.080 11.342237
55.085 10.985473
55.090 10.847165
55.095 10.428047
55.100 10.691043
55.105 10.518772
55.110 10.161913
55.115 10.362143
55.120 10.671898
55.125 10.935709
55.130 11.248644
55.135 10.997613
55.140 11.080699
55.145 11.483819
55.150 11.630611
55.155 11.142065
55.160 11.091125
55.165 10.745847
55.170 11.037877
55.175 11.125723
55.180 11.016194
55.185 11.262418
55.190 11.814737
55.195 11.819298
55.200 12.213756
55.205 11.950159
55.210 11.935922
55.215 11.723708
55.220 11.706779
55.225 11.509276
55.230 11.303843
55.235 11.050892
55.240 11.424566
55.245 11.643229
55.250 11.47637
55.255 11.750872
55.260 11.654681
55.265 11.538363
55.270 11.770033
55.275 11.65794
55.280 11.44183
55.285 11.297417
55.290 10.884815
55.295 11.121339
55.300 11.309749
55.305 11.175616
55.310 11.129024
55.315 11.255437
55.320 11.521185
55.325 11.844109
55.330 12.066698
55.335 11.860065
55.340 12.011275
55.345 12.463178
55.350 12.572036
55.355 12.110116
55.360 11.333527
55.365 11.285179
55.370 11.722063
55.375 11.771419
55.380 11.214901
55.385 10.975965
55.390 11.5061
55.395 12.360244
55.400 12.407861
55.405 11.722599
55.410 11.635678
55.415 11.798223
55.420 12.210461
55.425 11.755356
55.430 11.228521
55.435 11.087653
55.440 11.280334
55.445 11.298507
55.450 11.248629
55.455 10.682206
55.460 10.686504
55.465 10.877438
55.470 11.463469
55.475 11.431438
55.480 11.094185
55.485 11.140367
55.490 11.486118
55.495 11.492229
55.500 11.16293
55.505 10.729818
55.510 10.622315
55.515 10.943284
55.520 11.318273
55.525 11.597729
55.530 12.180887
55.535 12.332432
55.540 12.512489
55.545 12.47155
55.550 12.416478
55.555 12.554626
55.560 12.554379
55.565 12.742665
55.570 12.560705
55.575 12.615253
55.580 12.755495
55.585 13.143017
55.590 12.970474
55.595 12.824621
55.600 12.486124
55.605 12.689144
55.610 12.652669
55.615 12.513342
55.620 11.953283
55.625 11.671088
55.630 11.25652
55.635 11.749167
55.640 11.749196
55.645 11.677753
55.650 11.884315
55.655 11.925014
55.660 12.397285
55.665 12.494026
55.670 11.80861
55.675 11.765974
55.680 11.694824
55.685 11.52372
55.690 11.230329
55.695 11.027705
55.700 10.848133
55.705 10.637253
55.710 10.687067
55.715 10.572621
55.720 10.886783
55.725 11.127629
55.730 11.141154
55.735 11.144398
55.740 11.681577
55.745 11.850955
55.750 12.256065
55.755 12.227978
55.760 12.244697
55.765 12.122541
55.770 12.148803
55.775 11.793461
55.780 11.325845
55.785 11.336029
55.790 11.43308
55.795 11.52854
55.800 12.156528
55.805 13.024528
55.810 13.203423
55.815 13.414229
55.820 13.38961
55.825 13.052241
55.830 13.526768
55.835 13.245594
55.840 12.868985
55.845 13.116202
55.850 13.25146
55.855 13.215919
55.860 13.161695
55.865 12.816198
55.870 12.486941
55.875 12.301485
55.880 12.266878
55.885 12.386635
55.890 12.792747
55.895 12.906946
55.900 12.781255
55.905 13.147575
55.910 13.299128
55.915 13.156048
55.920 13.197258
55.925 13.430451
55.930 13.259653
55.935 13.214836
55.940 12.975968
55.945 13.295062
55.950 13.41259
55.955 13.029637
55.960 12.848561
55.965 13.069821
55.970 13.420141
55.975 13.3368
55.980 12.683948
55.985 12.444315
55.990 12.1886
55.995 12.014923
56.000 11.64764
56.005 11.337881
56.010 11.364222
56.015 11.920834
56.020 12.0034
56.025 11.869184
56.030 11.783714
56.035 11.979582
56.040 12.352791
56.045 12.053027
56.050 12.00662
56.055 12.562749
56.060 12.619928
56.065 12.774005
56.070 12.637655
56.075 12.555852
56.080 13.224421
56.085 13.019279
56.090 12.440485
56.095 12.542571
56.100 12.426172
56.105 12.443275
56.110 12.262403
56.115 11.688042
56.120 12.007978
56.125 12.300948
56.130 12.000303
56.135 12.100054
56.140 12.549709
56.145 13.315689
56.150 13.694086
56.155 13.71048
56.160 13.397561
56.165 13.504474
56.170 13.659869
56.175 12.910656
56.180 12.070578
56.185 11.783865
56.190 11.476249
56.195 11.728614
56.200 11.69654
56.205 11.592553
56.210 11.869423
56.215 11.785684
56.220 11.768673
56.225 12.329567
56.230 12.471024
56.235 12.790997
56.240 13.276042
56.245 14.401231
56.250 15.057847
56.255 14.768779
56.260 14.582794
56.265 14.960029
56.270 14.715696
56.275 14.113754
56.280 12.82665
56.285 12.614296
56.290 12.861418
56.295 12.763477
56.300 12.685958
56.305 12.633066
56.310 12.460987
56.315 13.117982
56.320 13.100832
56.325 12.735234
56.330 12.159285
56.335 12.139371
56.340 12.545222
56.345 12.215999
56.350 11.893188
56.355 11.841531
56.360 11.89745
56.365 12.014216
56.370 11.295634
56.375 11.171716
56.380 11.216104
56.385 11.001486
56.390 11.28157
56.395 11.894265
56.400 12.450626
56.405 12.787581
56.410 13.077423
56.415 13.304318
56.420 13.101937
56.425 12.902431
56.430 12.628362
56.435 11.849571
56.440 12.030604
56.445 11.715553
56.450 11.80174
56.455 11.610462
56.460 11.480488
56.465 11.541946
56.470 11.703509
56.475 11.843092
56.480 12.033529
56.485 12.519043
56.490 13.84166
56.495 14.319077
56.500 14.451055
56.505 14.877172
56.510 14.610926
56.515 14.572513
56.520 14.489848
56.525 13.67254
56.530 13.345189
56.535 13.179895
56.540 13.487701
56.545 13.35471
56.550 13.298822
56.555 13.690378
56.560 14.199844
56.565 14.501818
56.570 14.578686
56.575 14.50947
56.580 14.89001
56.585 14.586269
56.590 14.192469
56.595 13.552467
56.600 13.071294
56.605 13.137643
56.610 12.864827
56.615 12.871816
56.620 12.843264
56.625 12.744363
56.630 12.692852
56.635 13.166936
56.640 13.106828
56.645 12.859765
56.650 12.581329
56.655 12.80376
56.660 13.275228
56.665 13.532944
56.670 13.261689
56.675 13.262754
56.680 13.955731
56.685 14.585224
56.690 14.576571
56.695 13.924747
56.700 14.425229
56.705 14.556764
56.710 14.69277
56.715 14.439905
56.720 14.207275
56.725 13.860307
56.730 13.753509
56.735 13.538513
56.740 13.756575
56.745 13.978844
56.750 14.372198
56.755 14.08263
56.760 14.290614
56.765 14.170293
56.770 14.151759
56.775 13.764788
56.780 13.436386
56.785 13.115566
56.790 12.751488
56.795 12.491223
56.800 12.5681
56.805 12.40661
56.810 12.338673
56.815 12.012354
56.820 11.812128
56.825 12.479278
56.830 12.694875
56.835 12.646612
56.840 12.744325
56.845 13.202994
56.850 13.424712
56.855 13.446525
56.860 13.405568
56.865 13.673438
56.870 14.298694
56.875 14.349473
56.880 13.98102
56.885 13.663457
56.890 13.529578
56.895 12.862042
56.900 12.345952
56.905 12.177992
56.910 12.182217
56.915 12.420732
56.920 12.886753
56.925 13.59695
56.930 14.613895
56.935 15.216508
56.940 14.860862
56.945 14.713016
56.950 14.35067
56.955 14.145837
56.960 13.844443
56.965 13.155106
56.970 12.8873
56.975 12.980887
56.980 13.026419
56.985 13.15579
56.990 13.167699
56.995 13.28147
57.000 13.117746
57.005 13.376841
57.010 13.573617
57.015 13.51615
57.020 13.333309
57.025 13.123217
57.030 13.417126
57.035 13.224698
57.040 12.831818
57.045 12.898742
57.050 13.7054
57.055 14.383472
57.060 14.408607
57.065 14.400712
57.070 14.630316
57.075 14.812394
57.080 14.252761
57.085 13.56487
57.090 13.157523
57.095 13.278705
57.100 13.47469
57.105 13.330287
57.110 13.081533
57.115 12.780922
57.120 12.179131
57.125 12.243917
57.130 12.440581
57.135 12.094209
57.140 12.508692
57.145 12.890096
57.150 12.907047
57.155 13.334872
57.160 13.361695
57.165 13.222344
57.170 13.353268
57.175 13.853256
57.180 13.789306
57.185 14.620799
57.190 14.891261
57.195 14.799389
57.200 14.824289
57.205 14.993255
57.210 14.637876
57.215 14.653046
57.220 13.877273
57.225 13.330494
57.230 13.543308
57.235 13.231202
57.240 12.628922
57.245 12.422145
57.250 12.807037
57.255 13.365149
57.260 13.958886
57.265 13.962311
57.270 14.621197
57.275 14.992751
57.280 15.085311
57.285 14.870037
57.290 15.010201
57.295 15.106932
57.300 14.997483
57.305 14.726471
57.310 14.766433
57.315 14.362222
57.320 14.234935
57.325 14.189428
57.330 14.572109
57.335 15.114733
57.340 15.150612
57.345 15.06034
57.350 14.929245
57.355 14.451017
57.360 14.211016
57.365 13.852277
57.370 13.331491
57.375 13.568256
57.380 13.61149
57.385 13.980383
57.390 14.508913
57.395 14.552496
57.400 14.698749
57.405 14.930464
57.410 15.200431
57.415 15.148458
57.420 14.519955
57.425 14.511323
57.430 14.422345
57.435 14.146007
57.440 14.378346
57.445 14.440353
57.450 14.510857
57.455 14.649497
57.460 14.480473
57.465 14.671773
57.470 14.827398
57.475 14.307215
57.480 13.883195
57.485 14.551211
57.490 15.070663
57.495 15.311459
57.500 15.091865
57.505 14.953051
57.510 14.93951
57.515 14.443866
57.520 14.047946
57.525 13.770501
57.530 13.316658
57.535 13.622748
57.540 13.651242
57.545 13.481149
57.550 14.081424
57.555 14.293287
57.560 14.652049
57.565 14.67142
57.570 14.494088
57.575 14.589936
57.580 14.598719
57.585 14.389608
57.590 14.162109
57.595 14.218422
57.600 14.22956
57.605 13.756914
57.610 13.837019
57.615 14.282876
57.620 14.132461
57.625 14.076118
57.630 14.239239
57.635 14.199031
57.640 14.452744
57.645 14.506952
57.650 13.906859
57.655 14.601207
57.660 14.596541
57.665 14.015935
57.670 13.946109
57.675 14.073496
57.680 13.824725
57.685 13.757777
57.690 13.936455
57.695 14.408928
57.700 15.087257
57.705 15.21314
57.710 14.606373
57.715 14.591991
57.720 14.597845
57.725 14.250415
57.730 13.717646
57.735 13.402514
57.740 12.994242
57.745 12.982093
57.750 13.130217
57.755 13.190789
57.760 13.513799
57.765 13.778305
57.770 13.546185
57.775 13.970753
57.780 14.966749
57.785 15.177201
57.790 15.191412
57.795 14.573625
57.800 14.739088
57.805 14.715394
57.810 14.703886
57.815 14.3587
57.820 14.384064
57.825 14.583911
57.830 14.734098
57.835 14.600366
57.840 14.618548
57.845 14.03382
57.850 13.751354
57.855 13.136327
57.860 12.936921
57.865 12.991672
57.870 12.998577
57.875 13.409957
57.880 14.138489
57.885 14.841083
57.890 15.221557
57.895 15.252316
57.900 15.407986
57.905 15.957726
57.910 15.804469
57.915 15.447002
57.920 15.2606
57.925 15.391395
57.930 15.248225
57.935 14.999337
57.940 14.198997
57.945 13.778784
57.950 13.833272
57.955 13.567456
57.960 13.960676
57.965 14.205371
57.970 14.173206
57.975 14.488074
57.980 14.550021
57.985 14.388419
57.990 14.614156
57.995 14.545385
58.000 14.6426
58.005 14.718127
58.010 14.83652
58.015 14.531687
58.020 14.813715
58.025 14.520936
58.030 14.278673
58.035 14.630992
58.040 14.531509
58.045 14.729379
58.050 15.237803
58.055 15.13612
58.060 14.587446
58.065 14.392713
58.070 13.878816
58.075 13.821803
58.080 14.159398
58.085 14.054659
58.090 14.223633
58.095 14.69358
58.100 14.923191
58.105 15.370893
58.110 15.349345
58.115 14.982911
58.120 15.061032
58.125 14.768527
58.130 14.503056
58.135 14.445248
58.140 13.795104
58.145 13.619824
58.150 14.127488
58.155 14.423582
58.160 14.364755
58.165 14.541415
58.170 14.604142
58.175 15.020082
58.180 15.646933
58.185 14.89655
58.190 15.039629
58.195 15.172369
58.200 14.816715
58.205 15.12922
58.210 15.037289
58.215 14.989249
58.220 15.209984
58.225 15.175362
58.230 15.653859
58.235 15.498534
58.240 15.209395
58.245 14.987734
58.250 14.367817
58.255 14.566377
58.260 14.455745
58.265 14.003823
58.270 14.127629
58.275 14.036016
58.280 14.131083
58.285 14.552348
58.290 14.158263
58.295 13.99446
58.300 14.716334
58.305 14.67389
58.310 14.708977
58.315 14.950567
58.320 14.733639
58.325 15.089775
58.330 14.99514
58.335 14.870563
58.340 14.953308
58.345 15.162416
58.350 15.075151
58.355 14.830862
58.360 14.234074
58.365 14.264471
58.370 14.66124
58.375 15.239783
58.380 15.425282
58.385 16.076267
58.390 16.455141
58.395 16.369871
58.400 15.488001
58.405 14.243044
58.410 13.767525
58.415 12.876432
58.420 11.839835
58.425 11.977329
58.430 12.250079
58.435 12.96952
58.440 13.397851
58.445 13.754915
58.450 14.432387
58.455 14.366385
58.460 14.1856
58.465 14.678352
58.470 14.84166
58.475 14.854984
58.480 14.982611
58.485 15.281987
58.490 16.291922
