!@!!GADDS PLOTSO FILE: Chi integration type
!@!!Title/SampleName: map-bd
!@!!Comment: ?
!@!!User: Bruker Instrument Administrator
!@!!Site: University of Illinois Chicago
!@!!Frame: map-bd_01_000.gfrm
!@!!Wavelengths    1.54184   1.54056   1.54439
!@!!Frame angles: 2Theta: 63.000 Omega: 50.000 Phi: 0.000 Chi: 90.000
!@!!Integration range: 2Theta: 53.000 to 73.000  Gamma: -105.000 to -75.000
!@!!Integration method: bin normalized
!@!N
!@!SS
!@!M
!@!L 0.0 0.0 0.0 0.0
!@!XDegrees
!@!YCounts
53.000 7.197967
53.005 7.839538
53.010 8.367504
53.015 8.495353
53.020 8.548854
53.025 8.577722
53.030 8.523754
53.035 8.667165
53.040 8.552033
53.045 8.427021
53.050 8.199631
53.055 8.016279
53.060 7.788518
53.065 7.826571
53.070 7.746193
53.075 7.670505
53.080 7.656466
53.085 7.801533
53.090 7.691794
53.095 7.761947
53.100 7.58425
53.105 7.778934
53.110 7.800733
53.115 7.924577
53.120 7.762837
53.125 7.775773
53.130 7.986313
53.135 7.553676
53.140 7.321314
53.145 6.917069
53.150 7.175408
53.155 7.26627
53.160 7.281983
53.165 7.560846
53.170 8.110407
53.175 8.283907
53.180 8.61667
53.185 8.851175
53.190 8.825635
53.195 8.319416
53.200 7.926764
53.205 7.856596
53.210 7.82063
53.215 7.390851
53.220 7.411708
53.225 7.832705
53.230 7.97159
53.235 8.0307
53.240 7.725123
53.245 7.953025
53.250 8.413009
53.255 8.201315
53.260 8.031466
53.265 7.935943
53.270 7.906033
53.275 7.812291
53.280 7.672616
53.285 7.818244
53.290 7.635854
53.295 7.744358
53.300 7.959142
53.305 8.033976
53.310 8.088484
53.315 7.898253
53.320 7.794732
53.325 7.885117
53.330 7.583369
53.335 7.371836
53.340 6.982551
53.345 6.928972
53.350 6.618605
53.355 6.464828
53.360 6.727953
53.365 6.915614
53.370 7.113674
53.375 7.547335
53.380 7.51386
53.385 8.071287
53.390 8.311815
53.395 8.215098
53.400 8.24423
53.405 8.074449
53.410 7.751129
53.415 7.573551
53.420 7.549345
53.425 7.390988
53.430 7.142046
53.435 6.950052
53.440 7.003898
53.445 7.772481
53.450 8.21736
53.455 8.301279
53.460 8.279074
53.465 8.641897
53.470 8.961558
53.475 8.979998
53.480 8.772987
53.485 8.285239
53.490 8.66775
53.495 9.111803
53.500 9.291986
53.505 8.955585
53.510 8.713867
53.515 8.76655
53.520 9.202683
53.525 8.978063
53.530 8.61439
53.535 8.531387
53.540 8.729607
53.545 8.908046
53.550 8.84831
53.555 8.471013
53.560 8.43227
53.565 8.192156
53.570 8.194683
53.575 8.154839
53.580 8.456267
53.585 8.505085
53.590 8.287259
53.595 8.209789
53.600 8.395427
53.605 8.558368
53.610 8.58373
53.615 8.424868
53.620 8.512036
53.625 8.62099
53.630 8.772583
53.635 8.714302
53.640 8.562754
53.645 8.454818
53.650 8.64682
53.655 8.58808
53.660 8.54539
53.665 9.047009
53.670 9.261121
53.675 9.239305
53.680 8.855131
53.685 8.638983
53.690 8.863462
53.695 8.711448
53.700 8.206143
53.705 8.259313
53.710 8.296196
53.715 8.110578
53.720 7.743989
53.725 7.590174
53.730 7.745524
53.735 7.712885
53.740 7.538492
53.745 7.737012
53.750 7.91958
53.755 8.347532
53.760 8.318642
53.765 8.167678
53.770 8.266184
53.775 8.210922
53.780 8.279748
53.785 8.72318
53.790 8.451786
53.795 8.952532
53.800 9.507978
53.805 9.865455
53.810 10.268402
53.815 10.2105
53.820 9.998957
53.825 10.224225
53.830 9.916657
53.835 9.390907
53.840 8.686603
53.845 8.238703
53.850 8.184674
53.855 7.99346
53.860 7.700279
53.865 7.641312
53.870 8.093138
53.875 8.293633
53.880 8.186396
53.885 7.946038
53.890 7.864271
53.895 7.788181
53.900 7.902572
53.905 7.891508
53.910 7.97871
53.915 8.397067
53.920 8.427462
53.925 8.385679
53.930 8.492494
53.935 8.514953
53.940 8.394073
53.945 8.217074
53.950 8.34863
53.955 8.318027
53.960 8.399079
53.965 8.437564
53.970 8.29673
53.975 8.414129
53.980 8.596311
53.985 8.589663
53.990 8.638697
53.995 8.71502
54.000 8.292165
54.005 8.295007
54.010 8.271995
54.015 7.882727
54.020 7.922469
54.025 7.918603
54.030 8.144573
54.035 8.567493
54.040 8.290466
54.045 8.141655
54.050 8.482607
54.055 8.544077
54.060 8.420695
54.065 8.579852
54.070 8.418353
54.075 8.774559
54.080 9.292059
54.085 9.051862
54.090 8.800168
54.095 8.883818
54.100 8.708871
54.105 8.908699
54.110 8.827977
54.115 8.501767
54.120 8.521412
54.125 8.531939
54.130 7.910012
54.135 7.974167
54.140 7.878278
54.145 8.006521
54.150 7.89407
54.155 7.971757
54.160 7.909261
54.165 8.325207
54.170 8.313813
54.175 8.430763
54.180 8.644181
54.185 8.693229
54.190 9.048289
54.195 9.522846
54.200 9.82238
54.205 9.26836
54.210 8.70994
54.215 8.627879
54.220 8.455941
54.225 8.269207
54.230 8.160312
54.235 8.551829
54.240 9.132664
54.245 9.156557
54.250 9.202525
54.255 9.664505
54.260 9.801974
54.265 9.23158
54.270 8.898546
54.275 8.618196
54.280 8.740665
54.285 8.539293
54.290 8.396673
54.295 8.604537
54.300 8.460889
54.305 8.827262
54.310 9.113372
54.315 9.040537
54.320 8.961185
54.325 8.941088
54.330 9.228011
54.335 10.117785
54.340 9.976364
54.345 9.936787
54.350 9.916379
54.355 10.018372
54.360 10.177505
54.365 9.779729
54.370 9.432236
54.375 9.613245
54.380 9.905005
54.385 10.157316
54.390 9.748355
54.395 9.576396
54.400 9.199725
54.405 8.873951
54.410 8.874311
54.415 8.53935
54.420 8.400621
54.425 8.397046
54.430 8.227494
54.435 8.380587
54.440 8.300095
54.445 8.010478
54.450 7.946666
54.455 7.981762
54.460 7.934426
54.465 8.177168
54.470 8.510001
54.475 8.905021
54.480 9.078429
54.485 8.802691
54.490 8.55107
54.495 8.929231
54.500 8.941684
54.505 8.88731
54.510 8.472219
54.515 8.636685
54.520 9.080787
54.525 8.989767
54.530 8.97672
54.535 8.719666
54.540 8.601318
54.545 8.442304
54.550 8.375061
54.555 8.589808
54.560 8.62668
54.565 8.468569
54.570 8.482486
54.575 8.559969
54.580 8.788937
54.585 8.642826
54.590 8.711861
54.595 8.729981
54.600 8.85277
54.605 9.092946
54.610 9.512741
54.615 9.689731
54.620 9.8456
54.625 9.716872
54.630 9.612553
54.635 9.768166
54.640 9.451998
54.645 9.107575
54.650 8.852897
54.655 8.949163
54.660 9.390479
54.665 9.970516
54.670 10.372398
54.675 10.61177
54.680 10.664387
54.685 10.536022
54.690 10.395216
54.695 10.305875
54.700 9.765533
54.705 9.635986
54.710 9.304381
54.715 9.075481
54.720 9.205314
54.725 8.66497
54.730 8.751337
54.735 8.523578
54.740 8.44633
54.745 8.582028
54.750 8.622987
54.755 8.938887
54.760 9.16629
54.765 9.277904
54.770 9.555564
54.775 9.797277
54.780 10.089956
54.785 10.318472
54.790 9.925051
54.795 9.86593
54.800 9.511519
54.805 9.066157
54.810 9.396559
54.815 9.492147
54.820 8.904646
54.825 9.360839
54.830 9.396078
54.835 9.687745
54.840 9.712019
54.845 9.15211
54.850 9.120904
54.855 9.521995
54.860 9.47935
54.865 9.664192
54.870 9.726389
54.875 9.811661
54.880 10.214983
54.885 10.212336
54.890 10.361732
54.895 10.281359
54.900 9.825011
54.905 9.408778
54.910 9.573786
54.915 9.608722
54.920 9.34022
54.925 9.084367
54.930 9.504938
54.935 9.686653
54.940 9.843616
54.945 9.404736
54.950 9.340841
54.955 9.340473
54.960 9.259849
54.965 8.758937
54.970 8.882711
54.975 8.854559
54.980 9.138192
54.985 9.311607
54.990 9.745436
54.995 10.170672
55.000 10.47389
55.005 10.882293
55.010 10.888371
55.015 10.3358
55.020 9.767866
55.025 9.434098
55.030 8.957067
55.035 8.653441
55.040 7.836636
55.045 8.290836
55.050 9.090817
55.055 9.323899
55.060 9.293355
55.065 9.233143
55.070 9.29447
55.075 9.706964
55.080 9.790108
55.085 10.217178
55.090 10.464938
55.095 10.53339
55.100 10.658355
55.105 11.055071
55.110 11.110099
55.115 10.699148
55.120 9.952101
55.125 10.035535
55.130 9.972413
55.135 10.11495
55.140 9.959144
55.145 10.141882
55.150 10.586439
55.155 10.871658
55.160 10.886522
55.165 11.041265
55.170 10.997472
55.175 10.963619
55.180 10.1197
55.185 9.745026
55.190 9.92273
55.195 10.262676
55.200 10.653363
55.205 10.764477
55.210 11.105244
55.215 11.563747
55.220 11.407554
55.225 10.997034
55.230 10.517032
55.235 10.245206
55.240 10.022705
55.245 9.819268
55.250 9.783787
55.255 9.585363
55.260 9.836382
55.265 10.248027
55.270 10.467873
55.275 10.575305
55.280 10.385306
55.285 10.401576
55.290 10.866838
55.295 10.736044
55.300 10.452352
55.305 10.185644
55.310 10.12458
55.315 10.438056
55.320 10.578354
55.325 10.558422
55.330 10.89215
55.335 11.043579
55.340 11.132976
55.345 11.012183
55.350 10.44367
55.355 10.109636
55.360 10.22196
55.365 9.662568
55.370 9.016146
55.375 8.841957
55.380 8.859765
55.385 9.053853
55.390 9.221688
55.395 9.018774
55.400 8.897785
55.405 9.023495
55.410 8.94343
55.415 9.073322
55.420 9.083168
55.425 8.855519
55.430 8.578645
55.435 8.632751
55.440 8.786889
55.445 8.918795
55.450 8.730788
55.455 8.909455
55.460 9.044662
55.465 9.613318
55.470 9.617128
55.475 9.837168
55.480 9.949071
55.485 9.986275
55.490 9.786784
55.495 9.613508
55.500 9.67642
55.505 10.462817
55.510 10.65608
55.515 10.366082
55.520 10.415279
55.525 10.38997
55.530 10.440675
55.535 10.241118
55.540 9.800185
55.545 9.396836
55.550 10.031914
55.555 10.272536
55.560 10.248652
55.565 10.368005
55.570 10.420736
55.575 10.337219
55.580 10.284844
55.585 9.970192
55.590 10.016488
55.595 10.193394
55.600 9.775783
55.605 10.054315
55.610 10.148274
55.615 10.227553
55.620 10.25984
55.625 10.30019
55.630 9.971581
55.635 10.009256
55.640 10.110799
55.645 10.350869
55.650 10.40913
55.655 10.5552
55.660 10.619663
55.665 10.815859
55.670 10.52827
55.675 10.12985
55.680 9.701609
55.685 9.516107
55.690 9.806691
55.695 9.750817
55.700 9.656267
55.705 9.772393
55.710 9.787886
55.715 10.349407
55.720 10.901957
55.725 10.927525
55.730 11.162833
55.735 11.244895
55.740 10.947453
55.745 11.318993
55.750 11.490112
55.755 10.503407
55.760 9.95603
55.765 10.206596
55.770 10.154759
55.775 10.748096
55.780 10.233274
55.785 9.881243
55.790 10.260514
55.795 10.269248
55.800 10.000438
55.805 9.798887
55.810 9.672592
55.815 9.915316
55.820 10.098704
55.825 9.84528
55.830 9.820952
55.835 10.340029
55.840 10.228476
55.845 9.722093
55.850 9.698409
55.855 10.083384
55.860 10.489884
55.865 10.671757
55.870 10.584569
55.875 11.032413
55.880 11.29844
55.885 11.388257
55.890 11.678315
55.895 11.938637
55.900 11.855834
55.905 11.903687
55.910 11.766662
55.915 11.907053
55.920 11.606485
55.925 11.116436
55.930 11.007455
55.935 10.758665
55.940 11.382811
55.945 11.695106
55.950 11.600349
55.955 11.722033
55.960 11.802665
55.965 11.854589
55.970 12.164817
55.975 11.603907
55.980 11.251439
55.985 11.318099
55.990 11.370687
55.995 11.308123
56.000 11.326469
56.005 11.19574
56.010 11.422491
56.015 11.600975
56.020 11.84798
56.025 12.041227
56.030 12.182932
56.035 11.986826
56.040 11.928057
56.045 11.499393
56.050 11.369859
56.055 10.444185
56.060 9.819924
56.065 9.784256
56.070 9.908841
56.075 10.030326
56.080 9.886925
56.085 10.001031
56.090 10.204928
56.095 10.280159
56.100 10.412112
56.105 10.389
56.110 10.854692
56.115 11.208089
56.120 11.748126
56.125 12.263549
56.130 12.343987
56.135 12.264994
56.140 12.097986
56.145 11.729927
56.150 11.547847
56.155 11.387536
56.160 11.253196
56.165 11.126671
56.170 11.189372
56.175 11.695873
56.180 12.171062
56.185 12.406788
56.190 11.659633
56.195 11.548383
56.200 11.325462
56.205 10.851722
56.210 10.387579
56.215 10.043759
56.220 10.241915
56.225 10.941503
56.230 10.976171
56.235 11.753738
56.240 12.153322
56.245 12.795177
56.250 12.701065
56.255 12.430818
56.260 12.478181
56.265 12.452143
56.270 12.052197
56.275 11.808024
56.280 11.465673
56.285 11.609918
56.290 11.66501
56.295 11.508557
56.300 11.96442
56.305 12.301218
56.310 12.438314
56.315 12.692216
56.320 12.375666
56.325 12.323742
56.330 12.446334
56.335 12.279689
56.340 12.188143
56.345 12.115585
56.350 11.794549
56.355 12.095116
56.360 11.78256
56.365 11.433125
56.370 11.129328
56.375 10.843824
56.380 10.978728
56.385 10.837361
56.390 10.460432
56.395 10.545464
56.400 10.888206
56.405 11.122399
56.410 11.316309
56.415 11.165848
56.420 11.338115
56.425 11.515769
56.430 11.47823
56.435 11.396463
56.440 11.090542
56.445 10.542287
56.450 10.263094
56.455 10.361851
56.460 10.713943
56.465 10.57099
56.470 10.285159
56.475 10.043442
56.480 10.31813
56.485 10.823297
56.490 11.312355
56.495 11.537769
56.500 11.564753
56.505 11.617664
56.510 12.127643
56.515 12.178591
56.520 11.757496
56.525 11.507525
56.530 11.079242
56.535 11.014112
56.540 11.46017
56.545 11.092853
56.550 10.934126
56.555 11.047909
56.560 10.900238
56.565 11.62001
56.570 11.765039
56.575 11.761841
56.580 12.465545
56.585 12.447058
56.590 12.88925
56.595 12.955404
56.600 12.543673
56.605 12.586793
56.610 12.281075
56.615 12.675926
56.620 12.94754
56.625 12.348796
56.630 12.225681
56.635 12.344153
56.640 11.899994
56.645 11.845398
56.650 11.314607
56.655 11.017761
56.660 11.194579
56.665 11.19013
56.670 11.050981
56.675 11.050285
56.680 11.089526
56.685 11.212733
56.690 11.47858
56.695 11.483449
56.700 11.714382
56.705 12.118413
56.710 12.328761
56.715 12.033358
56.720 12.017542
56.725 11.938023
56.730 11.997726
56.735 12.270979
56.740 12.291438
56.745 12.236432
56.750 12.350779
56.755 12.954779
56.760 13.325014
56.765 13.41465
56.770 12.789063
56.775 12.578842
56.780 12.593205
56.785 12.608184
56.790 11.943254
56.795 11.626987
56.800 11.60529
56.805 12.190847
56.810 11.994449
56.815 11.643195
56.820 11.416637
56.825 11.431593
56.830 11.287862
56.835 11.04782
56.840 11.05645
56.845 11.548708
56.850 12.080073
56.855 12.264129
56.860 12.280776
56.865 12.601721
56.870 12.64559
56.875 12.012984
56.880 11.927673
56.885 11.582164
56.890 11.237312
56.895 11.145505
56.900 10.973354
56.905 11.05424
56.910 10.951363
56.915 11.261712
56.920 11.776442
56.925 12.557278
56.930 13.016493
56.935 12.940004
56.940 12.692251
56.945 12.70994
56.950 12.616851
56.955 12.500636
56.960 12.158301
56.965 11.915822
56.970 11.86975
56.975 12.514796
56.980 12.70625
56.985 12.519552
56.990 12.893746
56.995 12.912497
57.000 12.865373
57.005 12.55052
57.010 12.011689
57.015 12.041018
57.020 12.10673
57.025 11.477428
57.030 11.144255
57.035 11.214138
57.040 11.18531
57.045 11.328477
57.050 11.322644
57.055 11.192813
57.060 10.951826
57.065 10.730477
57.070 10.634357
57.075 11.600374
57.080 11.549561
57.085 11.291551
57.090 11.399768
57.095 11.969397
57.100 12.200179
57.105 12.157057
57.110 11.545135
57.115 11.475639
57.120 11.467774
57.125 11.206142
57.130 11.690696
57.135 12.189675
57.140 12.618931
57.145 13.106095
57.150 13.543525
57.155 13.542137
57.160 13.683085
57.165 13.767917
57.170 13.48199
57.175 13.409357
57.180 13.578819
57.185 13.859426
57.190 13.989421
57.195 14.224976
57.200 14.164623
57.205 14.447922
57.210 13.793542
57.215 13.381848
57.220 12.685375
57.225 12.65935
57.230 11.99397
57.235 11.276423
57.240 10.706657
57.245 10.767983
57.250 11.269691
57.255 11.802241
57.260 12.256436
57.265 12.866192
57.270 13.314097
57.275 13.545671
57.280 13.661321
57.285 13.556847
57.290 13.31421
57.295 12.754079
57.300 12.220535
57.305 12.179306
57.310 12.402061
57.315 12.297795
57.320 11.628969
57.325 11.594611
57.330 12.083956
57.335 12.17003
57.340 12.003607
57.345 11.757478
57.350 11.723023
57.355 12.467523
57.360 13.02852
57.365 12.919711
57.370 13.552705
57.375 13.724634
57.380 13.92063
57.385 13.773231
57.390 13.620436
57.395 13.43632
57.400 13.523111
57.405 12.768292
57.410 12.613271
57.415 12.940834
57.420 13.378539
57.425 13.19316
57.430 12.755193
57.435 12.799559
57.440 13.073888
57.445 12.892596
57.450 12.14357
57.455 11.423409
57.460 11.501579
57.465 11.577997
57.470 11.039069
57.475 11.006804
57.480 11.219981
57.485 11.478133
57.490 11.844233
57.495 11.729978
57.500 11.208785
57.505 11.484208
57.510 11.406439
57.515 11.349104
57.520 11.434614
57.525 11.50506
57.530 11.418223
57.535 12.226869
57.540 12.583082
57.545 12.839578
57.550 13.387596
57.555 14.42396
57.560 15.36963
57.565 15.424105
57.570 14.965517
57.575 14.755706
57.580 14.710769
57.585 14.564031
57.590 13.87698
57.595 12.517096
57.600 12.51189
57.605 12.460086
57.610 12.389715
57.615 12.172267
57.620 11.928531
57.625 11.455202
57.630 12.031559
57.635 12.339362
57.640 12.460367
57.645 12.087201
57.650 12.059063
57.655 11.8464
57.660 11.665234
57.665 11.616524
57.670 10.91747
57.675 11.315616
57.680 11.941936
57.685 12.440145
57.690 12.894339
57.695 13.472088
57.700 13.534431
57.705 13.882852
57.710 13.601888
57.715 13.725763
57.720 13.542824
57.725 13.863071
57.730 14.032007
57.735 14.461197
57.740 14.773057
57.745 14.916099
57.750 14.246303
57.755 13.904679
57.760 13.786552
57.765 13.100739
57.770 12.699675
57.775 12.972258
57.780 13.469728
57.785 14.003171
57.790 14.182161
57.795 14.163866
57.800 15.130448
57.805 15.415511
57.810 15.29986
57.815 14.96767
57.820 14.768793
57.825 14.70388
57.830 14.370802
57.835 13.500524
57.840 13.080825
57.845 13.362001
57.850 13.58946
57.855 14.034698
57.860 13.976961
57.865 14.470606
57.870 15.142228
57.875 15.521049
57.880 15.394657
57.885 15.530789
57.890 15.62973
57.895 15.60663
57.900 15.364081
57.905 15.159024
57.910 15.02882
57.915 14.798039
57.920 14.22207
57.925 13.848589
57.930 13.7434
57.935 13.844278
57.940 13.883882
57.945 13.722577
57.950 13.819257
57.955 14.08525
57.960 14.185333
57.965 14.447653
57.970 14.401582
57.975 14.131225
57.980 14.418783
57.985 15.105293
57.990 15.161299
57.995 14.9511
58.000 14.296877
58.005 13.948564
58.010 14.812924
58.015 14.65354
58.020 13.857593
58.025 13.764217
58.030 14.253711
58.035 14.96277
58.040 15.289268
58.045 14.939752
58.050 15.218124
58.055 15.690165
58.060 16.345039
58.065 16.446899
58.070 16.662687
58.075 16.666636
58.080 16.34034
58.085 16.02179
58.090 15.553971
58.095 15.91405
58.100 15.920134
58.105 15.706631
58.110 15.280915
58.115 15.553812
58.120 15.158654
58.125 15.38716
58.130 14.524783
58.135 14.350587
58.140 14.421362
58.145 14.967658
58.150 15.626476
58.155 16.385557
58.160 15.606557
58.165 15.341669
58.170 15.024966
58.175 15.079602
58.180 14.974836
58.185 14.710291
58.190 14.162144
58.195 14.482917
58.200 14.920358
58.205 15.329054
58.210 15.345914
58.215 15.139528
58.220 14.814746
58.225 14.942833
58.230 15.28932
58.235 15.556415
58.240 15.3678
58.245 15.032059
58.250 14.793062
58.255 15.137085
58.260 15.222041
58.265 14.872555
58.270 14.425208
58.275 14.586121
58.280 15.319231
58.285 16.180403
58.290 16.34663
58.295 16.814154
58.300 17.72229
58.305 17.908869
58.310 17.637009
58.315 17.550148
58.320 16.469151
58.325 16.425882
58.330 15.965605
58.335 15.741146
58.340 16.489725
58.345 17.196907
58.350 17.652929
58.355 18.220297
58.360 18.019804
58.365 18.29336
58.370 18.267067
58.375 17.85219
58.380 17.450596
58.385 17.887087
58.390 17.466702
58.395 17.933849
58.400 18.387959
58.405 18.736435
58.410 18.992125
58.415 19.186255
58.420 19.112881
58.425 19.739115
58.430 20.070438
58.435 19.719234
58.440 19.888399
58.445 20.578234
58.450 21.096554
58.455 21.406773
58.460 21.940569
58.465 22.316507
58.470 23.283209
58.475 23.664974
58.480 23.426016
58.485 23.785366
58.490 24.183554
58.495 24.352743
58.500 23.99229
58.505 23.474504
58.510 23.388336
58.515 24.476656
58.520 25.032854
58.525 25.880697
58.530 26.759649
58.535 28.394575
58.540 29.300621
58.545 29.906944
58.550 30.060652
58.555 29.953386
58.560 30.494478
58.565 30.652637
58.570 30.392803
58.575 31.086964
