!@!!GADDS PLOTSO FILE: Chi integration type
!@!!Title/SampleName: map-ec
!@!!Comment: ?
!@!!User: Bruker Instrument Administrator
!@!!Site: University of Illinois Chicago
!@!!Frame: map-ec_01_000.gfrm
!@!!Wavelengths    1.54184   1.54056   1.54439
!@!!Frame angles: 2Theta: 63.000 Omega: 50.000 Phi: 0.000 Chi: 90.000
!@!!Integration range: 2Theta: 53.000 to 73.000  Gamma: -105.000 to -75.000
!@!!Integration method: bin normalized
!@!N
!@!SS
!@!M
!@!L 0.0 0.0 0.0 0.0
!@!XDegrees
!@!YCounts
53.000 5.992891
53.005 5.616719
53.010 5.45338
53.015 5.491303
53.020 5.668319
53.025 5.659007
53.030 5.870389
53.035 6.087722
53.040 6.13552
53.045 6.225922
53.050 6.19253
53.055 6.068676
53.060 6.310877
53.065 6.506858
53.070 6.684007
53.075 7.007099
53.080 7.00564
53.085 6.958071
53.090 6.683142
53.095 6.068565
53.100 6.028431
53.105 5.890074
53.110 5.545002
53.115 5.404666
53.120 5.624846
53.125 6.309814
53.130 6.438795
53.135 6.441121
53.140 6.492514
53.145 6.620596
53.150 6.752844
53.155 6.60026
53.160 6.360507
53.165 6.564167
53.170 6.28708
53.175 6.098524
53.180 6.069963
53.185 6.067187
53.190 5.7718
53.195 5.227266
53.200 4.630968
53.205 4.543825
53.210 4.644431
53.215 4.992275
53.220 5.071104
53.225 5.362668
53.230 6.114868
53.235 6.745596
53.240 7.35563
53.245 7.597347
53.250 7.133461
53.255 7.247971
53.260 7.646464
53.265 7.670935
53.270 7.45978
53.275 7.565686
53.280 8.04009
53.285 8.110482
53.290 7.695448
53.295 7.021174
53.300 6.70532
53.305 6.484217
53.310 5.906655
53.315 5.854286
53.320 6.366651
53.325 6.352465
53.330 6.184406
53.335 5.930274
53.340 5.765937
53.345 5.488102
53.350 5.137362
53.355 5.314642
53.360 5.976913
53.365 6.736259
53.370 7.323878
53.375 7.95091
53.380 8.284762
53.385 8.467872
53.390 8.607601
53.395 8.514662
53.400 8.375092
53.405 8.300279
53.410 8.107798
53.415 8.23632
53.420 7.882119
53.425 7.888348
53.430 7.623652
53.435 7.762605
53.440 7.81501
53.445 7.513904
53.450 7.599471
53.455 8.12564
53.460 8.080636
53.465 8.036545
53.470 7.793573
53.475 7.749476
53.480 7.87422
53.485 7.456586
53.490 6.689873
53.495 6.622102
53.500 6.379966
53.505 6.178169
53.510 6.164666
53.515 6.128988
53.520 5.823605
53.525 5.976455
53.530 6.183931
53.535 6.376196
53.540 6.311292
53.545 6.10175
53.550 6.560082
53.555 6.803236
53.560 6.753123
53.565 6.949099
53.570 6.83216
53.575 6.955256
53.580 6.909445
53.585 6.418305
53.590 6.593025
53.595 6.605921
53.600 6.695286
53.605 6.808382
53.610 6.457813
53.615 6.498178
53.620 6.776322
53.625 6.783391
53.630 6.59962
53.635 6.906288
53.640 7.621758
53.645 7.963824
53.650 8.198037
53.655 8.071161
53.660 7.886329
53.665 7.830424
53.670 7.681596
53.675 7.265613
53.680 7.201425
53.685 6.812364
53.690 6.953311
53.695 6.887301
53.700 6.547724
53.705 6.196326
53.710 6.09707
53.715 6.177866
53.720 6.196046
53.725 6.060181
53.730 6.395926
53.735 7.030482
53.740 7.427174
53.745 7.708045
53.750 7.603213
53.755 7.887269
53.760 8.097384
53.765 8.104792
53.770 7.657448
53.775 7.580998
53.780 7.756266
53.785 8.008795
53.790 7.98878
53.795 7.793236
53.800 7.391702
53.805 7.547377
53.810 7.701432
53.815 7.73158
53.820 7.437793
53.825 7.299222
53.830 7.41672
53.835 7.797175
53.840 7.901302
53.845 7.596287
53.850 7.304184
53.855 7.119647
53.860 7.430634
53.865 7.671776
53.870 7.449363
53.875 7.597668
53.880 7.766278
53.885 8.196844
53.890 8.215226
53.895 8.520817
53.900 8.417631
53.905 8.577818
53.910 8.173713
53.915 7.843408
53.920 8.076883
53.925 8.028357
53.930 7.747824
53.935 7.775409
53.940 7.593916
53.945 8.003023
53.950 8.024026
53.955 7.879584
53.960 7.90808
53.965 7.823037
53.970 7.856588
53.975 7.633998
53.980 7.389387
53.985 7.492277
53.990 7.329255
53.995 6.969387
54.000 6.577269
54.005 6.396616
54.010 6.695295
54.015 6.884113
54.020 7.024484
54.025 7.327618
54.030 7.571671
54.035 7.866381
54.040 7.932251
54.045 7.782097
54.050 7.430436
54.055 7.186289
54.060 7.171566
54.065 7.28928
54.070 7.259136
54.075 7.167149
54.080 7.225387
54.085 7.540964
54.090 7.767807
54.095 8.208356
54.100 8.584332
54.105 8.752497
54.110 9.046555
54.115 8.871561
54.120 8.515276
54.125 8.028836
54.130 7.318918
54.135 7.324494
54.140 7.236025
54.145 7.142075
54.150 7.046576
54.155 7.102033
54.160 7.11471
54.165 6.937666
54.170 6.760947
54.175 6.791726
54.180 7.013455
54.185 7.074257
54.190 7.474841
54.195 7.856861
54.200 8.044277
54.205 8.00405
54.210 8.178145
54.215 8.085068
54.220 8.167148
54.225 7.950334
54.230 7.788978
54.235 7.897937
54.240 8.051765
54.245 7.996499
54.250 8.334817
54.255 8.363542
54.260 8.467621
54.265 8.487334
54.270 8.525582
54.275 8.132567
54.280 7.538946
54.285 7.40953
54.290 7.148883
54.295 6.90901
54.300 6.893686
54.305 6.78049
54.310 7.465861
54.315 7.765466
54.320 7.742905
54.325 8.128696
54.330 8.558338
54.335 8.540038
54.340 8.6095
54.345 8.271048
54.350 8.364263
54.355 8.387291
54.360 8.408994
54.365 8.340072
54.370 8.121647
54.375 8.074183
54.380 7.895382
54.385 7.910352
54.390 7.930657
54.395 7.890099
54.400 7.857656
54.405 8.248755
54.410 8.368746
54.415 8.351298
54.420 8.318172
54.425 8.306568
54.430 8.247956
54.435 8.225981
54.440 8.066699
54.445 8.021065
54.450 7.919494
54.455 7.55175
54.460 7.372399
54.465 6.906773
54.470 7.082493
54.475 6.875943
54.480 6.53783
54.485 6.752412
54.490 6.658195
54.495 6.927274
54.500 7.207045
54.505 6.981109
54.510 7.033564
54.515 7.314396
54.520 7.252544
54.525 7.115142
54.530 6.907478
54.535 6.83758
54.540 7.1311
54.545 7.325534
54.550 7.600067
54.555 7.885182
54.560 8.234658
54.565 8.203178
54.570 8.067872
54.575 7.912932
54.580 8.022385
54.585 7.830463
54.590 7.609427
54.595 7.611529
54.600 7.838491
54.605 7.652061
54.610 7.557588
54.615 7.440795
54.620 7.665186
54.625 7.913058
54.630 8.078236
54.635 8.418485
54.640 8.763616
54.645 9.296783
54.650 9.274316
54.655 9.2269
54.660 9.291442
54.665 9.113495
54.670 8.957693
54.675 8.580791
54.680 8.262857
54.685 8.321115
54.690 8.492119
54.695 8.781003
54.700 9.073135
54.705 8.96911
54.710 8.82711
54.715 9.149071
54.720 8.545403
54.725 8.417384
54.730 8.011869
54.735 7.775725
54.740 7.742305
54.745 8.086901
54.750 7.913641
54.755 7.925341
54.760 7.714326
54.765 7.631589
54.770 7.457711
54.775 7.566651
54.780 7.298716
54.785 7.36729
54.790 7.868377
54.795 8.037026
54.800 8.259866
54.805 8.403912
54.810 8.449506
54.815 8.412599
54.820 8.352962
54.825 8.502272
54.830 8.519897
54.835 8.561771
54.840 8.765323
54.845 8.890675
54.850 9.299547
54.855 9.179423
54.860 9.099055
54.865 9.087852
54.870 9.149194
54.875 9.329103
54.880 9.563993
54.885 9.748434
54.890 9.711085
54.895 9.73405
54.900 9.844387
54.905 9.786919
54.910 9.997316
54.915 9.723632
54.920 9.635965
54.925 9.556485
54.930 9.596574
54.935 9.714334
54.940 9.508265
54.945 9.222947
54.950 9.162074
54.955 8.952729
54.960 8.642288
54.965 8.227769
54.970 7.738684
54.975 7.534749
54.980 7.197099
54.985 6.852021
54.990 6.810723
54.995 7.121064
55.000 7.025865
55.005 6.967076
55.010 6.730656
55.015 7.516796
55.020 8.078671
55.025 8.094666
55.030 7.844266
55.035 8.198367
55.040 8.37701
55.045 8.433462
55.050 7.738918
55.055 7.626514
55.060 8.269493
55.065 8.384695
55.070 8.567454
55.075 8.956299
55.080 9.394601
55.085 9.955187
55.090 9.734137
55.095 9.338518
55.100 9.688187
55.105 9.833934
55.110 10.308582
55.115 9.935161
55.120 9.611702
55.125 9.437027
55.130 9.56681
55.135 9.008689
55.140 8.094761
55.145 7.607976
55.150 7.789641
55.155 7.892784
55.160 8.118337
55.165 8.125137
55.170 8.29495
55.175 8.408332
55.180 8.645465
55.185 9.08019
55.190 9.276501
55.195 9.280442
55.200 9.476983
55.205 9.757469
55.210 10.662864
55.215 10.625247
55.220 9.972816
55.225 9.548652
55.230 9.649501
55.235 10.095784
55.240 9.753642
55.245 9.487425
55.250 9.377846
55.255 9.660346
55.260 9.829576
55.265 9.676702
55.270 9.506046
55.275 9.687908
55.280 9.305791
55.285 9.357463
55.290 9.309091
55.295 9.325426
55.300 8.830958
55.305 8.426035
55.310 8.13682
55.315 7.786152
55.320 7.879536
55.325 7.996311
55.330 8.234927
55.335 8.696366
55.340 9.254454
55.345 9.52088
55.350 10.239254
55.355 10.169261
55.360 10.374087
55.365 10.215441
55.370 9.906717
55.375 9.314383
55.380 9.114061
55.385 8.742413
55.390 8.582777
55.395 8.74409
55.400 9.06426
55.405 9.308512
55.410 9.314451
55.415 9.664948
55.420 9.76392
55.425 10.506305
55.430 10.659406
55.435 10.767841
55.440 10.850397
55.445 10.850424
55.450 10.618233
55.455 10.302495
55.460 9.504272
55.465 9.056842
55.470 9.025502
55.475 9.211877
55.480 9.157322
55.485 9.110255
55.490 8.883557
55.495 9.015744
55.500 8.98919
55.505 8.573768
55.510 8.225974
55.515 8.185849
55.520 8.488654
55.525 8.779202
55.530 8.912826
55.535 8.821797
55.540 8.938868
55.545 9.609729
55.550 10.05387
55.555 10.528845
55.560 10.848134
55.565 10.568439
55.570 10.363816
55.575 10.234905
55.580 9.609539
55.585 9.14975
55.590 8.70488
55.595 8.621861
55.600 8.65267
55.605 9.114719
55.610 9.171519
55.615 9.152366
55.620 8.836209
55.625 8.825234
55.630 8.539541
55.635 8.412724
55.640 8.114814
55.645 8.719674
55.650 9.098516
55.655 9.218457
55.660 9.390244
55.665 9.750631
55.670 10.097553
55.675 9.772021
55.680 9.591003
55.685 9.512366
55.690 9.495879
55.695 9.254121
55.700 9.203084
55.705 9.121564
55.710 9.242607
55.715 9.888329
55.720 9.898339
55.725 9.963302
55.730 10.048712
55.735 9.471813
55.740 9.492358
55.745 9.526397
55.750 8.775284
55.755 8.709691
55.760 8.720514
55.765 8.813063
55.770 9.185401
55.775 9.393645
55.780 9.196455
55.785 9.244646
55.790 9.517466
55.795 9.029755
55.800 8.962166
55.805 8.688373
55.810 8.250979
55.815 8.250724
55.820 8.106335
55.825 7.785345
55.830 8.047859
55.835 8.569226
55.840 8.722721
55.845 8.853237
55.850 8.575784
55.855 8.730356
55.860 9.045996
55.865 9.023592
55.870 8.504137
55.875 9.08423
55.880 9.354631
55.885 9.583583
55.890 9.562467
55.895 9.358871
55.900 9.140674
55.905 9.158023
55.910 8.869806
55.915 9.116581
55.920 9.277594
55.925 9.557864
55.930 9.881353
55.935 10.037642
55.940 10.030611
55.945 10.354321
55.950 10.083162
55.955 10.106897
55.960 10.337198
55.965 10.499895
55.970 10.749321
55.975 10.947073
55.980 10.744041
55.985 10.699698
55.990 10.260221
55.995 9.720028
56.000 9.889129
56.005 9.63855
56.010 9.311993
56.015 9.304129
56.020 9.584664
56.025 9.467857
56.030 9.437509
56.035 8.96473
56.040 8.767186
56.045 8.665846
56.050 8.766521
56.055 9.286856
56.060 9.606684
56.065 9.692475
56.070 9.816414
56.075 10.126042
56.080 10.760931
56.085 10.292271
56.090 9.493285
56.095 9.6202
56.100 9.491425
56.105 10.128222
56.110 10.501886
56.115 10.139385
56.120 10.663584
56.125 11.12356
56.130 11.646582
56.135 11.582023
56.140 11.254722
56.145 11.138445
56.150 11.232786
56.155 10.912976
56.160 10.286613
56.165 9.920531
56.170 10.148919
56.175 10.050169
56.180 9.059554
56.185 8.712091
56.190 8.851313
56.195 9.103318
56.200 8.712864
56.205 8.456595
56.210 8.641177
56.215 9.492162
56.220 10.008755
56.225 10.055702
56.230 10.398028
56.235 11.029587
56.240 11.289484
56.245 10.848176
56.250 10.758421
56.255 10.360076
56.260 10.289445
56.265 10.210512
56.270 9.879119
56.275 10.04316
56.280 9.972169
56.285 9.822077
56.290 10.23842
56.295 10.186593
56.300 9.718444
56.305 9.433106
56.310 9.331706
56.315 9.650753
56.320 9.807132
56.325 10.113024
56.330 9.967433
56.335 10.000397
56.340 10.092996
56.345 9.841489
56.350 9.387729
56.355 9.007615
56.360 9.001459
56.365 9.565239
56.370 9.611993
56.375 9.756886
56.380 10.163271
56.385 10.540559
56.390 10.456647
56.395 9.885245
56.400 9.905268
56.405 10.06671
56.410 10.627748
56.415 10.602889
56.420 10.331826
56.425 10.324798
56.430 10.28019
56.435 9.829575
56.440 9.595487
56.445 9.203713
56.450 8.775633
56.455 9.17262
56.460 9.695208
56.465 9.846397
56.470 10.080539
56.475 10.367198
56.480 10.255038
56.485 10.620885
56.490 10.74588
56.495 10.701119
56.500 10.850512
56.505 10.785312
56.510 10.688747
56.515 10.599814
56.520 10.420221
56.525 10.447542
56.530 10.661931
56.535 10.928308
56.540 10.620036
56.545 10.661454
56.550 10.34562
56.555 10.245576
56.560 10.118098
56.565 9.965076
56.570 10.084291
56.575 10.387535
56.580 10.576058
56.585 11.218529
56.590 11.071168
56.595 10.898067
56.600 10.616828
56.605 10.639659
56.610 10.836503
56.615 10.763845
56.620 10.570023
56.625 10.486458
56.630 10.030312
56.635 9.842875
56.640 9.578486
56.645 9.418581
56.650 9.65386
56.655 9.795304
56.660 10.088774
56.665 10.406463
56.670 10.776127
56.675 10.817376
56.680 10.701607
56.685 10.460426
56.690 10.335929
56.695 10.486848
56.700 10.538116
56.705 10.417849
56.710 10.097938
56.715 10.023706
56.720 9.87495
56.725 9.812593
56.730 9.659472
56.735 9.906356
56.740 10.295494
56.745 10.973065
56.750 11.248982
56.755 11.697939
56.760 12.132135
56.765 12.22935
56.770 11.819866
56.775 11.193685
56.780 10.700078
56.785 10.461531
56.790 10.115458
56.795 9.801536
56.800 9.819694
56.805 10.061527
56.810 10.465931
56.815 10.692662
56.820 10.494324
56.825 10.647193
56.830 10.909708
56.835 10.588164
56.840 10.672338
56.845 10.895167
56.850 11.238127
56.855 11.166245
56.860 11.082901
56.865 10.952407
56.870 10.979178
56.875 10.8084
56.880 10.265013
56.885 10.016169
56.890 9.562704
56.895 9.885912
56.900 9.419183
56.905 9.231782
56.910 8.977778
56.915 9.063674
56.920 9.672296
56.925 10.56743
56.930 10.578483
56.935 11.509041
56.940 12.023221
56.945 12.415895
56.950 12.254779
56.955 11.690913
56.960 11.385105
56.965 11.643705
56.970 11.759428
56.975 11.807829
56.980 11.582487
56.985 11.939724
56.990 12.05424
56.995 11.637334
57.000 11.470642
57.005 11.17718
57.010 11.01026
57.015 11.185864
57.020 11.263544
57.025 10.900667
57.030 11.064327
57.035 11.110562
57.040 11.083691
57.045 11.282277
57.050 11.380984
57.055 11.631494
57.060 12.055038
57.065 11.338634
57.070 10.866743
57.075 10.614085
57.080 10.470345
57.085 10.112935
57.090 9.591449
57.095 9.927094
57.100 10.449379
57.105 10.671724
57.110 10.53328
57.115 10.510523
57.120 10.019915
57.125 9.947904
57.130 9.85164
57.135 9.655707
57.140 10.066787
57.145 10.283682
57.150 10.079196
57.155 10.868382
57.160 10.713005
57.165 10.438807
57.170 10.453963
57.175 10.04962
57.180 10.019569
57.185 9.938107
57.190 9.833665
57.195 10.290545
57.200 10.456903
57.205 10.534985
57.210 10.564908
57.215 10.587257
57.220 10.65033
57.225 10.758516
57.230 11.16042
57.235 11.270664
57.240 11.218963
57.245 11.271257
57.250 11.65665
57.255 11.827978
57.260 11.567471
57.265 11.51589
57.270 11.449031
57.275 11.100246
57.280 10.644826
57.285 10.204119
57.290 10.005495
57.295 9.870554
57.300 9.861494
57.305 9.809952
57.310 10.353765
57.315 10.828532
57.320 10.929925
57.325 11.155293
57.330 11.144288
57.335 11.058511
57.340 11.029194
57.345 10.804439
57.350 10.778916
57.355 10.941294
57.360 10.899103
57.365 11.107378
57.370 11.012988
57.375 11.056721
57.380 11.216846
57.385 11.850167
57.390 12.010818
57.395 11.973626
57.400 11.763423
57.405 11.830112
57.410 11.883472
57.415 11.798884
57.420 11.35284
57.425 11.254125
57.430 11.323225
57.435 11.345363
57.440 11.734323
57.445 12.00979
57.450 12.192052
57.455 12.154605
57.460 11.981368
57.465 12.033837
57.470 11.980059
57.475 11.754735
57.480 11.688686
57.485 10.874669
57.490 11.167614
57.495 11.919049
57.500 12.054353
57.505 12.298053
57.510 12.19479
57.515 12.520996
57.520 13.064755
57.525 13.112767
57.530 12.945056
57.535 13.346208
57.540 13.205459
57.545 13.520918
57.550 12.859508
57.555 12.749752
57.560 12.35141
57.565 11.644813
57.570 11.288659
57.575 11.50488
57.580 11.070356
57.585 11.441718
57.590 11.582498
57.595 12.364357
57.600 13.644225
57.605 13.675143
57.610 14.039165
57.615 14.07355
57.620 14.066427
57.625 14.031507
57.630 13.511661
57.635 12.619427
57.640 12.57979
57.645 12.350823
57.650 12.825553
57.655 13.254603
57.660 13.739202
57.665 13.667151
57.670 13.473073
57.675 13.394361
57.680 13.56916
57.685 13.46632
57.690 13.240871
57.695 13.006712
57.700 13.067983
57.705 13.34024
57.710 13.418537
57.715 13.594832
57.720 13.106328
57.725 12.859403
57.730 12.725965
57.735 13.067677
57.740 13.351527
57.745 13.23844
57.750 13.201913
57.755 13.808639
57.760 14.040191
57.765 14.422343
57.770 14.053261
57.775 13.932109
57.780 13.648053
57.785 14.306397
57.790 14.176114
57.795 13.900129
57.800 12.943054
57.805 12.753502
57.810 12.408063
57.815 12.438153
57.820 11.69506
57.825 11.713716
57.830 12.335593
57.835 13.164372
57.840 13.185313
57.845 13.713755
57.850 13.258582
57.855 12.855832
57.860 12.744924
57.865 12.070273
57.870 11.871051
57.875 12.185822
57.880 12.313353
57.885 12.744625
57.890 13.045358
57.895 12.833841
57.900 12.980404
57.905 12.999378
57.910 12.890977
57.915 13.027452
57.920 13.603721
57.925 14.031746
57.930 14.07029
57.935 14.754627
57.940 14.567513
57.945 14.338694
57.950 13.692134
57.955 13.527663
57.960 13.542477
57.965 13.419106
57.970 13.075537
57.975 13.219437
57.980 13.375288
57.985 13.684478
57.990 13.533004
57.995 13.288613
58.000 13.610446
58.005 14.175718
58.010 14.256688
58.015 14.431001
58.020 13.947867
58.025 13.720742
58.030 13.846263
58.035 13.967875
58.040 13.858406
58.045 14.017336
58.050 13.989185
58.055 14.277184
58.060 13.986383
58.065 14.197924
58.070 13.7005
58.075 13.080268
58.080 13.063027
58.085 12.581996
58.090 12.199361
58.095 12.163436
58.100 11.727638
58.105 11.562874
58.110 11.08391
58.115 11.203246
58.120 11.524917
58.125 11.979224
58.130 12.310359
58.135 12.624446
58.140 12.841476
58.145 13.363809
58.150 13.458637
58.155 14.029003
58.160 14.390692
58.165 14.508174
58.170 15.469563
58.175 15.773805
58.180 15.402543
58.185 15.313702
58.190 14.748646
58.195 14.422007
58.200 14.491751
58.205 14.078449
58.210 14.367167
58.215 15.381346
58.220 15.640864
58.225 16.014147
58.230 16.389425
58.235 16.495319
58.240 16.313101
58.245 16.575352
58.250 16.091425
58.255 16.349726
58.260 16.545595
58.265 16.526361
58.270 16.091673
58.275 16.396444
58.280 16.234259
58.285 16.221689
58.290 16.40526
58.295 16.485626
58.300 16.127804
58.305 16.035219
58.310 16.080492
58.315 16.114407
58.320 16.631865
58.325 16.006615
58.330 16.42555
58.335 17.395361
58.340 18.251429
58.345 18.168083
58.350 18.174257
58.355 18.132828
58.360 18.091646
58.365 17.587744
58.370 17.368105
58.375 17.048317
58.380 17.340527
58.385 17.562017
58.390 17.761139
58.395 18.405937
58.400 18.643785
58.405 18.346804
58.410 18.145834
58.415 18.248081
58.420 19.093872
58.425 19.399343
58.430 19.283201
58.435 19.381102
58.440 19.460161
58.445 20.148569
58.450 19.806593
58.455 18.974463
58.460 19.417952
58.465 20.261755
58.470 20.365593
58.475 20.88356
58.480 21.228895
58.485 22.30311
58.490 23.196619
58.495 22.944939
58.500 22.856121
58.505 23.203781
58.510 23.440275
58.515 23.365116
58.520 23.323204
58.525 23.525375
58.530 23.919941
58.535 24.774178
58.540 25.599649
58.545 25.87429
58.550 25.913977
58.555 26.016157
58.560 26.355251
58.565 26.279186
58.570 26.143591
58.575 26.116066
58.580 25.929935
58.585 26.115694
58.590 27.295769
58.595 28.039488
58.600 28.303169
58.605 28.699364
58.610 29.208532
58.615 30.070883
