!@!!GADDS PLOTSO FILE: Chi integration type
!@!!Title/SampleName: map-2e
!@!!Comment: ?
!@!!User: Bruker Instrument Administrator
!@!!Site: University of Illinois Chicago
!@!!Frame: map-2e_01_000.gfrm
!@!!Wavelengths    1.54184   1.54056   1.54439
!@!!Frame angles: 2Theta: 63.000 Omega: 50.000 Phi: 0.000 Chi: 90.000
!@!!Integration range: 2Theta: 53.000 to 73.000  Gamma: -105.000 to -75.000
!@!!Integration method: bin normalized
!@!N
!@!SS
!@!M
!@!L 0.0 0.0 0.0 0.0
!@!XDegrees
!@!YCounts
53.000 10.636075
53.005 9.553143
53.010 9.448648
53.015 9.697165
53.020 9.733641
53.025 10.034219
53.030 10.122767
53.035 10.08411
53.040 10.289637
53.045 9.951674
53.050 9.635706
53.055 9.151514
53.060 9.304401
53.065 9.662453
53.070 10.067586
53.075 10.302634
53.080 10.535584
53.085 10.717679
53.090 11.023194
53.095 11.038248
53.100 11.308825
53.105 11.302688
53.110 11.217845
53.115 11.581155
53.120 11.572515
53.125 11.110917
53.130 10.917825
53.135 10.429171
53.140 10.400673
53.145 10.348552
53.150 9.825438
53.155 9.742644
53.160 10.352531
53.165 10.673542
53.170 10.737457
53.175 10.42594
53.180 11.032365
53.185 11.673422
53.190 11.58816
53.195 11.115484
53.200 10.909249
53.205 11.234497
53.210 11.208653
53.215 10.62828
53.220 10.463451
53.225 10.687569
53.230 10.626987
53.235 10.417631
53.240 10.511353
53.245 10.91668
53.250 11.329859
53.255 11.452711
53.260 11.526686
53.265 11.773464
53.270 12.044341
53.275 11.612606
53.280 11.581219
53.285 11.666463
53.290 11.483887
53.295 11.437365
53.300 11.015071
53.305 10.855097
53.310 10.596532
53.315 10.228547
53.320 9.875335
53.325 9.879696
53.330 9.682755
53.335 10.085423
53.340 10.515306
53.345 10.532696
53.350 10.388207
53.355 10.493676
53.360 10.467105
53.365 10.798079
53.370 11.059161
53.375 10.956008
53.380 11.148262
53.385 11.062671
53.390 11.008332
53.395 10.907616
53.400 10.783087
53.405 10.426888
53.410 10.468079
53.415 10.060316
53.420 10.197806
53.425 10.284642
53.430 10.086196
53.435 9.896319
53.440 10.065975
53.445 10.136729
53.450 10.253991
53.455 10.052326
53.460 10.290778
53.465 10.35076
53.470 10.260416
53.475 10.241304
53.480 10.442101
53.485 10.848248
53.490 10.58661
53.495 10.65607
53.500 10.939007
53.505 11.075149
53.510 11.389506
53.515 11.445919
53.520 11.31953
53.525 11.205911
53.530 10.964553
53.535 10.754204
53.540 10.816127
53.545 10.397749
53.550 10.364533
53.555 10.753418
53.560 11.322425
53.565 11.401855
53.570 11.239703
53.575 11.135495
53.580 11.054089
53.585 10.880322
53.590 10.493969
53.595 10.740818
53.600 10.872303
53.605 10.73617
53.610 10.418987
53.615 10.548514
53.620 10.687679
53.625 10.949654
53.630 10.378981
53.635 10.509156
53.640 10.847593
53.645 11.395641
53.650 11.398258
53.655 11.165129
53.660 10.991642
53.665 11.154257
53.670 11.219121
53.675 11.092213
53.680 10.876028
53.685 10.719027
53.690 11.330282
53.695 10.999833
53.700 10.924725
53.705 10.685316
53.710 10.632647
53.715 10.535551
53.720 10.267832
53.725 9.863909
53.730 9.507947
53.735 9.240645
53.740 9.429042
53.745 9.59588
53.750 9.764056
53.755 9.967077
53.760 10.157015
53.765 10.823997
53.770 10.873221
53.775 10.785989
53.780 10.432231
53.785 10.3937
53.790 10.708851
53.795 11.041406
53.800 10.755723
53.805 10.906849
53.810 10.930548
53.815 11.228457
53.820 11.03939
53.825 11.10537
53.830 11.152205
53.835 11.231075
53.840 10.84498
53.845 10.85208
53.850 10.879323
53.855 10.784379
53.860 10.346533
53.865 10.181633
53.870 9.854065
53.875 10.092887
53.880 10.43522
53.885 10.7337
53.890 10.689273
53.895 10.911561
53.900 11.095595
53.905 11.489655
53.910 11.777365
53.915 11.547071
53.920 11.475691
53.925 11.584709
53.930 11.124932
53.935 10.912254
53.940 10.576138
53.945 10.456527
53.950 10.617238
53.955 10.532305
53.960 10.680115
53.965 11.256473
53.970 11.650231
53.975 11.782537
53.980 11.334204
53.985 11.17225
53.990 11.415527
53.995 11.334174
54.000 11.366861
54.005 11.470934
54.010 11.512213
54.015 11.489904
54.020 11.142646
54.025 11.074502
54.030 11.075291
54.035 10.94859
54.040 11.005094
54.045 11.17267
54.050 11.460409
54.055 11.762994
54.060 11.909822
54.065 11.83688
54.070 12.148075
54.075 11.797884
54.080 11.63847
54.085 11.677244
54.090 11.61847
54.095 11.455702
54.100 11.41538
54.105 11.243663
54.110 11.937571
54.115 12.055198
54.120 11.446245
54.125 11.588944
54.130 11.905764
54.135 12.714249
54.140 12.679812
54.145 12.5467
54.150 12.767304
54.155 13.05209
54.160 13.033087
54.165 12.664966
54.170 11.888494
54.175 11.52925
54.180 11.256868
54.185 11.353498
54.190 11.215755
54.195 11.088505
54.200 11.163008
54.205 11.23172
54.210 11.970712
54.215 12.51244
54.220 12.640821
54.225 12.366815
54.230 12.271148
54.235 12.517179
54.240 12.22946
54.245 12.005737
54.250 11.731326
54.255 11.894218
54.260 12.311357
54.265 12.130828
54.270 12.106928
54.275 11.811683
54.280 11.502911
54.285 11.49996
54.290 11.247214
54.295 11.480125
54.300 11.907043
54.305 11.928987
54.310 12.23211
54.315 12.029486
54.320 12.031907
54.325 11.952858
54.330 11.360247
54.335 10.815854
54.340 10.752863
54.345 11.292184
54.350 11.146883
54.355 10.782957
54.360 10.672393
54.365 10.877178
54.370 11.168797
54.375 11.157721
54.380 10.846413
54.385 10.982526
54.390 11.084789
54.395 11.478374
54.400 11.69524
54.405 11.875961
54.410 11.834822
54.415 12.349586
54.420 12.866043
54.425 12.842943
54.430 12.523681
54.435 12.420405
54.440 12.588689
54.445 12.727849
54.450 12.056046
54.455 11.899292
54.460 11.770458
54.465 11.772621
54.470 12.008841
54.475 11.848095
54.480 11.592787
54.485 11.341027
54.490 11.181589
54.495 11.47665
54.500 11.612785
54.505 10.707466
54.510 10.58389
54.515 10.666764
54.520 10.895725
54.525 10.996219
54.530 11.047445
54.535 10.701079
54.540 10.891428
54.545 10.396082
54.550 10.584325
54.555 10.97942
54.560 11.07172
54.565 10.761851
54.570 10.89734
54.575 11.266806
54.580 11.82224
54.585 11.507808
54.590 11.072756
54.595 10.561144
54.600 11.065564
54.605 11.712754
54.610 11.766955
54.615 12.015483
54.620 12.425641
54.625 12.901296
54.630 13.062459
54.635 12.773479
54.640 12.026023
54.645 11.678976
54.650 11.100972
54.655 10.940734
54.660 11.067241
54.665 11.316339
54.670 11.564723
54.675 11.76708
54.680 11.973894
54.685 12.299356
54.690 12.020661
54.695 11.539197
54.700 11.397412
54.705 11.43646
54.710 11.426077
54.715 12.007453
54.720 12.05696
54.725 12.328943
54.730 12.710321
54.735 12.464718
54.740 12.260187
54.745 11.873023
54.750 11.079726
54.755 10.988779
54.760 11.319252
54.765 11.652116
54.770 12.259541
54.775 12.719886
54.780 13.171412
54.785 13.269242
54.790 13.368486
54.795 13.099717
54.800 12.606807
54.805 11.887147
54.810 11.456084
54.815 11.534407
54.820 11.711522
54.825 11.725342
54.830 11.733414
54.835 12.161862
54.840 12.474748
54.845 12.366772
54.850 12.067058
54.855 11.656039
54.860 11.514787
54.865 11.604577
54.870 12.347994
54.875 12.727878
54.880 12.547752
54.885 12.918119
54.890 13.28525
54.895 13.310602
54.900 12.78757
54.905 11.985204
54.910 12.103063
54.915 12.590879
54.920 12.727747
54.925 12.725073
54.930 12.652225
54.935 13.295004
54.940 13.30238
54.945 13.161432
54.950 12.652286
54.955 12.498088
54.960 12.881572
54.965 12.964549
54.970 12.572301
54.975 12.719237
54.980 12.485225
54.985 12.381767
54.990 12.32307
54.995 11.434319
55.000 11.311142
55.005 11.113074
55.010 11.341105
55.015 11.81327
55.020 12.092677
55.025 12.277703
55.030 12.651338
55.035 12.915019
55.040 12.764361
55.045 12.28048
55.050 12.743728
55.055 12.4528
55.060 11.890743
55.065 12.14625
55.070 12.224836
55.075 12.385054
55.080 12.273507
55.085 12.302322
55.090 12.666113
55.095 12.97679
55.100 12.989033
55.105 12.592763
55.110 12.459823
55.115 12.415784
55.120 12.026207
55.125 11.204837
55.130 11.048629
55.135 11.265167
55.140 11.732071
55.145 11.911509
55.150 11.560467
55.155 11.310052
55.160 11.517241
55.165 11.604033
55.170 11.761347
55.175 11.734777
55.180 11.970117
55.185 12.654399
55.190 13.035333
55.195 13.042953
55.200 13.112685
55.205 13.154387
55.210 12.809803
55.215 12.763235
55.220 13.296199
55.225 13.594408
55.230 13.297899
55.235 12.703424
55.240 12.799006
55.245 13.097836
55.250 13.12569
55.255 12.521377
55.260 12.132332
55.265 12.187623
55.270 12.300058
55.275 11.66264
55.280 11.573079
55.285 11.323484
55.290 11.49476
55.295 11.730712
55.300 11.942507
55.305 12.124691
55.310 12.144825
55.315 12.003373
55.320 12.18163
55.325 12.136927
55.330 12.405031
55.335 12.526598
55.340 12.423717
55.345 12.421073
55.350 12.335037
55.355 11.69737
55.360 11.954974
55.365 12.149041
55.370 12.132833
55.375 12.390283
55.380 13.028758
55.385 13.023966
55.390 13.552674
55.395 13.311917
55.400 13.085871
55.405 13.0838
55.410 12.548848
55.415 11.559141
55.420 11.387019
55.425 10.907669
55.430 10.753749
55.435 10.521849
55.440 10.501933
55.445 10.932173
55.450 11.678539
55.455 12.166783
55.460 12.866988
55.465 12.8258
55.470 12.837829
55.475 12.820377
55.480 12.511204
55.485 12.424171
55.490 12.079088
55.495 12.045729
55.500 12.220567
55.505 12.30129
55.510 12.04403
55.515 11.842003
55.520 12.089986
55.525 11.922295
55.530 11.664246
55.535 12.018869
55.540 12.238741
55.545 12.827931
55.550 12.79945
55.555 12.14188
55.560 12.417678
55.565 12.664417
55.570 12.202881
55.575 11.92532
55.580 12.207432
55.585 12.733741
55.590 13.323929
55.595 12.886241
55.600 12.520178
55.605 12.924255
55.610 13.045643
55.615 12.792407
55.620 12.492746
55.625 12.554053
55.630 13.034328
55.635 12.967546
55.640 13.209423
55.645 13.258044
55.650 12.929158
55.655 13.33458
55.660 13.327286
55.665 13.523623
55.670 13.779549
55.675 13.466094
55.680 12.945287
55.685 13.165814
55.690 12.882537
55.695 12.643488
55.700 12.68846
55.705 12.210777
55.710 12.077952
55.715 12.261971
55.720 12.030972
55.725 11.628395
55.730 11.71143
55.735 11.779361
55.740 11.80052
55.745 12.13909
55.750 12.116058
55.755 12.437734
55.760 13.306643
55.765 13.318138
55.770 13.126143
55.775 13.742208
55.780 13.92541
55.785 14.202831
55.790 14.0412
55.795 13.490984
55.800 13.455751
55.805 13.526635
55.810 13.368547
55.815 13.173094
55.820 13.422306
55.825 13.502981
55.830 13.750594
55.835 13.814012
55.840 13.255114
55.845 12.688513
55.850 12.155211
55.855 11.845827
55.860 11.821593
55.865 11.406836
55.870 11.81062
55.875 11.749624
55.880 12.395803
55.885 13.319243
55.890 13.510712
55.895 13.324452
55.900 13.308068
55.905 13.492453
55.910 14.252121
55.915 14.66705
55.920 14.596656
55.925 15.357882
55.930 15.847887
55.935 16.075623
55.940 15.425149
55.945 14.98488
55.950 14.281751
55.955 14.046544
55.960 13.150099
55.965 13.095495
55.970 12.983531
55.975 13.477516
55.980 13.996913
55.985 14.047777
55.990 13.713638
55.995 13.87509
56.000 13.576917
56.005 13.525854
56.010 13.050305
56.015 12.755756
56.020 12.640955
56.025 12.826816
56.030 12.825679
56.035 13.020069
56.040 13.078896
56.045 12.734587
56.050 12.719683
56.055 12.75074
56.060 12.201723
56.065 12.142182
56.070 11.939857
56.075 12.3241
56.080 12.523082
56.085 12.30064
56.090 12.388465
56.095 12.892675
56.100 13.095807
56.105 12.905717
56.110 13.001398
56.115 13.796582
56.120 13.966538
56.125 13.969108
56.130 13.24417
56.135 13.240458
56.140 13.572167
56.145 13.109227
56.150 12.865932
56.155 13.47959
56.160 13.770314
56.165 14.060544
56.170 14.056686
56.175 14.028159
56.180 13.74956
56.185 13.605708
56.190 13.056875
56.195 12.510467
56.200 12.433359
56.205 12.763536
56.210 12.798335
56.215 12.883074
56.220 12.256308
56.225 12.157697
56.230 12.32487
56.235 12.291973
56.240 12.140209
56.245 12.793059
56.250 13.633896
56.255 14.211658
56.260 14.623584
56.265 14.864001
56.270 14.770231
56.275 14.633241
56.280 14.167734
56.285 13.7503
56.290 13.492628
56.295 13.527995
56.300 13.21067
56.305 13.252701
56.310 13.448235
56.315 13.582144
56.320 13.921472
56.325 13.649992
56.330 13.060329
56.335 13.406518
56.340 13.043302
56.345 12.366908
56.350 11.605317
56.355 11.051714
56.360 11.65988
56.365 12.010768
56.370 12.652886
56.375 12.978323
56.380 13.793804
56.385 13.871119
56.390 14.208697
56.395 14.172888
56.400 14.334602
56.405 14.217378
56.410 14.410006
56.415 13.854391
56.420 13.983715
56.425 14.281483
56.430 14.647643
56.435 14.205205
56.440 13.847984
56.445 13.606566
56.450 14.017898
56.455 14.102911
56.460 13.76201
56.465 13.461871
56.470 13.208993
56.475 12.950541
56.480 12.607996
56.485 12.837848
56.490 13.094765
56.495 12.954377
56.500 12.797833
56.505 13.504642
56.510 13.785552
56.515 14.222703
56.520 13.899559
56.525 13.496299
56.530 13.252003
56.535 13.394587
56.540 12.902963
56.545 12.904414
56.550 12.733774
56.555 12.758774
56.560 12.86026
56.565 13.170167
56.570 13.025058
56.575 13.051488
56.580 13.237623
56.585 13.044581
56.590 13.304268
56.595 13.962157
56.600 13.731491
56.605 13.975728
56.610 13.918444
56.615 14.359078
56.620 14.420411
56.625 14.368014
56.630 13.994617
56.635 13.934487
56.640 13.828889
56.645 13.685372
56.650 12.883731
56.655 13.069428
56.660 12.706713
56.665 12.586251
56.670 12.436262
56.675 12.914973
56.680 13.537071
56.685 13.976679
56.690 14.103205
56.695 14.56282
56.700 15.049692
56.705 15.323671
56.710 14.874523
56.715 14.596801
56.720 14.602777
56.725 14.315571
56.730 14.345824
56.735 14.529563
56.740 14.778875
56.745 14.954548
56.750 15.073751
56.755 14.969585
56.760 15.019027
56.765 14.519145
56.770 14.371456
56.775 14.570004
56.780 14.705913
56.785 14.271599
56.790 14.112308
56.795 14.199066
56.800 14.380151
56.805 13.923981
56.810 13.283446
56.815 13.22879
56.820 13.669519
56.825 13.762868
56.830 13.858643
56.835 14.170249
56.840 14.566884
56.845 14.322496
56.850 14.457532
56.855 14.492785
56.860 14.77558
56.865 14.879628
56.870 14.876373
56.875 15.074822
56.880 15.402656
56.885 15.284259
56.890 14.7083
56.895 14.090496
56.900 13.467672
56.905 13.443232
56.910 12.930877
56.915 13.49612
56.920 13.896563
56.925 14.276994
56.930 14.554004
56.935 14.672778
56.940 14.941429
56.945 15.060914
56.950 14.266652
56.955 14.193352
56.960 13.918515
56.965 13.935356
56.970 14.09681
56.975 13.583611
56.980 13.599625
56.985 13.182274
56.990 13.038697
56.995 13.587029
57.000 13.683373
57.005 13.004258
57.010 13.250432
57.015 13.303668
57.020 13.87644
57.025 14.541258
57.030 14.360935
57.035 14.179646
57.040 14.922739
57.045 14.79119
57.050 15.228228
57.055 14.819929
57.060 14.461087
57.065 14.509812
57.070 14.538284
57.075 14.053208
57.080 14.328794
57.085 14.11217
57.090 13.978568
57.095 13.84355
57.100 13.674383
57.105 13.672505
57.110 14.000702
57.115 13.974988
57.120 14.086129
57.125 14.650326
57.130 15.162095
57.135 15.113528
57.140 14.941275
57.145 15.025423
57.150 15.092997
57.155 15.165147
57.160 14.412468
57.165 14.219109
57.170 14.23517
57.175 14.263381
57.180 14.183847
57.185 14.00056
57.190 13.935317
57.195 14.080384
57.200 14.044228
57.205 14.423075
57.210 14.804094
57.215 14.815033
57.220 14.990924
57.225 15.098813
57.230 14.963456
57.235 15.291716
57.240 15.748003
57.245 15.902502
57.250 15.75654
57.255 15.65133
57.260 15.57475
57.265 16.021765
57.270 15.226426
57.275 14.505951
57.280 14.536047
57.285 14.346329
57.290 14.431216
57.295 15.014546
57.300 15.283666
57.305 15.3873
57.310 15.275461
57.315 14.943536
57.320 15.242028
57.325 15.249036
57.330 15.090133
57.335 15.013092
57.340 15.559251
57.345 15.722435
57.350 15.810036
57.355 16.079525
57.360 15.643048
57.365 15.166978
57.370 14.753221
57.375 14.531056
57.380 15.011217
57.385 15.558474
57.390 15.607692
57.395 15.887559
57.400 16.055368
57.405 16.50629
57.410 16.532589
57.415 15.764407
57.420 15.239613
57.425 15.409855
57.430 15.344369
57.435 15.733502
57.440 15.491246
57.445 15.331237
57.450 15.526795
57.455 16.118389
57.460 16.684805
57.465 17.065308
57.470 17.200886
57.475 17.702789
57.480 18.037195
57.485 18.174837
57.490 17.112135
57.495 16.908924
57.500 16.745975
57.505 15.937061
57.510 15.157121
57.515 14.687085
57.520 14.226384
57.525 13.936461
57.530 13.635646
57.535 13.674509
57.540 13.941928
57.545 13.905673
57.550 13.832884
57.555 14.253514
57.560 14.473838
57.565 14.319611
57.570 13.969759
57.575 14.258391
57.580 14.416553
57.585 14.704374
57.590 15.153477
57.595 15.154004
57.600 15.210189
57.605 15.563643
57.610 15.626748
57.615 15.82162
57.620 15.858596
57.625 15.416522
57.630 15.741512
57.635 16.161736
57.640 16.592724
57.645 16.438696
57.650 16.608736
57.655 17.062481
57.660 17.430296
57.665 17.764948
57.670 17.352545
57.675 16.934088
57.680 16.934254
57.685 16.634769
57.690 15.817499
57.695 15.345773
57.700 14.556787
57.705 14.416739
57.710 14.371083
57.715 14.40731
57.720 14.575633
57.725 14.975018
57.730 15.131009
57.735 15.058785
57.740 15.375174
57.745 15.694018
57.750 15.405955
57.755 15.421552
57.760 15.76444
57.765 16.278353
57.770 16.338354
57.775 16.488403
57.780 16.408087
57.785 17.088299
57.790 17.108032
57.795 16.565992
57.800 15.96729
57.805 16.092379
57.810 15.924382
57.815 16.087805
57.820 16.213156
57.825 16.063326
57.830 16.107388
57.835 16.867838
57.840 16.773417
57.845 16.617277
57.850 16.035793
57.855 15.404949
57.860 15.849257
57.865 15.570597
57.870 15.296561
57.875 15.74942
57.880 16.441874
57.885 16.843359
57.890 17.609831
57.895 17.778128
57.900 18.262159
57.905 18.157875
57.910 18.461641
57.915 18.564238
57.920 18.994188
57.925 18.624903
57.930 18.220274
57.935 18.331053
57.940 18.045061
57.945 16.912289
57.950 16.237644
57.955 15.664282
57.960 15.332702
57.965 15.46367
57.970 16.001711
57.975 16.181856
57.980 16.927807
57.985 17.15976
57.990 17.028887
57.995 17.16671
58.000 17.394938
58.005 16.86167
58.010 17.265722
58.015 17.366287
58.020 17.748447
58.025 18.246283
58.030 18.857311
58.035 19.194832
58.040 19.399652
58.045 19.859886
58.050 20.027824
58.055 19.795193
58.060 19.489048
58.065 18.903728
58.070 17.864479
58.075 16.948309
58.080 15.987054
58.085 15.887544
58.090 16.043022
58.095 15.822746
58.100 15.92668
58.105 16.718609
58.110 16.893923
58.115 17.407578
58.120 17.434301
58.125 18.200197
58.130 18.829109
58.135 19.15469
58.140 19.24398
58.145 19.735878
58.150 19.66091
58.155 19.34528
58.160 18.448347
58.165 18.804857
58.170 19.076002
58.175 19.067934
58.180 19.47934
58.185 19.751869
58.190 19.234636
58.195 19.340103
58.200 19.155241
58.205 18.799498
58.210 18.970003
58.215 19.098295
58.220 19.62071
58.225 20.180861
58.230 19.468161
58.235 19.424986
58.240 19.687943
58.245 19.13331
58.250 18.471905
58.255 17.662445
58.260 17.912807
58.265 19.045433
58.270 18.657246
58.275 18.434317
58.280 19.353458
58.285 20.146196
58.290 21.085228
58.295 21.357965
58.300 21.240355
58.305 21.623072
58.310 21.370321
58.315 20.977224
58.320 21.308977
58.325 20.939394
58.330 20.891855
58.335 21.351276
58.340 22.097977
58.345 22.977591
58.350 23.878916
58.355 24.400259
58.360 25.169109
58.365 25.378544
58.370 24.897688
58.375 24.999249
58.380 25.372845
58.385 25.057108
58.390 25.191051
58.395 25.778641
58.400 26.276682
58.405 27.276789
58.410 27.428347
58.415 26.857424
58.420 26.40354
58.425 25.926661
58.430 25.187542
58.435 25.457975
58.440 25.914421
58.445 26.164116
58.450 26.971609
