!@!!GADDS PLOTSO FILE: Chi integration type
!@!!Title/SampleName: map-15
!@!!Comment: ?
!@!!User: Bruker Instrument Administrator
!@!!Site: University of Illinois Chicago
!@!!Frame: map-15_01_000.gfrm
!@!!Wavelengths    1.54184   1.54056   1.54439
!@!!Frame angles: 2Theta: 63.000 Omega: 50.000 Phi: 0.000 Chi: 90.000
!@!!Integration range: 2Theta: 53.000 to 73.000  Gamma: -105.000 to -75.000
!@!!Integration method: bin normalized
!@!N
!@!SS
!@!M
!@!L 0.0 0.0 0.0 0.0
!@!XDegrees
!@!YCounts
53.000 7.178746
53.005 6.999924
53.010 6.961434
53.015 7.004568
53.020 6.761063
53.025 6.532681
53.030 6.834119
53.035 6.982546
53.040 7.129381
53.045 7.087057
53.050 7.135584
53.055 7.441379
53.060 7.606131
53.065 7.294974
53.070 7.292685
53.075 7.08023
53.080 6.787139
53.085 6.838279
53.090 6.596103
53.095 6.824183
53.100 6.932627
53.105 7.278565
53.110 7.681171
53.115 7.663329
53.120 7.484293
53.125 7.575349
53.130 7.471776
53.135 7.378126
53.140 7.13957
53.145 6.996984
53.150 6.740828
53.155 6.88019
53.160 6.879891
53.165 6.698123
53.170 7.159034
53.175 7.318591
53.180 7.6621
53.185 7.89101
53.190 7.520101
53.195 7.616979
53.200 7.642725
53.205 7.258128
53.210 7.406518
53.215 7.190852
53.220 7.192933
53.225 7.509072
53.230 7.319232
53.235 7.337314
53.240 7.305315
53.245 6.731959
53.250 6.781757
53.255 6.566376
53.260 7.078964
53.265 7.302264
53.270 7.076341
53.275 7.243107
53.280 7.675622
53.285 7.647723
53.290 7.681092
53.295 7.540418
53.300 7.392296
53.305 7.260377
53.310 7.447787
53.315 7.259405
53.320 7.499113
53.325 7.459089
53.330 7.455678
53.335 7.82924
53.340 8.082012
53.345 8.060221
53.350 8.273065
53.355 8.798846
53.360 9.068991
53.365 9.442828
53.370 9.607654
53.375 9.227913
53.380 9.149768
53.385 8.904995
53.390 8.176929
53.395 7.738769
53.400 7.406013
53.405 7.108805
53.410 7.081687
53.415 7.063935
53.420 7.021099
53.425 7.34434
53.430 7.151368
53.435 7.012315
53.440 7.093632
53.445 7.089115
53.450 7.20994
53.455 7.568624
53.460 7.510363
53.465 7.674108
53.470 7.606149
53.475 7.472234
53.480 7.318515
53.485 7.633523
53.490 7.32635
53.495 7.085505
53.500 6.938965
53.505 7.04939
53.510 7.388703
53.515 7.31903
53.520 6.873827
53.525 7.115622
53.530 7.15124
53.535 7.436589
53.540 7.402574
53.545 7.148868
53.550 7.185378
53.555 7.283424
53.560 7.353107
53.565 7.527259
53.570 7.267889
53.575 7.122293
53.580 7.251141
53.585 7.670879
53.590 7.568985
53.595 7.879954
53.600 7.937864
53.605 8.246923
53.610 8.438684
53.615 8.463751
53.620 8.166164
53.625 8.032141
53.630 7.676767
53.635 7.642588
53.640 7.575284
53.645 7.501482
53.650 7.526953
53.655 7.695364
53.660 7.681111
53.665 7.25352
53.670 7.101732
53.675 7.067543
53.680 6.985019
53.685 7.310853
53.690 7.694541
53.695 8.380149
53.700 8.821486
53.705 9.026928
53.710 9.021818
53.715 9.213574
53.720 9.270314
53.725 9.112587
53.730 8.528405
53.735 8.699532
53.740 8.639032
53.745 8.74946
53.750 8.622303
53.755 8.404406
53.760 8.679259
53.765 8.782437
53.770 8.926759
53.775 9.058248
53.780 9.009255
53.785 8.860808
53.790 8.666393
53.795 9.057263
53.800 9.357624
53.805 8.989732
53.810 8.763381
53.815 9.102805
53.820 9.085004
53.825 9.159879
53.830 8.57935
53.835 8.508422
53.840 8.623536
53.845 8.727118
53.850 8.457171
53.855 8.445514
53.860 8.168143
53.865 8.231947
53.870 8.121552
53.875 7.929976
53.880 7.636178
53.885 7.444924
53.890 7.73251
53.895 7.797567
53.900 7.791548
53.905 7.907145
53.910 8.090817
53.915 8.625053
53.920 8.961647
53.925 8.836982
53.930 8.798443
53.935 8.558055
53.940 8.440494
53.945 8.327646
53.950 8.317436
53.955 7.921329
53.960 7.632978
53.965 7.445389
53.970 7.351724
53.975 7.436612
53.980 7.58236
53.985 7.258351
53.990 7.523861
53.995 7.764845
54.000 8.089109
54.005 8.234107
54.010 8.105056
54.015 8.131897
54.020 8.324678
54.025 8.219728
54.030 8.208567
54.035 8.434077
54.040 8.476629
54.045 8.337461
54.050 8.402249
54.055 8.355827
54.060 8.329224
54.065 8.190312
54.070 8.082555
54.075 7.947925
54.080 8.080681
54.085 7.719196
54.090 7.796088
54.095 8.023712
54.100 8.18504
54.105 8.469376
54.110 8.407726
54.115 8.476571
54.120 8.645403
54.125 8.593768
54.130 8.522204
54.135 8.238082
54.140 7.892875
54.145 7.810168
54.150 7.70295
54.155 8.060549
54.160 7.963396
54.165 8.084613
54.170 8.281239
54.175 8.396252
54.180 8.566303
54.185 8.65002
54.190 8.499321
54.195 8.661145
54.200 8.804644
54.205 9.083905
54.210 9.106095
54.215 8.944409
54.220 8.64775
54.225 8.922112
54.230 9.009656
54.235 8.859253
54.240 8.677713
54.245 8.739806
54.250 9.040088
54.255 9.407226
54.260 9.076399
54.265 8.663342
54.270 8.554214
54.275 8.908682
54.280 9.500633
54.285 9.399066
54.290 9.184649
54.295 9.124472
54.300 9.28726
54.305 9.671579
54.310 9.044001
54.315 8.556259
54.320 8.438327
54.325 8.46394
54.330 8.465447
54.335 8.33185
54.340 8.441593
54.345 8.712799
54.350 8.578418
54.355 8.141328
54.360 8.315147
54.365 8.654242
54.370 8.798378
54.375 8.428788
54.380 8.407204
54.385 9.130509
54.390 9.466824
54.395 9.300226
54.400 9.199405
54.405 9.195655
54.410 9.444037
54.415 9.439699
54.420 9.16055
54.425 9.017773
54.430 9.23319
54.435 9.408175
54.440 9.577892
54.445 9.420668
54.450 9.74143
54.455 9.858335
54.460 9.825811
54.465 9.211412
54.470 8.961472
54.475 8.66082
54.480 8.50594
54.485 8.1985
54.490 8.421132
54.495 8.720233
54.500 9.078879
54.505 8.867727
54.510 9.255773
54.515 9.605531
54.520 9.926459
54.525 9.680477
54.530 9.38715
54.535 9.376708
54.540 8.991344
54.545 8.517932
54.550 8.283238
54.555 7.891215
54.560 8.238665
54.565 8.379539
54.570 8.607367
54.575 8.725692
54.580 8.525334
54.585 8.367196
54.590 8.209778
54.595 7.618042
54.600 7.173318
54.605 6.895801
54.610 7.173902
54.615 7.595119
54.620 8.181227
54.625 8.522725
54.630 9.039981
54.635 9.537815
54.640 9.596293
54.645 9.53614
54.650 9.113911
54.655 9.025516
54.660 8.966323
54.665 9.117172
54.670 9.165938
54.675 9.38576
54.680 9.562144
54.685 9.659873
54.690 9.693106
54.695 9.738435
54.700 9.339346
54.705 9.309273
54.710 9.232194
54.715 9.085016
54.720 9.290994
54.725 9.165416
54.730 9.280153
54.735 9.468936
54.740 9.295312
54.745 9.46182
54.750 9.308034
54.755 9.083825
54.760 9.278432
54.765 9.104042
54.770 9.151621
54.775 9.267381
54.780 9.23578
54.785 9.821109
54.790 9.681949
54.795 9.42486
54.800 9.541842
54.805 9.707111
54.810 9.976392
54.815 9.609015
54.820 9.02627
54.825 9.012327
54.830 9.015151
54.835 8.700073
54.840 8.618518
54.845 8.655437
54.850 8.776151
54.855 8.872279
54.860 8.926132
54.865 9.27844
54.870 9.831427
54.875 9.8835
54.880 10.137902
54.885 10.782456
54.890 10.788595
54.895 10.852035
54.900 10.879594
54.905 10.4248
54.910 10.520687
54.915 10.494651
54.920 10.762102
54.925 11.000144
54.930 10.701853
54.935 10.716034
54.940 11.029749
54.945 11.212453
54.950 10.732098
54.955 10.160236
54.960 10.161512
54.965 10.006096
54.970 9.680861
54.975 9.496059
54.980 9.256474
54.985 9.665479
54.990 10.138072
54.995 10.242463
55.000 10.539178
55.005 10.428546
55.010 10.580827
55.015 10.299589
55.020 9.927201
55.025 9.853098
55.030 9.833218
55.035 10.01792
55.040 9.751862
55.045 9.627863
55.050 9.833542
55.055 9.928178
55.060 9.838805
55.065 9.504573
55.070 9.068827
55.075 9.200519
55.080 8.755466
55.085 8.333459
55.090 8.500992
55.095 8.385546
55.100 8.89818
55.105 9.202836
55.110 9.336173
55.115 9.712841
55.120 9.842493
55.125 9.905713
55.130 9.950808
55.135 9.545965
55.140 9.420442
55.145 9.671467
55.150 9.568062
55.155 9.405825
55.160 9.650271
55.165 9.47001
55.170 9.613388
55.175 9.825986
55.180 9.731091
55.185 10.099412
55.190 10.176363
55.195 9.650152
55.200 9.74194
55.205 9.563708
55.210 9.424221
55.215 9.230136
55.220 8.886593
55.225 8.501039
55.230 8.717737
55.235 8.781363
55.240 9.044492
55.245 8.882123
55.250 8.833348
55.255 9.106709
55.260 9.54402
55.265 9.955514
55.270 10.009315
55.275 9.797134
55.280 10.355918
55.285 10.548364
55.290 10.358206
55.295 10.249508
55.300 9.666677
55.305 10.256098
55.310 10.148459
55.315 9.913334
55.320 9.673812
55.325 9.715625
55.330 10.278522
55.335 10.55239
55.340 10.377959
55.345 10.528978
55.350 10.592898
55.355 10.664031
55.360 10.907595
55.365 10.400472
55.370 9.819215
55.375 9.522308
55.380 9.868606
55.385 9.712871
55.390 9.69768
55.395 10.078458
55.400 10.293194
55.405 10.603536
55.410 10.655345
55.415 10.322749
55.420 10.519192
55.425 10.892839
55.430 11.19682
55.435 11.48183
55.440 11.576151
55.445 11.468899
55.450 11.309189
55.455 11.370544
55.460 10.752256
55.465 9.914026
55.470 9.651587
55.475 9.657951
55.480 9.918006
55.485 9.927368
55.490 9.881968
55.495 9.741083
55.500 9.596002
55.505 10.012263
55.510 10.060102
55.515 9.916833
55.520 9.594536
55.525 9.390661
55.530 9.717861
55.535 10.181644
55.540 9.939434
55.545 10.027521
55.550 10.243462
55.555 10.887079
55.560 11.189641
55.565 11.010015
55.570 10.810311
55.575 10.403631
55.580 10.105044
55.585 9.73606
55.590 9.419766
55.595 9.369239
55.600 9.100224
55.605 9.233989
55.610 9.407997
55.615 9.458672
55.620 9.524197
55.625 9.855961
55.630 9.969601
55.635 10.120577
55.640 10.158031
55.645 10.182432
55.650 10.827166
55.655 10.689148
55.660 10.019997
55.665 9.881196
55.670 9.939604
55.675 9.844945
55.680 10.104041
55.685 10.021306
55.690 10.618508
55.695 11.23416
55.700 11.142674
55.705 11.446658
55.710 11.528518
55.715 11.534192
55.720 11.454361
55.725 11.16257
55.730 11.202504
55.735 11.123357
55.740 10.686456
55.745 10.484937
55.750 9.775591
55.755 9.596647
55.760 9.472927
55.765 9.470693
55.770 9.521883
55.775 9.778143
55.780 9.75193
55.785 10.173891
55.790 10.320801
55.795 10.282154
55.800 10.139936
55.805 10.516576
55.810 10.969239
55.815 11.351656
55.820 11.841208
55.825 12.22664
55.830 12.660387
55.835 12.985615
55.840 12.69145
55.845 12.465828
55.850 12.16602
55.855 12.238946
55.860 11.968868
55.865 11.595361
55.870 11.919813
55.875 12.215005
55.880 11.676463
55.885 11.471711
55.890 10.624773
55.895 10.565489
55.900 10.372008
55.905 9.880213
55.910 9.967897
55.915 10.344174
55.920 10.26478
55.925 10.37484
55.930 10.323673
55.935 10.484095
55.940 10.294255
55.945 10.508743
55.950 10.375927
55.955 10.585566
55.960 10.593144
55.965 10.214384
55.970 10.411982
55.975 10.416839
55.980 10.126824
55.985 9.886006
55.990 9.740486
55.995 10.017137
56.000 10.213345
56.005 9.442377
56.010 9.291233
56.015 9.636078
56.020 9.899944
56.025 9.878036
56.030 9.836194
56.035 10.221549
56.040 10.097016
56.045 9.397787
56.050 8.959261
56.055 9.370082
56.060 9.611392
56.065 9.338466
56.070 8.950631
56.075 9.557602
56.080 10.406823
56.085 10.510144
56.090 10.092113
56.095 9.916834
56.100 9.996405
56.105 10.590199
56.110 10.046847
56.115 9.790229
56.120 9.93084
56.125 9.947254
56.130 11.055938
56.135 11.575583
56.140 11.58791
56.145 11.932666
56.150 11.793211
56.155 11.727636
56.160 11.585772
56.165 10.646308
56.170 10.652445
56.175 10.611913
56.180 10.414742
56.185 10.40064
56.190 10.578792
56.195 10.447783
56.200 10.52451
56.205 10.601763
56.210 11.192874
56.215 11.817358
56.220 12.198546
56.225 12.419059
56.230 12.781907
56.235 12.359138
56.240 12.188248
56.245 12.389994
56.250 12.145128
56.255 12.399779
56.260 12.938504
56.265 13.046428
56.270 13.249825
56.275 13.026924
56.280 12.560821
56.285 12.83317
56.290 12.737833
56.295 12.556883
56.300 12.503027
56.305 12.533857
56.310 12.335578
56.315 12.412054
56.320 11.947741
56.325 11.090142
56.330 10.755692
56.335 10.819398
56.340 11.06214
56.345 11.443314
56.350 11.082909
56.355 11.396666
56.360 11.733053
56.365 11.529944
56.370 11.26219
56.375 11.352588
56.380 11.731589
56.385 11.899424
56.390 11.684437
56.395 11.611389
56.400 11.85968
56.405 11.895884
56.410 11.300721
56.415 10.906473
56.420 11.218368
56.425 11.902632
56.430 11.83146
56.435 11.506274
56.440 11.344528
56.445 11.592688
56.450 11.270483
56.455 11.06451
56.460 10.854348
56.465 10.927268
56.470 10.874362
56.475 10.94385
56.480 10.773192
56.485 10.970645
56.490 11.171224
56.495 11.143013
56.500 11.496793
56.505 11.724339
56.510 11.4482
56.515 11.586211
56.520 11.73354
56.525 11.560089
56.530 11.425799
56.535 11.912364
56.540 12.296521
56.545 12.822467
56.550 13.037632
56.555 12.810317
56.560 12.357562
56.565 12.048779
56.570 11.280765
56.575 10.860969
56.580 10.965734
56.585 11.06298
56.590 11.398701
56.595 11.881979
56.600 11.896839
56.605 12.34671
56.610 12.771175
56.615 12.945245
56.620 12.585857
56.625 11.817132
56.630 11.565337
56.635 12.031378
56.640 11.819599
56.645 11.924828
56.650 11.658
56.655 11.843288
56.660 12.198374
56.665 12.016093
56.670 11.834916
56.675 11.863891
56.680 11.475996
56.685 11.016275
56.690 11.38003
56.695 11.483463
56.700 11.503295
56.705 11.609088
56.710 11.787614
56.715 11.666023
56.720 11.886835
56.725 11.750272
56.730 12.06265
56.735 12.72801
56.740 12.871784
56.745 12.412251
56.750 12.482904
56.755 12.603588
56.760 12.632316
56.765 12.606176
56.770 11.821594
56.775 11.520806
56.780 11.695938
56.785 12.077997
56.790 11.75428
56.795 11.562748
56.800 11.33341
56.805 11.622854
56.810 11.813563
56.815 11.963016
56.820 11.848619
56.825 12.178073
56.830 12.412583
56.835 12.716854
56.840 12.584948
56.845 12.323697
56.850 12.384628
56.855 12.609261
56.860 13.179015
56.865 13.218041
56.870 13.158108
56.875 13.228543
56.880 13.124846
56.885 12.859141
56.890 12.764773
56.895 12.240375
56.900 12.085679
56.905 11.796903
56.910 11.969429
56.915 12.598735
56.920 12.470954
56.925 12.328159
56.930 12.491687
56.935 12.467084
56.940 13.21052
56.945 13.482052
56.950 13.560711
56.955 14.00422
56.960 13.977592
56.965 14.037156
56.970 13.995049
56.975 13.316809
56.980 13.365182
56.985 13.154739
56.990 12.819845
56.995 12.866743
57.000 13.106306
57.005 13.177464
57.010 13.257495
57.015 13.000719
57.020 12.972108
57.025 13.315842
57.030 13.272859
57.035 12.87156
57.040 12.885903
57.045 12.87228
57.050 12.642133
57.055 12.658294
57.060 12.264651
57.065 12.519196
57.070 12.397514
57.075 12.493758
57.080 12.272426
57.085 12.351995
57.090 11.852849
57.095 11.756159
57.100 11.488233
57.105 11.956966
57.110 12.170388
57.115 12.058661
57.120 12.077264
57.125 12.696258
57.130 13.009589
57.135 12.804911
57.140 12.739448
57.145 12.822073
57.150 13.101191
57.155 12.903356
57.160 12.98149
57.165 13.150805
57.170 13.51477
57.175 13.522656
57.180 13.087997
57.185 12.837145
57.190 12.877391
57.195 12.65063
57.200 12.513304
57.205 12.441433
57.210 12.395394
57.215 12.318206
57.220 12.620734
57.225 12.355201
57.230 12.029548
57.235 11.765749
57.240 11.827638
57.245 11.637212
57.250 11.648712
57.255 11.438435
57.260 12.042962
57.265 12.464795
57.270 12.606593
57.275 12.361596
57.280 12.096326
57.285 12.465973
57.290 12.235692
57.295 11.960225
57.300 11.826224
57.305 11.723175
57.310 12.102864
57.315 12.374229
57.320 12.048986
57.325 12.166897
57.330 12.149358
57.335 12.207065
57.340 12.101337
57.345 11.620752
57.350 11.278159
57.355 11.90207
57.360 12.144461
57.365 12.078218
57.370 12.033763
57.375 12.36548
57.380 12.410675
57.385 12.582994
57.390 12.40924
57.395 12.555049
57.400 12.843119
57.405 12.905759
57.410 12.838257
57.415 12.904959
57.420 13.114824
57.425 12.982106
57.430 12.82009
57.435 12.747151
57.440 12.516096
57.445 12.175467
57.450 12.382581
57.455 12.219214
57.460 11.884192
57.465 11.647257
57.470 11.974004
57.475 12.584891
57.480 12.771083
57.485 12.651937
57.490 12.834544
57.495 13.668259
57.500 13.794442
57.505 13.038839
57.510 12.866932
57.515 13.223331
57.520 13.619474
57.525 13.876945
57.530 13.495365
57.535 13.755055
57.540 14.43285
57.545 14.159779
57.550 14.506779
57.555 14.742493
57.560 14.484973
57.565 14.424664
57.570 14.239854
57.575 14.247553
57.580 14.56169
57.585 13.883506
57.590 13.254534
57.595 13.330239
57.600 13.482958
57.605 13.324401
57.610 12.472921
57.615 11.953456
57.620 12.158727
57.625 12.639
57.630 12.257643
57.635 11.862472
57.640 11.836905
57.645 12.501714
57.650 12.816666
57.655 13.123196
57.660 13.014352
57.665 12.698352
57.670 12.517272
57.675 12.484806
57.680 12.596162
57.685 12.177896
57.690 11.530535
57.695 11.269804
57.700 11.778284
57.705 12.015134
57.710 12.421949
57.715 12.476771
57.720 12.963119
57.725 12.867748
57.730 13.548939
57.735 13.538036
57.740 13.403928
57.745 13.336888
57.750 13.317217
57.755 12.948133
57.760 13.210918
57.765 12.950424
57.770 12.895288
57.775 13.501117
57.780 13.579134
57.785 13.515132
57.790 13.589985
57.795 13.867099
57.800 13.827758
57.805 13.653512
57.810 13.743349
57.815 13.737104
57.820 13.866961
57.825 13.917229
57.830 13.228133
57.835 13.089581
57.840 13.345733
57.845 12.982384
57.850 12.717681
57.855 12.757682
57.860 12.771378
57.865 13.102982
57.870 13.0136
57.875 12.723748
57.880 12.678782
57.885 12.415907
57.890 12.500761
57.895 13.066877
57.900 13.568484
57.905 13.662293
57.910 13.576423
57.915 13.385342
57.920 13.171423
57.925 12.987372
57.930 12.750055
57.935 12.398074
57.940 12.230652
57.945 11.620702
57.950 11.443798
57.955 11.673912
57.960 11.443814
57.965 10.936646
57.970 10.540478
57.975 10.518675
57.980 11.677886
57.985 12.524539
57.990 12.353377
57.995 12.322833
58.000 12.608094
58.005 13.218452
58.010 14.036817
58.015 13.672799
58.020 13.112713
58.025 13.902085
58.030 14.332371
58.035 14.4146
58.040 14.41486
58.045 14.142423
58.050 13.893603
58.055 13.656413
58.060 13.086711
58.065 12.705537
58.070 12.958466
58.075 13.291953
58.080 12.9163
58.085 12.731173
58.090 13.155072
58.095 13.64841
58.100 14.064934
58.105 14.19484
58.110 13.927078
58.115 14.502034
58.120 15.092267
58.125 14.53088
58.130 14.085423
58.135 13.731415
58.140 13.217157
58.145 12.822292
58.150 12.989583
58.155 13.297832
58.160 13.799556
58.165 13.830503
58.170 13.421386
58.175 13.197417
58.180 13.061093
58.185 12.904522
58.190 12.756486
58.195 12.341541
58.200 12.419951
58.205 13.033554
58.210 13.512371
58.215 13.264093
58.220 13.333082
58.225 13.191595
58.230 13.311919
58.235 12.754468
58.240 12.316695
58.245 11.969301
58.250 12.161237
58.255 11.988945
58.260 11.59119
58.265 12.224383
58.270 13.67432
58.275 14.155648
58.280 14.734496
58.285 14.523541
58.290 14.617211
58.295 14.779044
58.300 14.539768
58.305 13.81757
58.310 13.56846
58.315 13.281515
58.320 13.61639
58.325 13.907809
58.330 14.283438
58.335 14.186967
58.340 14.109705
58.345 14.065907
58.350 14.199247
58.355 14.277406
58.360 14.017276
58.365 14.135625
58.370 14.178722
58.375 14.371207
58.380 14.340172
58.385 14.327851
58.390 14.180828
58.395 14.101195
58.400 13.90464
58.405 14.348536
58.410 14.454379
58.415 14.474242
58.420 14.098721
58.425 13.509013
58.430 13.676283
58.435 13.987662
58.440 13.336771
58.445 13.127782
58.450 13.160824
58.455 13.422695
58.460 13.917222
58.465 14.024374
58.470 14.123001
58.475 14.568697
58.480 14.392426
58.485 14.156377
58.490 14.47732
58.495 14.293684
58.500 13.576643
58.505 13.345918
58.510 13.495884
58.515 13.497307
58.520 13.477595
58.525 12.729416
58.530 12.939907
58.535 13.068981
58.540 13.12184
58.545 13.299095
58.550 13.54247
58.555 14.057137
58.560 14.466961
58.565 14.29172
58.570 14.184628
58.575 13.574903
