!@!!GADDS PLOTSO FILE: Chi integration type
!@!!Title/SampleName: map-1d
!@!!Comment: ?
!@!!User: Bruker Instrument Administrator
!@!!Site: University of Illinois Chicago
!@!!Frame: map-1d_01_000.gfrm
!@!!Wavelengths    1.54184   1.54056   1.54439
!@!!Frame angles: 2Theta: 63.000 Omega: 50.000 Phi: 0.000 Chi: 90.000
!@!!Integration range: 2Theta: 53.000 to 73.000  Gamma: -105.000 to -75.000
!@!!Integration method: bin normalized
!@!N
!@!SS
!@!M
!@!L 0.0 0.0 0.0 0.0
!@!XDegrees
!@!YCounts
53.000 8.369353
53.005 8.48003
53.010 8.291979
53.015 8.169826
53.020 8.215731
53.025 8.028109
53.030 7.56268
53.035 7.786747
53.040 7.982871
53.045 8.59218
53.050 8.881335
53.055 9.171011
53.060 9.347999
53.065 9.114268
53.070 8.953876
53.075 8.67471
53.080 8.69637
53.085 9.327763
53.090 9.256526
53.095 9.516704
53.100 9.375621
53.105 9.716727
53.110 9.787017
53.115 9.412132
53.120 9.042261
53.125 8.579004
53.130 8.563094
53.135 8.587116
53.140 8.446876
53.145 8.377385
53.150 8.059582
53.155 8.017733
53.160 8.1133
53.165 7.969137
53.170 7.971254
53.175 7.908861
53.180 8.26485
53.185 8.462504
53.190 8.721384
53.195 8.994425
53.200 9.249445
53.205 9.290005
53.210 9.307472
53.215 8.907299
53.220 8.765833
53.225 8.447033
53.230 8.412125
53.235 8.531243
53.240 8.246611
53.245 7.857594
53.250 7.972841
53.255 8.354282
53.260 8.267532
53.265 8.310774
53.270 8.299543
53.275 8.526657
53.280 8.627337
53.285 8.769389
53.290 9.181117
53.295 9.657031
53.300 9.638206
53.305 9.246267
53.310 9.405729
53.315 9.291076
53.320 9.049229
53.325 8.437387
53.330 8.866448
53.335 9.21268
53.340 9.736385
53.345 10.211643
53.350 10.754714
53.355 10.786661
53.360 10.481162
53.365 9.731457
53.370 9.872865
53.375 9.737448
53.380 9.312375
53.385 8.868983
53.390 9.084824
53.395 9.677097
53.400 9.541591
53.405 9.265863
53.410 9.471865
53.415 9.595943
53.420 9.577967
53.425 9.482527
53.430 9.492987
53.435 9.600208
53.440 9.351052
53.445 8.842202
53.450 8.804568
53.455 9.052259
53.460 8.850814
53.465 8.519471
53.470 8.472198
53.475 9.000924
53.480 9.602418
53.485 9.856346
53.490 9.961468
53.495 10.338946
53.500 10.383814
53.505 10.072716
53.510 9.357002
53.515 8.932593
53.520 8.774425
53.525 9.298683
53.530 9.55951
53.535 9.660465
53.540 9.765532
53.545 9.986157
53.550 10.05092
53.555 9.789801
53.560 9.472455
53.565 9.552086
53.570 10.015987
53.575 10.298394
53.580 10.615997
53.585 10.695475
53.590 10.536215
53.595 10.152143
53.600 9.909936
53.605 9.580482
53.610 9.198148
53.615 8.902308
53.620 8.987574
53.625 8.69792
53.630 8.478862
53.635 8.197208
53.640 7.954515
53.645 7.87132
53.650 7.703646
53.655 7.651303
53.660 8.18801
53.665 8.685905
53.670 8.90661
53.675 9.681963
53.680 10.096618
53.685 10.063374
53.690 10.486896
53.695 10.187523
53.700 9.861623
53.705 10.028592
53.710 9.789687
53.715 9.671816
53.720 9.602124
53.725 9.386649
53.730 9.387863
53.735 9.842715
53.740 9.776343
53.745 9.986198
53.750 10.299779
53.755 10.538203
53.760 10.972798
53.765 11.60772
53.770 11.569715
53.775 11.33808
53.780 11.32317
53.785 11.467254
53.790 11.3001
53.795 11.17403
53.800 10.908608
53.805 11.185092
53.810 11.176426
53.815 10.936518
53.820 10.957561
53.825 11.041842
53.830 10.882284
53.835 10.446107
53.840 10.216121
53.845 9.74542
53.850 9.424556
53.855 9.087087
53.860 9.307569
53.865 9.243357
53.870 9.386575
53.875 9.626785
53.880 9.887268
53.885 9.883611
53.890 9.343427
53.895 8.54834
53.900 8.391088
53.905 8.515821
53.910 8.812748
53.915 9.266237
53.920 9.362141
53.925 9.653044
53.930 10.163204
53.935 10.511894
53.940 10.279031
53.945 9.986233
53.950 9.731931
53.955 9.909402
53.960 9.674672
53.965 9.431814
53.970 9.362224
53.975 9.206059
53.980 8.68539
53.985 8.297956
53.990 8.397285
53.995 8.457784
54.000 8.162118
54.005 8.151795
54.010 8.67571
54.015 8.96069
54.020 9.077816
54.025 8.913634
54.030 9.300925
54.035 9.122187
54.040 8.747624
54.045 8.988731
54.050 9.349477
54.055 9.751612
54.060 9.954748
54.065 10.161612
54.070 10.615124
54.075 10.388681
54.080 10.034189
54.085 9.66426
54.090 9.555802
54.095 9.729689
54.100 9.783103
54.105 10.054033
54.110 9.874093
54.115 9.592388
54.120 10.173162
54.125 10.478333
54.130 9.994007
54.135 9.853253
54.140 9.878368
54.145 10.63181
54.150 10.694638
54.155 10.543779
54.160 10.157762
54.165 10.188358
54.170 10.003538
54.175 9.667813
54.180 9.467837
54.185 9.24363
54.190 8.929994
54.195 9.562148
54.200 10.212347
54.205 10.274626
54.210 10.128567
54.215 9.982383
54.220 9.914178
54.225 9.711287
54.230 8.884674
54.235 8.649922
54.240 9.240685
54.245 9.636997
54.250 10.240771
54.255 10.877654
54.260 11.171408
54.265 11.459269
54.270 11.255347
54.275 10.838953
54.280 10.609682
54.285 10.239661
54.290 10.076207
54.295 10.232252
54.300 10.239548
54.305 10.405379
54.310 10.58962
54.315 11.185882
54.320 11.331956
54.325 11.416144
54.330 11.709579
54.335 11.84573
54.340 11.791658
54.345 11.719647
54.350 10.9955
54.355 11.102135
54.360 11.376031
54.365 10.914765
54.370 10.93679
54.375 10.752931
54.380 10.452309
54.385 10.371898
54.390 10.224316
54.395 9.983729
54.400 10.155308
54.405 10.054195
54.410 10.54847
54.415 11.380952
54.420 11.622951
54.425 11.384315
54.430 11.298083
54.435 11.533139
54.440 11.401029
54.445 11.141011
54.450 10.805743
54.455 10.348219
54.460 10.685908
54.465 10.799427
54.470 10.746342
54.475 10.833838
54.480 10.370192
54.485 10.227774
54.490 10.14061
54.495 10.039732
54.500 9.751254
54.505 9.761703
54.510 9.901963
54.515 10.273801
54.520 10.948596
54.525 10.947888
54.530 10.974344
54.535 11.415291
54.540 11.427835
54.545 11.494957
54.550 11.786957
54.555 11.657777
54.560 11.785648
54.565 11.519257
54.570 11.214498
54.575 11.057294
54.580 11.242908
54.585 11.387502
54.590 11.813497
54.595 11.471689
54.600 11.641829
54.605 12.080344
54.610 11.852618
54.615 11.394573
54.620 10.961313
54.625 10.633476
54.630 10.899673
54.635 10.376316
54.640 10.055014
54.645 10.52319
54.650 10.68437
54.655 10.563893
54.660 10.620575
54.665 10.591722
54.670 11.032121
54.675 10.92477
54.680 10.899946
54.685 10.908809
54.690 11.071869
54.695 11.032837
54.700 11.071185
54.705 10.891418
54.710 10.476302
54.715 10.01114
54.720 9.7662
54.725 9.956509
54.730 10.021832
54.735 10.490528
54.740 11.409713
54.745 11.957831
54.750 11.914318
54.755 12.213142
54.760 12.519603
54.765 12.614151
54.770 11.782313
54.775 11.340899
54.780 11.117167
54.785 10.869744
54.790 11.104555
54.795 10.643256
54.800 10.430792
54.805 10.5166
54.810 10.906723
54.815 11.426317
54.820 11.332845
54.825 11.26142
54.830 11.5498
54.835 11.572095
54.840 11.588923
54.845 11.167848
54.850 11.011593
54.855 11.308937
54.860 10.791829
54.865 10.376911
54.870 10.33398
54.875 9.743471
54.880 9.424109
54.885 9.604749
54.890 9.402349
54.895 9.956411
54.900 10.371063
54.905 10.671451
54.910 11.32343
54.915 11.69865
54.920 11.127206
54.925 11.260914
54.930 10.699809
54.935 10.394881
54.940 9.890433
54.945 9.977843
54.950 10.367991
54.955 10.474179
54.960 10.275903
54.965 10.325125
54.970 10.328678
54.975 10.462224
54.980 9.988692
54.985 9.937136
54.990 9.89107
54.995 9.472663
55.000 9.593575
55.005 10.090271
55.010 10.10957
55.015 10.25966
55.020 10.031585
55.025 10.288879
55.030 10.511652
55.035 10.517544
55.040 9.875995
55.045 10.209559
55.050 10.289514
55.055 10.478406
55.060 10.599109
55.065 10.990117
55.070 11.36064
55.075 11.682855
55.080 11.427826
55.085 11.532969
55.090 11.288644
55.095 11.409517
55.100 11.773124
55.105 11.515269
55.110 11.729565
55.115 11.768974
55.120 11.661283
55.125 11.816925
55.130 11.792371
55.135 11.418261
55.140 11.926041
55.145 11.86162
55.150 11.637321
55.155 11.431361
55.160 10.983363
55.165 11.204014
55.170 11.318619
55.175 11.338479
55.180 11.466162
55.185 12.006108
55.190 12.104509
55.195 12.331868
55.200 11.944657
55.205 11.306071
55.210 10.842878
55.215 10.574812
55.220 10.339814
55.225 10.68557
55.230 10.646446
55.235 10.955478
55.240 11.305772
55.245 11.717985
55.250 11.768221
55.255 11.741448
55.260 11.185827
55.265 11.181445
55.270 11.106897
55.275 11.18035
55.280 11.31727
55.285 11.45984
55.290 11.564691
55.295 11.431745
55.300 11.29412
55.305 11.183177
55.310 11.297496
55.315 11.024316
55.320 10.951358
55.325 10.928806
55.330 11.155634
55.335 11.084417
55.340 10.82856
55.345 10.52577
55.350 10.49544
55.355 10.395347
55.360 10.789041
55.365 10.97043
55.370 10.599754
55.375 10.386772
55.380 10.797952
55.385 11.114519
55.390 11.246914
55.395 11.314129
55.400 10.996911
55.405 11.608041
55.410 12.058082
55.415 11.850596
55.420 11.673099
55.425 11.341987
55.430 11.385795
55.435 11.573223
55.440 11.27144
55.445 11.256614
55.450 10.987186
55.455 10.82183
55.460 11.203718
55.465 11.305385
55.470 12.008415
55.475 12.091495
55.480 11.923347
55.485 12.205173
55.490 12.625922
55.495 12.753245
55.500 13.116251
55.505 13.302085
55.510 13.265502
55.515 12.983495
55.520 12.857972
55.525 12.57852
55.530 12.101151
55.535 11.477632
55.540 10.649808
55.545 10.726656
55.550 10.760051
55.555 10.390955
55.560 10.33452
55.565 10.207234
55.570 10.027968
55.575 10.292852
55.580 10.8771
55.585 11.260579
55.590 11.209766
55.595 11.051651
55.600 10.674067
55.605 10.281754
55.610 10.39713
55.615 9.576353
55.620 9.498658
55.625 9.392331
55.630 9.141677
55.635 9.671633
55.640 9.885166
55.645 9.26001
55.650 9.478978
55.655 9.562827
55.660 10.493214
55.665 11.160804
55.670 11.363629
55.675 11.722378
55.680 12.234465
55.685 12.168239
55.690 12.059887
55.695 11.805112
55.700 11.359548
55.705 11.240587
55.710 11.315279
55.715 10.938853
55.720 11.072865
55.725 11.150314
55.730 10.847783
55.735 11.184563
55.740 11.371871
55.745 11.491098
55.750 11.868961
55.755 11.879962
55.760 12.170218
55.765 12.425891
55.770 12.41488
55.775 12.178687
55.780 12.338194
55.785 12.554528
55.790 12.776254
55.795 12.293797
55.800 12.039021
55.805 12.468642
55.810 12.197824
55.815 11.968352
55.820 11.652924
55.825 11.781661
55.830 12.45043
55.835 12.843979
55.840 12.662338
55.845 12.878789
55.850 12.701488
55.855 12.7179
55.860 12.205062
55.865 11.608201
55.870 11.004136
55.875 11.165085
55.880 11.225389
55.885 11.420415
55.890 11.731282
55.895 12.232769
55.900 12.594874
55.905 12.793772
55.910 12.507995
55.915 12.456788
55.920 12.279622
55.925 12.194361
55.930 11.926668
55.935 11.713986
55.940 11.561512
55.945 11.888244
55.950 12.014925
55.955 12.05344
55.960 11.771426
55.965 11.244893
55.970 11.059046
55.975 11.176714
55.980 11.176966
55.985 11.177438
55.990 11.186808
55.995 11.743122
56.000 12.238318
56.005 12.52023
56.010 12.762276
56.015 12.568748
56.020 12.371025
56.025 12.559397
56.030 12.908779
56.035 13.125
56.040 13.195917
56.045 12.850631
56.050 12.514313
56.055 12.760845
56.060 12.274212
56.065 11.9266
56.070 12.182723
56.075 12.288174
56.080 12.312314
56.085 12.626558
56.090 12.39581
56.095 12.349199
56.100 12.082662
56.105 11.838291
56.110 11.839274
56.115 12.271788
56.120 12.393938
56.125 12.371984
56.130 12.046164
56.135 12.116556
56.140 12.494977
56.145 12.817052
56.150 12.79285
56.155 12.73523
56.160 13.253494
56.165 13.708454
56.170 13.725153
56.175 13.129677
56.180 12.0813
56.185 11.65559
56.190 11.511512
56.195 11.286437
56.200 11.206157
56.205 11.208588
56.210 11.492929
56.215 12.239963
56.220 12.600528
56.225 12.981076
56.230 13.275039
56.235 13.832119
56.240 14.079056
56.245 14.427189
56.250 14.394853
56.255 14.24544
56.260 13.664146
56.265 13.433245
56.270 12.90065
56.275 12.730616
56.280 12.352528
56.285 12.454146
56.290 12.859382
56.295 13.291849
56.300 12.791522
56.305 12.643678
56.310 12.606751
56.315 12.689546
56.320 12.033796
56.325 11.397583
56.330 11.394376
56.335 11.796581
56.340 12.313836
56.345 12.150007
56.350 12.508215
56.355 13.056923
56.360 13.133564
56.365 13.113541
56.370 13.111846
56.375 13.198439
56.380 13.352342
56.385 12.942531
56.390 12.631104
56.395 12.368652
56.400 12.008193
56.405 11.769223
56.410 10.989433
56.415 10.31613
56.420 10.427643
56.425 10.595218
56.430 10.966552
56.435 10.794171
56.440 10.581534
56.445 11.056767
56.450 11.534048
56.455 11.357821
56.460 11.242411
56.465 11.141453
56.470 11.647795
56.475 11.75074
56.480 11.82114
56.485 11.990197
56.490 12.952208
56.495 13.234442
56.500 13.227041
56.505 13.409992
56.510 13.08051
56.515 12.87718
56.520 12.442652
56.525 11.654696
56.530 11.806668
56.535 11.753845
56.540 11.842627
56.545 12.33919
56.550 12.362556
56.555 12.537196
56.560 13.010621
56.565 13.285001
56.570 13.443448
56.575 13.236189
56.580 13.333179
56.585 13.523298
56.590 13.750244
56.595 13.537408
56.600 13.406431
56.605 13.015795
56.610 12.920731
56.615 13.08684
56.620 13.539721
56.625 13.490052
56.630 13.023918
56.635 12.984792
56.640 13.284723
56.645 13.62847
56.650 13.488778
56.655 13.100315
56.660 13.191403
56.665 13.1754
56.670 13.05308
56.675 12.867988
56.680 12.414268
56.685 12.421912
56.690 12.315923
56.695 12.060942
56.700 11.962405
56.705 12.22903
56.710 12.486201
56.715 12.54015
56.720 12.235058
56.725 11.738703
56.730 12.201483
56.735 12.525641
56.740 12.411854
56.745 12.674417
56.750 13.019026
56.755 13.565291
56.760 13.908662
56.765 14.243924
56.770 14.419889
56.775 14.405376
56.780 14.567462
56.785 14.159884
56.790 14.346056
56.795 14.696691
56.800 14.18433
56.805 14.486468
56.810 14.426886
56.815 13.865804
56.820 13.989894
56.825 13.924124
56.830 13.80637
56.835 13.940762
56.840 14.171398
56.845 14.313788
56.850 14.363746
56.855 13.932523
56.860 13.174968
56.865 12.790616
56.870 12.418184
56.875 11.977822
56.880 11.974826
56.885 12.5464
56.890 13.142144
56.895 13.590796
56.900 13.969541
56.905 14.07957
56.910 13.824123
56.915 13.579607
56.920 13.149077
56.925 13.02368
56.930 13.009227
56.935 13.110793
56.940 13.177313
56.945 13.570606
56.950 13.34977
56.955 13.362797
56.960 13.35782
56.965 12.806771
56.970 12.477535
56.975 12.71399
56.980 12.602061
56.985 13.437235
56.990 13.794359
56.995 13.650878
57.000 13.883586
57.005 14.478986
57.010 14.791853
57.015 14.831685
57.020 14.455628
57.025 14.42552
57.030 14.838929
57.035 15.635445
57.040 15.134715
57.045 14.726518
57.050 15.103642
57.055 15.238038
57.060 14.963549
57.065 14.646844
57.070 14.152907
57.075 13.951456
57.080 13.862703
57.085 13.204776
57.090 13.062212
57.095 13.489627
57.100 13.628734
57.105 13.26639
57.110 13.496957
57.115 13.155908
57.120 13.018361
57.125 12.35112
57.130 11.972394
57.135 12.070799
57.140 12.270153
57.145 12.009594
57.150 12.566804
57.155 12.918857
57.160 13.373321
57.165 13.202197
57.170 13.380794
57.175 13.597591
57.180 13.685028
57.185 13.243814
57.190 12.988173
57.195 12.836599
57.200 13.202999
57.205 12.763291
57.210 12.657867
57.215 12.656173
57.220 12.883244
57.225 13.191007
57.230 13.405527
57.235 13.101206
57.240 13.358704
57.245 13.874322
57.250 14.388288
57.255 14.382237
57.260 14.121678
57.265 13.690121
57.270 13.970406
57.275 13.952806
57.280 13.397949
57.285 12.890423
57.290 13.173443
57.295 13.312217
57.300 13.603733
57.305 13.4814
57.310 13.570376
57.315 14.038674
57.320 14.109566
57.325 13.875979
57.330 13.782356
57.335 13.835901
57.340 13.58763
57.345 13.119503
57.350 12.315345
57.355 12.574526
57.360 13.111969
57.365 13.899773
57.370 13.985
57.375 14.269559
57.380 14.531838
57.385 14.758172
57.390 14.946944
57.395 14.355327
57.400 14.291547
57.405 14.009856
57.410 14.11619
57.415 14.229048
57.420 14.61984
57.425 14.283175
57.430 14.301269
57.435 14.291355
57.440 14.489418
57.445 14.348571
57.450 14.577137
57.455 14.395267
57.460 14.91962
57.465 15.166879
57.470 14.882863
57.475 14.436273
57.480 13.930068
57.485 13.33968
57.490 13.209025
57.495 13.063668
57.500 13.036736
57.505 13.266798
57.510 13.795841
57.515 14.618867
57.520 15.311648
57.525 14.84897
57.530 14.437086
57.535 13.66343
57.540 13.220734
57.545 13.000881
57.550 12.443102
57.555 12.056033
57.560 12.407528
57.565 12.353579
57.570 12.97205
57.575 13.623533
57.580 13.694431
57.585 14.068842
57.590 13.943854
57.595 14.303885
57.600 14.681442
57.605 14.587212
57.610 14.39345
57.615 14.562819
57.620 14.614431
57.625 15.480486
57.630 15.259607
57.635 14.704112
57.640 14.697897
57.645 14.519134
57.650 14.224167
57.655 14.155276
57.660 13.29518
57.665 13.557032
57.670 13.705564
57.675 13.549894
57.680 13.933798
57.685 13.844731
57.690 13.826062
57.695 13.867583
57.700 13.912372
57.705 14.041433
57.710 13.94941
57.715 13.557204
57.720 13.76627
57.725 13.721886
57.730 13.930305
57.735 13.838125
57.740 13.864766
57.745 13.925421
57.750 14.151678
57.755 14.159311
57.760 14.517264
57.765 15.312884
57.770 15.461445
57.775 15.342486
57.780 15.399234
57.785 15.519145
57.790 15.52983
57.795 15.12577
57.800 14.492863
57.805 14.616415
57.810 14.978515
57.815 15.127234
57.820 14.847647
57.825 14.804714
57.830 14.79903
57.835 14.652433
57.840 14.29647
57.845 14.208782
57.850 13.938837
57.855 14.056211
57.860 14.098117
57.865 14.172247
57.870 14.396756
57.875 14.680571
57.880 14.628547
57.885 15.033607
57.890 15.034381
57.895 14.760059
57.900 14.404637
57.905 14.425388
57.910 14.581147
57.915 14.942578
57.920 14.707344
57.925 14.707274
57.930 14.974522
57.935 14.903025
57.940 14.44524
57.945 13.970952
57.950 13.599679
57.955 13.466486
57.960 13.506668
57.965 13.584612
57.970 13.8223
57.975 13.955762
57.980 14.457376
57.985 15.171795
57.990 15.466828
57.995 15.994003
58.000 16.419876
58.005 16.928314
58.010 17.238235
58.015 16.856113
58.020 16.12219
58.025 16.234993
58.030 16.028507
58.035 15.635391
58.040 15.323961
58.045 15.481624
58.050 15.597207
58.055 15.470316
58.060 15.320007
58.065 15.29617
58.070 15.363512
58.075 15.031552
58.080 15.05367
58.085 15.713443
58.090 16.038298
58.095 15.959654
58.100 15.642059
58.105 15.792773
58.110 16.420774
58.115 16.18334
58.120 16.387625
58.125 17.028673
58.130 16.862192
58.135 16.953224
58.140 16.686827
58.145 16.323744
58.150 16.165567
58.155 15.860884
58.160 15.467869
58.165 15.758192
58.170 16.39572
58.175 16.339716
58.180 15.895366
58.185 15.706779
58.190 15.500019
58.195 15.21103
58.200 15.357838
58.205 15.317218
58.210 15.159909
58.215 15.228462
58.220 15.457379
58.225 15.427815
58.230 15.281427
58.235 15.189632
58.240 15.092706
58.245 15.722567
58.250 16.37571
58.255 16.749506
58.260 16.655447
58.265 16.632309
58.270 16.581451
58.275 16.852098
58.280 17.288555
58.285 16.810848
58.290 16.559216
58.295 17.626345
58.300 17.929867
58.305 17.818638
58.310 17.54808
58.315 17.694939
58.320 17.834494
58.325 17.157877
58.330 16.849318
58.335 17.229336
58.340 17.5898
58.345 17.288704
58.350 16.838034
58.355 16.937866
58.360 17.184561
58.365 17.104574
58.370 16.85022
58.375 17.058748
58.380 17.464319
58.385 17.493046
58.390 17.468927
58.395 17.340792
58.400 17.163021
58.405 17.608284
58.410 16.938158
58.415 16.468508
58.420 17.000919
58.425 18.214212
58.430 19.327717
58.435 19.075615
58.440 18.801786
58.445 19.37451
58.450 20.162489
58.455 19.970926
58.460 18.920271
58.465 18.051985
58.470 18.272926
58.475 18.643648
58.480 18.797306
58.485 18.445633
58.490 18.985006
58.495 20.037279
58.500 20.750639
58.505 20.680792
58.510 19.796797
