!@!!GADDS PLOTSO FILE: Chi integration type
!@!!Title/SampleName: map-55
!@!!Comment: ?
!@!!User: Bruker Instrument Administrator
!@!!Site: University of Illinois Chicago
!@!!Frame: map-55_01_000.gfrm
!@!!Wavelengths    1.54184   1.54056   1.54439
!@!!Frame angles: 2Theta: 63.000 Omega: 50.000 Phi: 0.000 Chi: 90.000
!@!!Integration range: 2Theta: 53.000 to 73.000  Gamma: -105.000 to -75.000
!@!!Integration method: bin normalized
!@!N
!@!SS
!@!M
!@!L 0.0 0.0 0.0 0.0
!@!XDegrees
!@!YCounts
53.000 9.785089
53.005 9.718286
53.010 9.751463
53.015 10.34993
53.020 10.881542
53.025 10.935153
53.030 10.695203
53.035 10.505378
53.040 10.695757
53.045 10.513795
53.050 9.834817
53.055 9.765866
53.060 9.666955
53.065 9.686067
53.070 9.467988
53.075 9.650742
53.080 9.693525
53.085 9.401436
53.090 8.953743
53.095 8.659052
53.100 8.940693
53.105 8.868984
53.110 8.621568
53.115 9.467873
53.120 10.134298
53.125 10.163032
53.130 10.223292
53.135 10.129858
53.140 10.186404
53.145 10.006541
53.150 9.363763
53.155 9.007846
53.160 8.943233
53.165 9.163689
53.170 9.44167
53.175 9.498819
53.180 9.378466
53.185 9.300638
53.190 9.44894
53.195 9.387581
53.200 9.234191
53.205 9.198476
53.210 9.08515
53.215 9.002453
53.220 9.598852
53.225 9.961557
53.230 9.940697
53.235 10.06415
53.240 9.95682
53.245 9.93075
53.250 10.012815
53.255 9.979528
53.260 9.868495
53.265 10.17084
53.270 10.27298
53.275 10.251071
53.280 10.625863
53.285 10.401738
53.290 10.178601
53.295 10.367997
53.300 10.271192
53.305 10.054853
53.310 10.27824
53.315 10.154494
53.320 10.417022
53.325 10.329018
53.330 9.931069
53.335 9.646656
53.340 9.857146
53.345 9.949618
53.350 9.843
53.355 9.976169
53.360 9.782704
53.365 9.961441
53.370 10.212716
53.375 9.841618
53.380 9.403825
53.385 9.016184
53.390 9.068527
53.395 9.818424
53.400 10.118431
53.405 9.939151
53.410 10.252411
53.415 10.612711
53.420 9.973425
53.425 9.49116
53.430 8.800171
53.435 9.154666
53.440 9.759742
53.445 9.698815
53.450 9.895897
53.455 10.879385
53.460 11.449609
53.465 11.413505
53.470 10.887903
53.475 10.565169
53.480 10.734366
53.485 10.80225
53.490 10.787364
53.495 10.729972
53.500 10.437867
53.505 10.591795
53.510 10.925899
53.515 11.170877
53.520 11.022121
53.525 10.709805
53.530 10.839472
53.535 11.0581
53.540 10.816813
53.545 10.389292
53.550 10.962286
53.555 10.737712
53.560 10.409711
53.565 10.606522
53.570 10.741743
53.575 10.930325
53.580 10.797591
53.585 10.4504
53.590 10.873808
53.595 11.195491
53.600 10.882236
53.605 10.660952
53.610 10.261436
53.615 9.912187
53.620 9.667796
53.625 9.483873
53.630 8.900083
53.635 9.077972
53.640 9.02062
53.645 9.208677
53.650 9.396161
53.655 9.63806
53.660 10.056022
53.665 10.206116
53.670 10.040298
53.675 10.151984
53.680 10.0478
53.685 9.555596
53.690 9.360236
53.695 9.199537
53.700 9.208274
53.705 9.716643
53.710 9.787855
53.715 10.479664
53.720 10.958735
53.725 10.892279
53.730 11.062075
53.735 11.31192
53.740 11.134149
53.745 11.166164
53.750 10.576581
53.755 10.44476
53.760 10.629272
53.765 10.381713
53.770 10.019838
53.775 10.230373
53.780 10.319389
53.785 10.745886
53.790 10.790132
53.795 10.828968
53.800 11.273871
53.805 11.270123
53.810 10.934535
53.815 10.432495
53.820 10.07196
53.825 10.050756
53.830 10.02221
53.835 9.974326
53.840 10.25379
53.845 10.647258
53.850 11.018155
53.855 11.026194
53.860 10.769053
53.865 10.388266
53.870 10.610085
53.875 10.564117
53.880 10.712648
53.885 10.889973
53.890 10.843233
53.895 11.353441
53.900 11.45089
53.905 11.353457
53.910 11.558233
53.915 11.313348
53.920 11.172379
53.925 10.813249
53.930 10.452496
53.935 10.180906
53.940 9.690343
53.945 9.254752
53.950 9.526772
53.955 9.568671
53.960 10.010454
53.965 10.334963
53.970 10.165502
53.975 10.356775
53.980 10.19468
53.985 10.047548
53.990 10.14118
53.995 10.07065
54.000 10.063658
54.005 9.956087
54.010 10.100802
54.015 10.316195
54.020 10.008281
54.025 9.643397
54.030 9.600998
54.035 9.724938
54.040 9.906596
54.045 9.804721
54.050 9.864747
54.055 10.186728
54.060 10.21976
54.065 10.006856
54.070 10.321693
54.075 10.516896
54.080 10.708161
54.085 10.738603
54.090 10.985526
54.095 10.93313
54.100 10.41392
54.105 9.937437
54.110 9.920797
54.115 9.443358
54.120 9.172134
54.125 9.229857
54.130 10.266172
54.135 11.278436
54.140 11.659493
54.145 11.743708
54.150 11.963189
54.155 12.475112
54.160 12.58947
54.165 12.144228
54.170 11.626893
54.175 11.361433
54.180 11.302192
54.185 10.865303
54.190 10.625174
54.195 10.516371
54.200 10.718177
54.205 11.110807
54.210 11.12707
54.215 11.218497
54.220 11.478096
54.225 11.304044
54.230 11.32682
54.235 10.558337
54.240 10.037367
54.245 9.818101
54.250 9.355869
54.255 9.314371
54.260 9.591245
54.265 9.672822
54.270 10.452522
54.275 10.893115
54.280 11.308084
54.285 11.759414
54.290 11.598506
54.295 11.019949
54.300 10.797666
54.305 10.474856
54.310 10.593061
54.315 10.598876
54.320 10.644841
54.325 10.885044
54.330 11.245356
54.335 11.860147
54.340 12.766623
54.345 13.110674
54.350 13.189415
54.355 13.231062
54.360 13.052879
54.365 12.862686
54.370 12.324131
54.375 11.709491
54.380 11.129418
54.385 10.797884
54.390 10.611491
54.395 10.515601
54.400 10.280584
54.405 9.910434
54.410 9.8544
54.415 9.549978
54.420 9.102861
54.425 9.183292
54.430 9.779025
54.435 9.810499
54.440 9.694449
54.445 9.813079
54.450 10.376549
54.455 10.870328
54.460 10.519385
54.465 9.920017
54.470 9.930951
54.475 9.745585
54.480 10.250956
54.485 9.980502
54.490 9.796099
54.495 9.853209
54.500 9.819296
54.505 10.088116
54.510 10.199718
54.515 10.092899
54.520 10.3845
54.525 10.48068
54.530 10.980035
54.535 11.162327
54.540 10.971846
54.545 10.910894
54.550 11.17362
54.555 11.000727
54.560 11.107185
54.565 10.964207
54.570 11.18424
54.575 11.590135
54.580 10.872208
54.585 10.792248
54.590 10.902536
54.595 11.193713
54.600 11.342301
54.605 10.712773
54.610 10.656943
54.615 10.965969
54.620 11.1246
54.625 11.266175
54.630 11.025272
54.635 10.987293
54.640 11.620099
54.645 11.948952
54.650 12.115946
54.655 11.70079
54.660 11.480549
54.665 11.384647
54.670 11.197317
54.675 10.540048
54.680 10.277558
54.685 10.354636
54.690 10.563975
54.695 10.573245
54.700 10.700928
54.705 11.430783
54.710 11.444207
54.715 11.63403
54.720 11.568047
54.725 11.685345
54.730 11.677259
54.735 11.51091
54.740 11.136709
54.745 11.090031
54.750 11.00581
54.755 10.677522
54.760 10.70774
54.765 10.362246
54.770 10.200408
54.775 10.467295
54.780 10.222236
54.785 10.128385
54.790 10.467075
54.795 10.774298
54.800 11.096079
54.805 11.310367
54.810 11.394066
54.815 11.537672
54.820 11.369621
54.825 11.120262
54.830 11.105212
54.835 11.260198
54.840 11.286007
54.845 11.452639
54.850 11.974331
54.855 12.182723
54.860 12.265824
54.865 12.12065
54.870 11.925103
54.875 11.756517
54.880 11.638251
54.885 11.148129
54.890 10.918568
54.895 11.097113
54.900 10.919842
54.905 10.924209
54.910 11.207422
54.915 11.811146
54.920 12.090819
54.925 12.639413
54.930 12.296854
54.935 11.966605
54.940 11.999574
54.945 11.406164
54.950 11.220621
54.955 11.03207
54.960 10.325644
54.965 10.507165
54.970 10.908724
54.975 11.14104
54.980 11.028685
54.985 10.663073
54.990 10.751562
54.995 10.793032
55.000 10.225231
55.005 9.848292
55.010 10.173775
55.015 10.296828
55.020 10.173777
55.025 10.491025
55.030 10.702669
55.035 11.314386
55.040 11.360958
55.045 11.06491
55.050 10.787167
55.055 10.777814
55.060 11.004825
55.065 11.087027
55.070 11.098684
55.075 11.154048
55.080 11.403179
55.085 12.206915
55.090 12.244638
55.095 11.992973
55.100 11.925531
55.105 11.849039
55.110 11.850623
55.115 11.843283
55.120 11.738219
55.125 11.890285
55.130 12.345184
55.135 12.271796
55.140 12.017035
55.145 11.722569
55.150 11.46312
55.155 11.146033
55.160 10.910085
55.165 10.778034
55.170 11.124146
55.175 11.422219
55.180 11.579896
55.185 11.450077
55.190 11.035872
55.195 11.085816
55.200 10.865149
55.205 11.07047
55.210 11.644397
55.215 11.716555
55.220 11.595094
55.225 12.376075
55.230 12.446305
55.235 12.768141
55.240 12.346728
55.245 12.117476
55.250 12.505418
55.255 12.595775
55.260 11.959179
55.265 11.562263
55.270 11.026441
55.275 10.664692
55.280 10.450964
55.285 10.362631
55.290 10.62069
55.295 11.03279
55.300 11.484821
55.305 11.721648
55.310 11.804131
55.315 11.511363
55.320 11.814158
55.325 11.686617
55.330 11.572406
55.335 11.305559
55.340 11.477255
55.345 12.154745
55.350 12.296313
55.355 12.54315
55.360 13.110544
55.365 13.352679
55.370 13.67428
55.375 13.750689
55.380 13.208094
55.385 12.975049
55.390 13.066232
55.395 12.71839
55.400 12.515863
55.405 12.38243
55.410 12.289719
55.415 12.748361
55.420 12.826363
55.425 12.936803
55.430 13.244986
55.435 13.262905
55.440 13.639235
55.445 14.009271
55.450 13.855186
55.455 13.861403
55.460 13.490226
55.465 13.397201
55.470 13.472335
55.475 13.076998
55.480 12.337817
55.485 11.873981
55.490 11.47816
55.495 11.468504
55.500 11.52889
55.505 11.361024
55.510 11.648152
55.515 11.716743
55.520 11.802875
55.525 12.322153
55.530 12.382362
55.535 12.613547
55.540 12.811295
55.545 12.985415
55.550 13.405888
55.555 14.001885
55.560 13.845608
55.565 13.601218
55.570 13.481914
55.575 13.079812
55.580 13.115989
55.585 12.914454
55.590 12.493798
55.595 12.639099
55.600 11.958088
55.605 11.756409
55.610 11.588808
55.615 11.424682
55.620 11.539577
55.625 11.308509
55.630 11.078506
55.635 11.16126
55.640 11.916886
55.645 12.269277
55.650 12.028868
55.655 11.75707
55.660 11.347143
55.665 11.546129
55.670 11.44304
55.675 10.681601
55.680 10.722221
55.685 11.012774
55.690 11.46609
55.695 11.850028
55.700 11.877179
55.705 12.357038
55.710 12.847336
55.715 12.99751
55.720 12.814247
55.725 12.850851
55.730 13.243131
55.735 13.170728
55.740 12.633175
55.745 11.859729
55.750 11.991878
55.755 11.87903
55.760 11.56518
55.765 11.296363
55.770 11.646355
55.775 11.712795
55.780 11.471072
55.785 11.31668
55.790 11.573322
55.795 11.67243
55.800 11.625965
55.805 11.455313
55.810 12.101117
55.815 12.647325
55.820 12.864925
55.825 12.999726
55.830 12.908416
55.835 13.128267
55.840 13.523616
55.845 13.45592
55.850 13.272627
55.855 12.642942
55.860 12.34513
55.865 12.170245
55.870 11.934306
55.875 11.447184
55.880 10.913388
55.885 11.299676
55.890 11.671198
55.895 11.904274
55.900 11.51567
55.905 11.103006
55.910 11.482044
55.915 11.628206
55.920 11.182552
55.925 11.043616
55.930 11.273465
55.935 11.937372
55.940 11.926917
55.945 11.875682
55.950 12.129005
55.955 11.612527
55.960 11.52197
55.965 11.451815
55.970 11.27739
55.975 10.898171
55.980 10.344036
55.985 10.309535
55.990 10.466575
55.995 10.817637
56.000 11.271253
56.005 11.240638
56.010 11.672469
56.015 11.934619
56.020 12.37202
56.025 13.059474
56.030 12.544641
56.035 11.942311
56.040 11.993518
56.045 12.131133
56.050 11.951513
56.055 11.605942
56.060 11.398204
56.065 11.578068
56.070 11.828523
56.075 11.834323
56.080 11.658887
56.085 11.669325
56.090 11.739879
56.095 11.903044
56.100 11.535275
56.105 11.615187
56.110 11.983191
56.115 12.818574
56.120 12.95295
56.125 13.009664
56.130 13.388296
56.135 13.556478
56.140 13.607872
56.145 13.051203
56.150 12.405225
56.155 12.084218
56.160 11.644674
56.165 11.374722
56.170 11.458493
56.175 11.08597
56.180 11.073574
56.185 11.232594
56.190 11.492955
56.195 11.344333
56.200 11.145337
56.205 10.98859
56.210 11.450235
56.215 12.005951
56.220 12.117329
56.225 12.058945
56.230 12.430618
56.235 12.801888
56.240 13.156539
56.245 13.027894
56.250 12.852235
56.255 12.614884
56.260 12.439349
56.265 12.471643
56.270 12.485987
56.275 12.805382
56.280 12.847046
56.285 12.859231
56.290 13.08572
56.295 13.587256
56.300 13.768716
56.305 13.187664
56.310 13.065165
56.315 13.220702
56.320 13.380137
56.325 13.071821
56.330 12.553234
56.335 12.169899
56.340 12.488315
56.345 12.366061
56.350 11.974214
56.355 12.328092
56.360 12.694883
56.365 12.988376
56.370 12.835948
56.375 12.802577
56.380 13.080953
56.385 12.928102
56.390 12.200743
56.395 12.002925
56.400 11.904728
56.405 12.01101
56.410 11.468928
56.415 10.985557
56.420 11.190497
56.425 11.564196
56.430 11.63368
56.435 12.051057
56.440 12.829261
56.445 13.007935
56.450 13.398334
56.455 13.604864
56.460 13.419899
56.465 13.043327
56.470 12.085062
56.475 11.721314
56.480 11.512423
56.485 11.48899
56.490 11.633869
56.495 12.20865
56.500 11.927002
56.505 12.11105
56.510 12.188437
56.515 12.306769
56.520 12.44143
56.525 12.445347
56.530 12.776223
56.535 13.053548
56.540 13.177971
56.545 13.696755
56.550 14.345119
56.555 14.163799
56.560 14.146963
56.565 14.131329
56.570 14.780875
56.575 14.869627
56.580 14.938523
56.585 14.819943
56.590 14.532807
56.595 14.394524
56.600 13.898923
56.605 13.860892
56.610 14.351537
56.615 14.084595
56.620 13.889084
56.625 14.591873
56.630 14.297896
56.635 14.211859
56.640 14.173918
56.645 13.798716
56.650 13.612244
56.655 13.140751
56.660 12.293018
56.665 12.184448
56.670 12.532989
56.675 12.271149
56.680 12.437806
56.685 12.301165
56.690 12.587979
56.695 12.931847
56.700 13.163469
56.705 12.918245
56.710 12.767976
56.715 12.409616
56.720 12.754782
56.725 12.727049
56.730 12.896262
56.735 13.235319
56.740 13.483843
56.745 13.291709
56.750 13.59899
56.755 13.576315
56.760 13.218963
56.765 13.187053
56.770 13.455998
56.775 13.47561
56.780 13.359778
56.785 12.86228
56.790 13.004607
56.795 13.307306
56.800 13.228268
56.805 13.110796
56.810 13.263161
56.815 13.584311
56.820 13.721676
56.825 14.006115
56.830 14.147426
56.835 14.227459
56.840 14.665761
56.845 14.549035
56.850 14.500851
56.855 14.746964
56.860 14.683148
56.865 14.906671
56.870 14.965819
56.875 14.611279
56.880 14.690291
56.885 14.334262
56.890 14.046549
56.895 14.056276
56.900 14.131623
56.905 13.729211
56.910 13.483909
56.915 13.782037
56.920 14.385768
56.925 14.597227
56.930 14.282787
56.935 14.028255
56.940 13.741585
56.945 13.677986
56.950 13.49919
56.955 13.656636
56.960 13.846962
56.965 13.937971
56.970 13.954624
56.975 14.440425
56.980 14.241944
56.985 14.057349
56.990 13.345521
56.995 12.993449
57.000 12.992417
57.005 13.179648
57.010 13.26098
57.015 13.151687
57.020 13.632934
57.025 13.971068
57.030 14.571583
57.035 15.003704
57.040 14.626137
57.045 14.628546
57.050 14.57994
57.055 14.258829
57.060 14.447986
57.065 14.081473
57.070 13.868806
57.075 14.218433
57.080 14.203938
57.085 14.206816
57.090 14.609966
57.095 14.262757
57.100 13.963759
57.105 14.117431
57.110 14.083095
57.115 14.225923
57.120 14.303277
57.125 13.590319
57.130 13.530242
57.135 13.713127
57.140 13.879004
57.145 14.048724
57.150 13.701741
57.155 13.510136
57.160 13.34546
57.165 13.605082
57.170 13.808648
57.175 13.558414
57.180 13.491091
57.185 13.625913
57.190 14.092492
57.195 14.122991
57.200 13.873503
57.205 13.728501
57.210 13.626911
57.215 13.87428
57.220 14.063363
57.225 14.193361
57.230 14.242744
57.235 13.863406
57.240 13.706408
57.245 13.511501
57.250 13.330511
57.255 12.933016
57.260 12.48858
57.265 12.497305
57.270 12.931802
57.275 12.698409
57.280 12.284432
57.285 12.74299
57.290 13.271811
57.295 14.027761
57.300 14.523447
57.305 14.660331
57.310 14.534528
57.315 15.253131
57.320 15.097117
57.325 14.895584
57.330 14.798392
57.335 14.989197
57.340 15.15669
57.345 16.375315
57.350 16.831318
57.355 16.316072
57.360 16.388678
57.365 16.575619
57.370 16.344578
57.375 16.230577
57.380 15.761875
57.385 15.358829
57.390 15.828375
57.395 15.490702
57.400 15.062416
57.405 15.138616
57.410 14.739989
57.415 14.502897
57.420 14.512424
57.425 14.400338
57.430 14.758093
57.435 14.915306
57.440 14.797804
57.445 15.05073
57.450 14.660695
57.455 14.94222
57.460 14.618336
57.465 14.347095
57.470 14.188637
57.475 13.958067
57.480 14.578947
57.485 14.976618
57.490 14.672147
57.495 14.541948
57.500 14.608081
57.505 14.809811
57.510 14.638541
57.515 13.899677
57.520 13.451544
57.525 13.434274
57.530 13.619328
57.535 14.029265
57.540 14.310987
57.545 14.580391
57.550 14.619902
57.555 14.927309
57.560 15.54389
57.565 16.079517
57.570 16.134768
57.575 16.049282
57.580 16.214045
57.585 16.310572
57.590 16.245199
57.595 15.536806
57.600 15.21343
57.605 14.96057
57.610 15.434961
57.615 15.587678
57.620 15.838879
57.625 16.093845
57.630 15.756137
57.635 15.147398
57.640 14.962745
57.645 14.771193
57.650 14.420022
57.655 14.320133
57.660 14.023043
57.665 14.822443
57.670 15.051135
57.675 14.779632
57.680 14.31595
57.685 14.168059
57.690 14.020552
57.695 14.104254
57.700 13.95944
57.705 14.409415
57.710 14.510077
57.715 14.329317
57.720 14.238488
57.725 13.920468
57.730 13.708432
57.735 13.725516
57.740 13.976223
57.745 14.296805
57.750 14.62917
57.755 15.297895
57.760 16.102694
57.765 16.333298
57.770 15.671338
57.775 15.05026
57.780 15.330263
57.785 15.242573
57.790 14.770207
57.795 14.331999
57.800 14.015349
57.805 14.034323
57.810 13.975244
57.815 14.020227
57.820 14.092486
57.825 13.863132
57.830 13.855252
57.835 13.885791
57.840 14.381954
57.845 14.334689
57.850 13.989868
57.855 13.80687
57.860 14.09286
57.865 14.175961
57.870 14.191009
57.875 14.217974
57.880 14.432984
57.885 14.415746
57.890 14.47567
57.895 14.448555
57.900 14.643241
57.905 14.394634
57.910 13.662426
57.915 14.240764
57.920 14.55372
57.925 14.747667
57.930 14.998112
57.935 14.92937
57.940 15.492769
57.945 15.837608
57.950 15.467855
57.955 15.353911
57.960 15.478216
57.965 15.232598
57.970 15.277849
57.975 15.736849
57.980 15.934747
57.985 16.1059
57.990 16.315304
57.995 16.07202
58.000 15.919715
58.005 15.189034
58.010 14.790354
58.015 14.853858
58.020 14.608006
58.025 14.657369
58.030 14.825499
58.035 15.443338
58.040 16.407108
58.045 16.257593
58.050 15.923836
58.055 15.77899
58.060 15.700382
58.065 15.465769
58.070 15.204102
58.075 14.839626
58.080 14.994848
58.085 15.071205
58.090 15.046237
58.095 15.110054
58.100 15.126944
58.105 14.973801
58.110 15.599093
58.115 15.469112
58.120 16.022699
58.125 15.33237
58.130 15.173128
58.135 15.819981
58.140 15.946446
58.145 15.756382
58.150 15.769318
58.155 15.448052
58.160 15.781096
58.165 16.164391
58.170 15.759123
58.175 15.76797
58.180 16.021297
58.185 16.044926
58.190 15.834186
58.195 16.108267
58.200 15.82332
58.205 15.934511
58.210 15.959725
58.215 15.594035
58.220 15.662831
58.225 15.946997
58.230 15.894547
58.235 16.030823
58.240 15.731841
58.245 15.362952
58.250 15.163609
58.255 14.982857
58.260 14.905857
58.265 14.795588
58.270 14.539148
58.275 14.836414
58.280 14.527184
58.285 14.533959
58.290 14.46428
58.295 14.791293
58.300 14.824095
58.305 14.999889
58.310 15.095489
58.315 15.779832
58.320 16.170523
58.325 16.439882
58.330 16.094431
58.335 16.01086
58.340 16.502157
58.345 16.229731
58.350 15.897927
58.355 15.946471
58.360 16.225075
58.365 16.774973
58.370 16.83633
58.375 16.623201
58.380 16.88302
58.385 16.649044
58.390 16.174618
58.395 15.762157
58.400 15.261543
58.405 14.850526
58.410 14.485482
58.415 14.199496
58.420 14.315676
58.425 14.747117
58.430 14.998876
58.435 14.819285
58.440 15.09635
58.445 15.449471
58.450 15.753518
58.455 16.085667
58.460 15.83019
58.465 15.897835
58.470 16.222836
58.475 16.279898
