!@!!GADDS PLOTSO FILE: Chi integration type
!@!!Title/SampleName: map-f8
!@!!Comment: ?
!@!!User: Bruker Instrument Administrator
!@!!Site: University of Illinois Chicago
!@!!Frame: map-f8_01_000.gfrm
!@!!Wavelengths    1.54184   1.54056   1.54439
!@!!Frame angles: 2Theta: 63.000 Omega: 50.000 Phi: 0.000 Chi: 90.000
!@!!Integration range: 2Theta: 53.000 to 73.000  Gamma: -105.000 to -75.000
!@!!Integration method: bin normalized
!@!N
!@!SS
!@!M
!@!L 0.0 0.0 0.0 0.0
!@!XDegrees
!@!YCounts
53.000 5.914682
53.005 5.859706
53.010 5.431689
53.015 5.373358
53.020 4.966524
53.025 4.946809
53.030 5.234811
53.035 5.541819
53.040 5.927696
53.045 5.979752
53.050 6.270921
53.055 6.4951
53.060 6.515789
53.065 6.142582
53.070 6.099129
53.075 6.046558
53.080 5.644079
53.085 5.510987
53.090 5.547654
53.095 5.713614
53.100 6.086205
53.105 6.373399
53.110 6.603034
53.115 6.422919
53.120 6.468047
53.125 6.21896
53.130 6.24618
53.135 5.874567
53.140 5.749833
53.145 5.832438
53.150 6.236378
53.155 6.234779
53.160 6.216142
53.165 6.19735
53.170 6.125365
53.175 6.24225
53.180 6.174633
53.185 6.335988
53.190 6.600743
53.195 6.701599
53.200 6.91786
53.205 6.986138
53.210 6.838688
53.215 6.959249
53.220 6.527247
53.225 6.521778
53.230 6.445283
53.235 6.394221
53.240 6.44118
53.245 6.568069
53.250 6.702561
53.255 6.728761
53.260 6.755857
53.265 6.873966
53.270 6.622274
53.275 6.263655
53.280 6.336518
53.285 6.440358
53.290 6.526063
53.295 6.229049
53.300 6.105443
53.305 6.170388
53.310 6.622319
53.315 6.086595
53.320 5.509706
53.325 5.185378
53.330 5.349416
53.335 5.501568
53.340 5.837779
53.345 6.131394
53.350 6.381726
53.355 6.651146
53.360 6.912997
53.365 7.294751
53.370 7.140247
53.375 6.527199
53.380 5.954488
53.385 5.822897
53.390 6.15715
53.395 6.178099
53.400 6.265178
53.405 6.356429
53.410 6.339311
53.415 6.616938
53.420 6.730576
53.425 6.815976
53.430 6.546275
53.435 6.058049
53.440 6.102077
53.445 6.30199
53.450 6.259495
53.455 6.322791
53.460 6.292163
53.465 6.757765
53.470 6.827757
53.475 6.981192
53.480 6.963812
53.485 7.320843
53.490 7.221495
53.495 7.254089
53.500 6.999332
53.505 7.443325
53.510 7.130227
53.515 7.12987
53.520 6.916353
53.525 7.155428
53.530 7.403315
53.535 7.400677
53.540 7.134397
53.545 7.337319
53.550 7.382789
53.555 7.182438
53.560 6.764865
53.565 6.241718
53.570 6.199465
53.575 6.239966
53.580 5.922533
53.585 5.620562
53.590 5.697377
53.595 5.95235
53.600 6.657249
53.605 6.990799
53.610 7.230352
53.615 7.845675
53.620 8.017982
53.625 8.02535
53.630 7.866885
53.635 7.222407
53.640 6.977765
53.645 6.717294
53.650 6.751333
53.655 6.657206
53.660 6.750244
53.665 6.84824
53.670 7.206361
53.675 7.349689
53.680 7.200845
53.685 7.069243
53.690 7.006011
53.695 6.75345
53.700 7.124143
53.705 7.019742
53.710 6.743941
53.715 6.659281
53.720 6.5523
53.725 6.374629
53.730 6.154396
53.735 6.15159
53.740 6.220096
53.745 6.460155
53.750 6.582806
53.755 6.952893
53.760 7.519234
53.765 7.512645
53.770 7.207343
53.775 7.37113
53.780 7.541983
53.785 7.598631
53.790 7.343363
53.795 6.784947
53.800 6.437097
53.805 6.528933
53.810 6.431251
53.815 6.059884
53.820 6.304535
53.825 6.426643
53.830 6.876274
53.835 6.94692
53.840 6.876769
53.845 6.960842
53.850 7.193532
53.855 6.76068
53.860 6.751012
53.865 6.964095
53.870 7.206333
53.875 7.352775
53.880 7.47751
53.885 7.355928
53.890 7.386832
53.895 7.440814
53.900 7.11407
53.905 6.671324
53.910 6.080301
53.915 5.619794
53.920 5.606977
53.925 5.627506
53.930 5.496235
53.935 5.739965
53.940 6.202685
53.945 6.54833
53.950 6.773723
53.955 6.753515
53.960 7.297953
53.965 7.308867
53.970 7.217692
53.975 7.142764
53.980 6.976133
53.985 7.552636
53.990 7.563515
53.995 7.161243
54.000 7.084536
54.005 7.131134
54.010 7.149665
54.015 7.15973
54.020 7.030241
54.025 7.237107
54.030 7.168672
54.035 7.159488
54.040 7.168128
54.045 7.203535
54.050 6.978581
54.055 6.689463
54.060 6.624482
54.065 6.532714
54.070 6.385667
54.075 6.402878
54.080 6.408048
54.085 6.45181
54.090 6.377687
54.095 6.616142
54.100 7.122508
54.105 7.167043
54.110 7.256989
54.115 7.061218
54.120 6.946928
54.125 6.972512
54.130 7.0165
54.135 7.208452
54.140 7.176974
54.145 7.255835
54.150 7.070927
54.155 7.218378
54.160 7.312897
54.165 7.073804
54.170 7.346094
54.175 7.575747
54.180 7.751884
54.185 8.059315
54.190 8.058399
54.195 8.236592
54.200 8.888185
54.205 8.478091
54.210 8.260605
54.215 8.666936
54.220 8.762164
54.225 8.508785
54.230 8.352695
54.235 7.875416
54.240 7.913473
54.245 7.494514
54.250 6.791018
54.255 6.660731
54.260 6.768482
54.265 6.554845
54.270 7.436417
54.275 7.488341
54.280 7.368217
54.285 7.374989
54.290 7.483798
54.295 7.692739
54.300 7.733449
54.305 7.133375
54.310 7.394402
54.315 7.810398
54.320 7.884237
54.325 7.791894
54.330 7.614976
54.335 7.345004
54.340 7.22413
54.345 7.043615
54.350 7.014073
54.355 6.983322
54.360 7.012002
54.365 7.227587
54.370 7.180063
54.375 7.418668
54.380 7.491507
54.385 7.596236
54.390 7.802722
54.395 7.504839
54.400 7.265031
54.405 7.369631
54.410 7.590103
54.415 7.777966
54.420 7.743332
54.425 7.50754
54.430 7.742917
54.435 7.458522
54.440 7.460778
54.445 7.268155
54.450 7.4006
54.455 7.574901
54.460 7.731128
54.465 7.881344
54.470 8.042785
54.475 7.938652
54.480 8.157913
54.485 7.984256
54.490 7.767173
54.495 7.683335
54.500 7.666244
54.505 7.620106
54.510 7.773682
54.515 7.502524
54.520 7.260927
54.525 7.521601
54.530 7.363385
54.535 7.21733
54.540 7.345714
54.545 7.232839
54.550 7.663849
54.555 8.06137
54.560 8.549928
54.565 8.994226
54.570 9.35756
54.575 9.122459
54.580 8.91795
54.585 8.875344
54.590 8.633725
54.595 8.158766
54.600 7.945946
54.605 7.836994
54.610 8.133241
54.615 8.096838
54.620 8.019925
54.625 8.461975
54.630 8.181174
54.635 7.786024
54.640 7.805609
54.645 7.59104
54.650 7.859579
54.655 7.621353
54.660 7.703483
54.665 7.9253
54.670 8.323881
54.675 8.237587
54.680 8.500946
54.685 8.37978
54.690 8.549715
54.695 8.598051
54.700 8.744817
54.705 9.003233
54.710 8.937102
54.715 8.872613
54.720 8.847238
54.725 8.566261
54.730 8.419325
54.735 7.939611
54.740 7.563881
54.745 7.639021
54.750 7.436201
54.755 7.265907
54.760 6.861568
54.765 7.12774
54.770 7.603058
54.775 7.755614
54.780 7.659962
54.785 7.857818
54.790 8.040825
54.795 8.325039
54.800 8.003164
54.805 7.744738
54.810 7.555555
54.815 7.456933
54.820 7.556726
54.825 7.856663
54.830 7.817405
54.835 8.22816
54.840 8.260612
54.845 8.335187
54.850 8.355317
54.855 7.967043
54.860 7.401556
54.865 7.048706
54.870 6.635613
54.875 6.698767
54.880 6.755674
54.885 6.781477
54.890 7.297082
54.895 7.590821
54.900 7.742826
54.905 7.84753
54.910 8.193445
54.915 8.469235
54.920 8.271367
54.925 8.017843
54.930 8.009052
54.935 8.358095
54.940 8.263549
54.945 7.844249
54.950 7.947936
54.955 7.989405
54.960 7.747863
54.965 7.845129
54.970 7.6388
54.975 7.513093
54.980 7.600925
54.985 7.852911
54.990 8.624542
54.995 8.900389
55.000 8.868599
55.005 8.617213
55.010 8.739332
55.015 8.498173
55.020 8.035564
55.025 7.202972
55.030 6.829526
55.035 6.515368
55.040 6.455151
55.045 6.687952
55.050 7.173183
55.055 7.379991
55.060 7.656076
55.065 7.865947
55.070 8.18421
55.075 8.254645
55.080 8.345233
55.085 8.036345
55.090 8.421777
55.095 8.676218
55.100 8.594521
55.105 8.781564
55.110 8.960977
55.115 8.890859
55.120 8.694847
55.125 8.914208
55.130 9.093331
55.135 9.391703
55.140 9.124389
55.145 8.859662
55.150 8.634935
55.155 9.235439
55.160 8.837152
55.165 8.236242
55.170 8.05884
55.175 8.128266
55.180 8.222639
55.185 8.612954
55.190 8.151443
55.195 8.394401
55.200 8.618935
55.205 8.76438
55.210 8.729143
55.215 8.672335
55.220 8.203965
55.225 7.833532
55.230 7.515772
55.235 7.645729
55.240 7.67071
55.245 7.886831
55.250 7.996922
55.255 8.299554
55.260 8.589128
55.265 8.972959
55.270 9.292708
55.275 9.853662
55.280 9.808565
55.285 9.682947
55.290 9.544976
55.295 9.522062
55.300 9.256984
55.305 9.107387
55.310 8.900373
55.315 9.142915
55.320 8.997525
55.325 9.127597
55.330 9.422194
55.335 9.783895
55.340 9.615229
55.345 9.397985
55.350 9.42535
55.355 9.72008
55.360 9.828915
55.365 9.614668
55.370 9.267834
55.375 9.017633
55.380 9.045242
55.385 8.843698
55.390 8.529819
55.395 8.260826
55.400 8.074538
55.405 8.307299
55.410 9.451482
55.415 9.531919
55.420 9.529815
55.425 9.146789
55.430 8.843485
55.435 9.111398
55.440 8.630259
55.445 8.158202
55.450 8.564998
55.455 8.893594
55.460 10.230282
55.465 10.64925
55.470 10.796929
55.475 10.982189
55.480 10.341575
55.485 9.771279
55.490 9.433281
55.495 8.745772
55.500 8.607063
55.505 8.517269
55.510 8.373731
55.515 8.077927
55.520 8.572393
55.525 9.08838
55.530 9.066242
55.535 9.042264
55.540 8.810798
55.545 8.576281
55.550 9.235249
55.555 8.788331
55.560 8.63522
55.565 8.559867
55.570 8.665439
55.575 9.246475
55.580 9.600035
55.585 9.583553
55.590 9.645636
55.595 9.635154
55.600 9.728754
55.605 9.904583
55.610 9.835701
55.615 9.91345
55.620 10.130548
55.625 9.942503
55.630 9.821323
55.635 9.526331
55.640 9.059737
55.645 9.000703
55.650 8.913546
55.655 8.900796
55.660 9.10292
55.665 9.082532
55.670 9.461012
55.675 9.439256
55.680 9.263443
55.685 9.209332
55.690 9.055987
55.695 8.943306
55.700 9.104281
55.705 9.152604
55.710 9.296968
55.715 9.571116
55.720 9.68256
55.725 9.992764
55.730 9.988029
55.735 9.811458
55.740 9.34782
55.745 9.165624
55.750 8.72279
55.755 8.338604
55.760 8.027935
55.765 8.084409
55.770 8.545008
55.775 9.071754
55.780 8.78723
55.785 9.017864
55.790 9.219275
55.795 9.415051
55.800 9.769704
55.805 9.93951
55.810 9.88258
55.815 10.552741
55.820 10.75507
55.825 10.846573
55.830 11.117548
55.835 10.909243
55.840 11.065779
55.845 11.437504
55.850 11.078455
55.855 10.967836
55.860 10.755691
55.865 10.687949
55.870 10.408472
55.875 9.433621
55.880 9.343105
55.885 9.6738
55.890 9.76966
55.895 9.906254
55.900 9.43439
55.905 9.56033
55.910 9.880453
55.915 10.034328
55.920 10.17116
55.925 9.845509
55.930 9.426976
55.935 9.735606
55.940 10.206626
55.945 10.360245
55.950 10.330249
55.955 10.121248
55.960 10.167767
55.965 10.055996
55.970 9.716598
55.975 9.733318
55.980 9.177484
55.985 8.910562
55.990 9.477676
55.995 10.046837
56.000 10.402051
56.005 10.806789
56.010 10.385456
56.015 10.358527
56.020 9.99823
56.025 9.672537
56.030 9.508891
56.035 9.294317
56.040 8.798129
56.045 9.021526
56.050 9.607535
56.055 9.647399
56.060 9.17227
56.065 9.089766
56.070 9.138425
56.075 9.217225
56.080 9.245661
56.085 9.317653
56.090 9.994627
56.095 10.344735
56.100 10.417571
56.105 10.488336
56.110 10.374527
56.115 10.059108
56.120 9.446452
56.125 8.836587
56.130 8.785663
56.135 9.248369
56.140 9.440505
56.145 9.804054
56.150 9.790669
56.155 9.847859
56.160 9.611745
56.165 9.086158
56.170 8.549017
56.175 8.601532
56.180 8.439014
56.185 8.497509
56.190 8.707674
56.195 9.349017
56.200 10.068821
56.205 10.424431
56.210 10.461233
56.215 10.523728
56.220 11.045783
56.225 11.29033
56.230 10.813602
56.235 10.393584
56.240 10.29138
56.245 10.312225
56.250 10.349645
56.255 9.889513
56.260 9.802789
56.265 9.694421
56.270 9.541759
56.275 9.706573
56.280 9.372013
56.285 9.088632
56.290 9.208008
56.295 9.099854
56.300 9.57253
56.305 9.665237
56.310 9.727045
56.315 10.320898
56.320 10.498464
56.325 10.328516
56.330 10.369358
56.335 10.372814
56.340 10.223279
56.345 10.305373
56.350 10.040033
56.355 9.898572
56.360 9.917766
56.365 10.049582
56.370 9.950554
56.375 10.170682
56.380 10.074611
56.385 10.127803
56.390 10.175364
56.395 10.394941
56.400 10.543785
56.405 10.413244
56.410 9.968746
56.415 9.5749
56.420 9.704538
56.425 9.771581
56.430 9.587614
56.435 9.348508
56.440 9.413333
56.445 9.81846
56.450 9.782884
56.455 9.816317
56.460 10.082461
56.465 9.716907
56.470 9.427227
56.475 9.129556
56.480 8.602698
56.485 8.65078
56.490 9.012918
56.495 9.081715
56.500 9.490481
56.505 9.913149
56.510 10.200913
56.515 10.636857
56.520 10.701635
56.525 10.293542
56.530 10.462812
56.535 10.500118
56.540 10.604976
56.545 10.733098
56.550 10.814305
56.555 10.522447
56.560 10.355398
56.565 10.605671
56.570 10.610379
56.575 10.677884
56.580 10.766893
56.585 10.585474
56.590 10.853943
56.595 10.578059
56.600 10.2376
56.605 9.613577
56.610 9.568978
56.615 8.9469
56.620 8.872067
56.625 8.765373
56.630 8.657542
56.635 8.597256
56.640 9.076245
56.645 9.162985
56.650 9.721858
56.655 9.690321
56.660 9.775464
56.665 9.925961
56.670 10.02345
56.675 9.984367
56.680 10.188368
56.685 10.089626
56.690 9.902977
56.695 10.290017
56.700 10.729286
56.705 10.606386
56.710 10.725862
56.715 10.838709
56.720 10.879123
56.725 10.997782
56.730 10.420503
56.735 10.152253
56.740 10.17498
56.745 10.31472
56.750 9.892323
56.755 9.915226
56.760 10.038523
56.765 10.431787
56.770 10.838344
56.775 10.64349
56.780 10.662374
56.785 11.090016
56.790 11.020846
56.795 11.322114
56.800 11.257488
56.805 11.589439
56.810 12.109748
56.815 12.085227
56.820 11.786178
56.825 11.774781
56.830 11.582302
56.835 11.497727
56.840 10.831147
56.845 10.244471
56.850 10.00243
56.855 10.001249
56.860 10.149577
56.865 10.317471
56.870 10.239126
56.875 10.422687
56.880 11.096515
56.885 11.068917
56.890 10.728706
56.895 10.639032
56.900 10.146217
56.905 10.223394
56.910 10.051865
56.915 10.085184
56.920 10.400348
56.925 10.432523
56.930 10.731134
56.935 11.299259
56.940 11.162762
56.945 10.629208
56.950 10.342397
56.955 10.63988
56.960 11.095759
56.965 10.637726
56.970 10.067575
56.975 10.186301
56.980 10.60051
56.985 10.875156
56.990 10.809893
56.995 10.773842
57.000 11.039519
57.005 11.160072
57.010 10.9159
57.015 10.580157
57.020 9.989969
57.025 9.694959
57.030 9.669002
57.035 9.549047
57.040 9.906747
57.045 10.162141
57.050 10.333139
57.055 10.652584
57.060 10.861341
57.065 10.675097
57.070 11.017591
57.075 10.938398
57.080 11.384874
57.085 11.642565
57.090 11.836006
57.095 11.948435
57.100 11.973378
57.105 11.777386
57.110 11.548524
57.115 11.170349
57.120 10.898601
57.125 10.541933
57.130 10.589857
57.135 10.647433
57.140 10.582553
57.145 10.628329
57.150 10.283858
57.155 10.175081
57.160 9.930852
57.165 9.690014
57.170 10.083827
57.175 10.50049
57.180 10.78875
57.185 10.6166
57.190 10.719152
57.195 11.128296
57.200 11.248374
57.205 11.355002
57.210 11.326488
57.215 10.947496
57.220 10.928828
57.225 10.997183
57.230 10.927839
57.235 10.782706
57.240 10.410653
57.245 10.461981
57.250 11.033953
57.255 11.39376
57.260 11.572906
57.265 11.677083
57.270 11.956415
57.275 12.465682
57.280 12.568139
57.285 12.837283
57.290 13.332799
57.295 13.329326
57.300 13.855045
57.305 13.386011
57.310 12.68337
57.315 12.427415
57.320 12.03208
57.325 11.620398
57.330 11.533714
57.335 11.159358
57.340 11.435888
57.345 12.039887
57.350 12.178244
57.355 12.238396
57.360 11.898295
57.365 12.18051
57.370 12.194883
57.375 11.954084
57.380 11.474831
57.385 11.644413
57.390 11.686514
57.395 11.789383
57.400 11.290957
57.405 11.215885
57.410 11.052485
57.415 10.940876
57.420 10.538084
57.425 11.193192
57.430 11.408743
57.435 11.24345
57.440 11.098572
57.445 11.451757
57.450 11.57934
57.455 11.70295
57.460 11.470045
57.465 11.882874
57.470 12.025755
57.475 12.286961
57.480 12.04106
57.485 12.232412
57.490 12.199609
57.495 11.629654
57.500 11.376493
57.505 11.420492
57.510 11.163657
57.515 10.936373
57.520 10.576357
57.525 10.54819
57.530 10.652864
57.535 10.920991
57.540 10.909791
57.545 10.757181
57.550 10.879211
57.555 10.744411
57.560 10.220893
57.565 10.25377
57.570 10.148254
57.575 10.426822
57.580 10.651796
57.585 10.586515
57.590 11.166434
57.595 11.755215
57.600 11.63794
57.605 11.715182
57.610 11.664344
57.615 11.96402
57.620 12.343299
57.625 12.072412
57.630 12.047571
57.635 11.938446
57.640 11.623487
57.645 11.609015
57.650 11.242082
57.655 11.139653
57.660 11.710995
57.665 11.969956
57.670 12.105428
57.675 12.202397
57.680 12.34271
57.685 12.616693
57.690 12.754045
57.695 12.355103
57.700 12.251369
57.705 11.963686
57.710 11.778443
57.715 11.902694
57.720 11.819776
57.725 11.231708
57.730 10.531906
57.735 9.880216
57.740 10.086122
57.745 10.364108
57.750 10.317605
57.755 10.191216
57.760 10.744104
57.765 11.755872
57.770 12.514556
57.775 12.256036
57.780 12.120146
57.785 11.874708
57.790 12.2088
57.795 12.192242
57.800 11.862104
57.805 11.782057
57.810 12.287719
57.815 12.412643
57.820 12.950984
57.825 13.019835
57.830 13.072343
57.835 12.69638
57.840 12.25211
57.845 11.565772
57.850 11.360397
57.855 10.998898
57.860 10.86648
57.865 10.947275
57.870 11.250332
57.875 12.038967
57.880 12.544512
57.885 12.931998
57.890 12.936262
57.895 12.81427
57.900 13.033679
57.905 13.043777
57.910 12.818445
57.915 13.024946
57.920 13.013673
57.925 12.934903
57.930 13.274682
57.935 13.387424
57.940 13.487116
57.945 13.252895
57.950 12.596657
57.955 12.223486
57.960 12.076339
57.965 11.699469
57.970 11.185655
57.975 11.488404
57.980 11.942564
57.985 12.165684
57.990 12.212573
57.995 12.422002
58.000 12.732774
58.005 13.453279
58.010 13.215084
58.015 13.0973
58.020 13.18715
58.025 13.719065
58.030 13.947156
58.035 14.044526
58.040 13.822248
58.045 13.361525
58.050 12.992521
58.055 12.733066
58.060 12.479363
58.065 12.397054
58.070 12.591009
58.075 12.360638
58.080 12.692457
58.085 13.159016
58.090 13.55043
58.095 13.830047
58.100 14.043991
58.105 14.487252
58.110 15.383319
58.115 15.225244
58.120 14.79028
58.125 14.317532
58.130 14.266587
58.135 13.901781
58.140 13.605986
58.145 13.407272
58.150 13.661422
58.155 14.131874
58.160 14.544867
58.165 14.485332
58.170 14.404952
58.175 13.685904
58.180 13.928332
58.185 13.869725
58.190 13.870131
58.195 13.700027
58.200 13.73508
58.205 13.786644
58.210 14.153818
58.215 14.070602
58.220 13.960231
58.225 13.327264
58.230 13.232333
58.235 13.244951
58.240 13.700408
58.245 13.480282
58.250 13.18227
58.255 13.440721
58.260 13.747612
58.265 13.877784
58.270 13.872885
58.275 13.545731
58.280 13.543164
58.285 13.391699
58.290 13.249449
58.295 12.878783
58.300 12.473504
58.305 12.405857
58.310 12.658532
58.315 12.961078
58.320 13.272795
58.325 13.524602
58.330 14.131677
58.335 14.070359
58.340 14.13661
58.345 14.446913
58.350 14.078037
58.355 14.080128
58.360 14.663028
58.365 14.37428
58.370 14.595972
58.375 14.658607
58.380 14.770157
58.385 15.427396
58.390 15.891749
58.395 16.353182
58.400 17.029259
58.405 17.121965
58.410 17.037228
58.415 16.256882
58.420 16.17255
58.425 16.68984
58.430 16.947866
58.435 17.049772
58.440 16.86396
58.445 17.295486
58.450 18.116089
58.455 18.596952
58.460 18.44721
58.465 18.706457
58.470 19.475531
58.475 19.648853
58.480 19.692026
58.485 20.051422
58.490 20.287355
58.495 19.859594
58.500 19.662487
58.505 19.321552
58.510 20.168533
58.515 21.034534
58.520 21.474356
58.525 21.557077
58.530 22.398195
58.535 23.095118
58.540 23.456572
58.545 22.751738
58.550 22.731701
58.555 23.476974
58.560 23.98921
58.565 24.211981
58.570 24.97333
58.575 25.756819
58.580 25.993296
58.585 26.357603
58.590 26.20788
58.595 26.850258
58.600 27.002628
58.605 25.729933
58.610 25.510448
58.615 25.478815
58.620 24.977552
58.625 25.73279
