!@!!GADDS PLOTSO FILE: Chi integration type
!@!!Title/SampleName: map-dd
!@!!Comment: ?
!@!!User: Bruker Instrument Administrator
!@!!Site: University of Illinois Chicago
!@!!Frame: map-dd_01_000.gfrm
!@!!Wavelengths    1.54184   1.54056   1.54439
!@!!Frame angles: 2Theta: 63.000 Omega: 50.000 Phi: 0.000 Chi: 90.000
!@!!Integration range: 2Theta: 53.000 to 73.000  Gamma: -105.000 to -75.000
!@!!Integration method: bin normalized
!@!N
!@!SS
!@!M
!@!L 0.0 0.0 0.0 0.0
!@!XDegrees
!@!YCounts
53.000 9.26038
53.005 8.955824
53.010 9.078302
53.015 8.716951
53.020 8.718269
53.025 8.22288
53.030 8.221348
53.035 8.451686
53.040 8.692708
53.045 8.961771
53.050 9.040229
53.055 8.959224
53.060 9.027248
53.065 8.586669
53.070 8.585387
53.075 8.235591
53.080 8.268746
53.085 8.181974
53.090 8.418591
53.095 8.556323
53.100 8.799203
53.105 9.270382
53.110 9.256746
53.115 9.025643
53.120 8.763925
53.125 8.293958
53.130 8.618927
53.135 8.133554
53.140 7.802936
53.145 8.03636
53.150 8.491132
53.155 8.794905
53.160 9.143942
53.165 9.016903
53.170 9.065638
53.175 8.823726
53.180 8.240616
53.185 7.783742
53.190 7.518133
53.195 7.409675
53.200 7.799645
53.205 8.249962
53.210 8.628174
53.215 9.293668
53.220 9.583958
53.225 9.396936
53.230 9.441138
53.235 9.082273
53.240 9.114092
53.245 9.110422
53.250 9.174267
53.255 9.290421
53.260 9.557793
53.265 9.571537
53.270 9.805561
53.275 9.896406
53.280 10.1699
53.285 10.061082
53.290 10.115289
53.295 10.012581
53.300 9.992544
53.305 9.53888
53.310 9.126417
53.315 8.910221
53.320 8.53298
53.325 8.357408
53.330 8.159579
53.335 8.138661
53.340 8.146761
53.345 8.059347
53.350 7.905292
53.355 8.233064
53.360 7.831534
53.365 7.889757
53.370 7.923413
53.375 7.895538
53.380 8.06533
53.385 8.776883
53.390 9.004424
53.395 9.07747
53.400 8.813641
53.405 8.896497
53.410 9.139832
53.415 9.365355
53.420 8.984171
53.425 8.86616
53.430 9.33091
53.435 9.89064
53.440 10.181255
53.445 10.190071
53.450 10.021471
53.455 10.205227
53.460 10.019897
53.465 9.957286
53.470 9.676579
53.475 9.300956
53.480 8.93255
53.485 8.79927
53.490 8.703514
53.495 8.774743
53.500 8.746351
53.505 8.846773
53.510 9.370337
53.515 9.642351
53.520 10.177692
53.525 10.647531
53.530 10.714491
53.535 10.692924
53.540 10.368249
53.545 9.966778
53.550 9.914357
53.555 9.288464
53.560 8.916648
53.565 8.82132
53.570 8.548307
53.575 8.585035
53.580 8.555815
53.585 8.453086
53.590 8.874901
53.595 9.091204
53.600 8.826623
53.605 9.006727
53.610 9.354774
53.615 9.412753
53.620 9.632961
53.625 9.662018
53.630 9.921143
53.635 10.035055
53.640 9.975622
53.645 10.114539
53.650 10.357586
53.655 10.055836
53.660 9.990767
53.665 9.983644
53.670 10.394775
53.675 10.003675
53.680 9.469031
53.685 9.371784
53.690 9.373024
53.695 9.365846
53.700 9.438916
53.705 9.562348
53.710 9.289054
53.715 9.141836
53.720 9.100218
53.725 8.906574
53.730 8.774433
53.735 8.800564
53.740 8.828953
53.745 9.295879
53.750 9.436021
53.755 9.775345
53.760 10.23306
53.765 10.326968
53.770 10.256708
53.775 10.138863
53.780 10.420185
53.785 10.377962
53.790 10.417169
53.795 10.258483
53.800 10.384685
53.805 10.357647
53.810 9.921379
53.815 9.320671
53.820 9.230648
53.825 9.494859
53.830 9.955214
53.835 9.906349
53.840 10.142484
53.845 10.618519
53.850 11.143841
53.855 11.304025
53.860 11.600864
53.865 11.577925
53.870 11.883327
53.875 11.992694
53.880 11.85208
53.885 11.579946
53.890 11.122894
53.895 9.98211
53.900 9.48979
53.905 9.197025
53.910 9.68495
53.915 10.19324
53.920 9.987246
53.925 9.634164
53.930 9.688708
53.935 10.142469
53.940 10.036227
53.945 9.60303
53.950 9.584155
53.955 9.945462
53.960 10.335642
53.965 10.521051
53.970 10.159117
53.975 10.198262
53.980 9.812341
53.985 9.878227
53.990 10.230622
53.995 10.960361
54.000 10.693073
54.005 10.786656
54.010 10.997778
54.015 11.292506
54.020 11.19904
54.025 10.944896
54.030 10.967266
54.035 11.111276
54.040 11.276915
54.045 11.279661
54.050 10.879419
54.055 11.276288
54.060 10.920026
54.065 10.266952
54.070 10.309179
54.075 9.956802
54.080 10.2776
54.085 10.642271
54.090 10.829531
54.095 11.079374
54.100 11.109971
54.105 10.747924
54.110 10.738478
54.115 10.399917
54.120 10.01076
54.125 9.894724
54.130 9.55822
54.135 9.670316
54.140 10.064083
54.145 10.08884
54.150 10.187616
54.155 10.094904
54.160 10.478387
54.165 10.887352
54.170 11.189237
54.175 11.088231
54.180 11.340791
54.185 11.284578
54.190 11.104274
54.195 11.133753
54.200 10.577456
54.205 10.697799
54.210 10.871562
54.215 10.694988
54.220 10.659662
54.225 10.764577
54.230 10.638713
54.235 11.27188
54.240 10.677888
54.245 10.281152
54.250 10.33439
54.255 10.544659
54.260 10.375791
54.265 9.88783
54.270 9.612513
54.275 9.584812
54.280 9.560887
54.285 9.682256
54.290 9.475959
54.295 9.658381
54.300 9.879045
54.305 10.128417
54.310 10.480289
54.315 10.702938
54.320 11.181435
54.325 11.539919
54.330 11.552635
54.335 11.796911
54.340 11.736423
54.345 11.847455
54.350 11.840441
54.355 11.269105
54.360 10.65172
54.365 10.562396
54.370 10.384416
54.375 10.153965
54.380 9.572126
54.385 9.015801
54.390 9.333618
54.395 9.991938
54.400 10.198457
54.405 10.499328
54.410 10.924451
54.415 10.955839
54.420 11.194969
54.425 11.10997
54.430 10.691782
54.435 10.079341
54.440 9.690765
54.445 9.613393
54.450 9.567822
54.455 9.325566
54.460 9.089128
54.465 9.122818
54.470 9.443731
54.475 9.484807
54.480 9.540423
54.485 9.769711
54.490 10.160557
54.495 10.254668
54.500 10.373318
54.505 10.409705
54.510 10.619381
54.515 10.388401
54.520 10.364448
54.525 9.992705
54.530 9.679184
54.535 9.49507
54.540 9.199046
54.545 9.086739
54.550 9.541418
54.555 9.399407
54.560 9.705991
54.565 9.995065
54.570 10.426673
54.575 10.995398
54.580 11.586808
54.585 11.88045
54.590 11.784514
54.595 11.970612
54.600 12.114354
54.605 12.029532
54.610 11.572489
54.615 11.06726
54.620 11.277392
54.625 11.509219
54.630 10.931349
54.635 10.463582
54.640 10.247499
54.645 10.430307
54.650 10.047379
54.655 9.876427
54.660 10.247674
54.665 10.814807
54.670 11.205576
54.675 11.460988
54.680 11.819572
54.685 12.360677
54.690 12.391074
54.695 12.560967
54.700 12.526853
54.705 12.442183
54.710 11.99722
54.715 11.940839
54.720 11.714622
54.725 11.375113
54.730 10.99955
54.735 10.585859
54.740 10.93294
54.745 11.688914
54.750 11.661641
54.755 11.813651
54.760 12.140798
54.765 12.170631
54.770 12.537182
54.775 12.231273
54.780 11.42805
54.785 10.903501
54.790 10.285047
54.795 9.478716
54.800 9.169138
54.805 8.793839
54.810 8.855783
54.815 9.010165
54.820 9.219953
54.825 9.956969
54.830 10.080338
54.835 9.846611
54.840 9.878635
54.845 9.90454
54.850 9.893934
54.855 9.417706
54.860 9.342205
54.865 9.746882
54.870 10.457393
54.875 10.70286
54.880 10.964393
54.885 11.156624
54.890 11.798141
54.895 11.796691
54.900 11.781274
54.905 11.389553
54.910 11.302699
54.915 11.548635
54.920 11.536152
54.925 11.526155
54.930 11.685328
54.935 11.898429
54.940 12.349602
54.945 12.362916
54.950 12.442406
54.955 12.237483
54.960 11.981188
54.965 11.998837
54.970 11.839444
54.975 11.417154
54.980 11.151178
54.985 10.961363
54.990 10.96326
54.995 10.988377
55.000 10.575089
55.005 10.494579
55.010 10.684463
55.015 10.764424
55.020 10.633813
55.025 10.555423
55.030 10.7609
55.035 10.987496
55.040 10.903713
55.045 10.873674
55.050 10.584527
55.055 10.909166
55.060 11.546347
55.065 11.433584
55.070 11.505247
55.075 11.273228
55.080 11.327652
55.085 11.685618
55.090 12.01098
55.095 12.039976
55.100 12.627145
55.105 12.401971
55.110 12.207786
55.115 11.888969
55.120 11.767764
55.125 11.310601
55.130 10.895439
55.135 10.946528
55.140 11.162335
55.145 11.285581
55.150 11.487847
55.155 11.30275
55.160 11.107788
55.165 11.130602
55.170 10.821634
55.175 11.10392
55.180 11.255385
55.185 11.149888
55.190 11.050977
55.195 11.492883
55.200 11.328971
55.205 11.946973
55.210 12.101389
55.215 12.01582
55.220 12.738734
55.225 13.098289
55.230 13.128131
55.235 12.958225
55.240 12.325664
55.245 12.482791
55.250 12.417521
55.255 11.580118
55.260 11.3956
55.265 11.096814
55.270 10.968228
55.275 10.806005
55.280 10.534554
55.285 10.549029
55.290 10.484333
55.295 10.344819
55.300 10.411783
55.305 10.219368
55.310 10.27609
55.315 10.500818
55.320 11.093104
55.325 11.643272
55.330 12.109802
55.335 12.507941
55.340 12.964278
55.345 13.193138
55.350 13.27828
55.355 12.287973
55.360 11.687349
55.365 11.379003
55.370 11.796372
55.375 11.955167
55.380 11.870418
55.385 11.472487
55.390 11.684171
55.395 12.076751
55.400 11.997912
55.405 11.778546
55.410 11.531288
55.415 11.142977
55.420 11.722077
55.425 11.609628
55.430 11.346751
55.435 11.194331
55.440 11.495206
55.445 11.743969
55.450 11.897297
55.455 11.648174
55.460 12.094228
55.465 12.428213
55.470 13.017822
55.475 12.951281
55.480 12.940473
55.485 13.133393
55.490 13.2704
55.495 13.206427
55.500 13.072318
55.505 12.87901
55.510 12.534972
55.515 12.358911
55.520 11.999282
55.525 11.911208
55.530 11.295244
55.535 10.683615
55.540 10.569618
55.545 10.486971
55.550 10.882801
55.555 11.352011
55.560 11.443327
55.565 11.861787
55.570 11.849178
55.575 11.747684
55.580 11.772932
55.585 11.744051
55.590 11.503497
55.595 11.696014
55.600 11.655858
55.605 11.771255
55.610 11.648397
55.615 11.33572
55.620 11.259567
55.625 11.482943
55.630 11.617195
55.635 11.743823
55.640 11.661816
55.645 11.763205
55.650 11.682904
55.655 11.62928
55.660 11.520725
55.665 11.217608
55.670 11.505787
55.675 11.259401
55.680 11.319982
55.685 11.515562
55.690 11.147774
55.695 10.878362
55.700 10.911355
55.705 10.516685
55.710 10.734926
55.715 10.989731
55.720 11.505076
55.725 11.991207
55.730 12.069019
55.735 11.893227
55.740 12.470016
55.745 12.942368
55.750 13.078259
55.755 12.554915
55.760 12.500704
55.765 12.746297
55.770 13.803843
55.775 13.833646
55.780 13.845872
55.785 13.96578
55.790 14.261225
55.795 14.404082
55.800 14.244414
55.805 12.904837
55.810 13.096988
55.815 12.820511
55.820 12.705109
55.825 12.602428
55.830 12.364538
55.835 12.152597
55.840 12.873047
55.845 12.770785
55.850 12.495236
55.855 12.181449
55.860 12.061408
55.865 12.58497
55.870 13.070417
55.875 12.324945
55.880 12.328045
55.885 12.864902
55.890 13.125383
55.895 12.907875
55.900 12.57847
55.905 12.340163
55.910 12.603527
55.915 12.094506
55.920 11.389072
55.925 11.533284
55.930 11.611209
55.935 11.680397
55.940 12.008685
55.945 12.364166
55.950 12.831161
55.955 12.892889
55.960 12.96272
55.965 13.048489
55.970 13.138009
55.975 12.853763
55.980 12.341912
55.985 12.076852
55.990 12.500676
55.995 12.409062
56.000 12.046368
56.005 12.147692
56.010 12.103468
56.015 11.94136
56.020 11.99804
56.025 12.237494
56.030 12.658995
56.035 12.8332
56.040 12.933601
56.045 13.168312
56.050 13.489703
56.055 13.541268
56.060 13.084993
56.065 13.17125
56.070 13.257876
56.075 12.915955
56.080 13.100618
56.085 13.220907
56.090 12.974375
56.095 13.314521
56.100 13.2172
56.105 13.126109
56.110 12.790758
56.115 12.245202
56.120 12.341322
56.125 12.347416
56.130 11.819715
56.135 11.514609
56.140 11.583439
56.145 11.821514
56.150 11.729388
56.155 12.061773
56.160 12.125529
56.165 12.31326
56.170 12.501826
56.175 12.45255
56.180 12.628818
56.185 12.600298
56.190 11.860733
56.195 11.729184
56.200 11.497388
56.205 11.223569
56.210 11.221433
56.215 11.445217
56.220 11.751478
56.225 12.110097
56.230 12.582176
56.235 13.222076
56.240 13.56294
56.245 13.679605
56.250 13.753392
56.255 13.640897
56.260 13.946901
56.265 13.37173
56.270 13.266197
56.275 13.185495
56.280 12.780956
56.285 12.907843
56.290 12.896688
56.295 12.80628
56.300 13.066044
56.305 12.88561
56.310 13.227021
56.315 13.541969
56.320 13.602859
56.325 13.811196
56.330 13.944301
56.335 13.974482
56.340 13.846984
56.345 13.613938
56.350 13.143826
56.355 13.00289
56.360 13.284212
56.365 13.182611
56.370 13.183437
56.375 13.075054
56.380 13.261832
56.385 14.383913
56.390 14.332436
56.395 13.769732
56.400 13.841521
56.405 13.710714
56.410 13.742065
56.415 13.522461
56.420 12.991964
56.425 12.833749
56.430 13.040449
56.435 12.994004
56.440 12.9913
56.445 13.282716
56.450 13.356274
56.455 13.004683
56.460 13.153564
56.465 13.073677
56.470 13.027677
56.475 13.212838
56.480 13.161994
56.485 13.05254
56.490 13.702136
56.495 13.898559
56.500 14.2319
56.505 14.294231
56.510 14.274932
56.515 14.341011
56.520 14.234698
56.525 13.775445
56.530 13.624581
56.535 14.062127
56.540 14.590854
56.545 14.550493
56.550 14.659197
56.555 14.897511
56.560 15.152611
56.565 14.240614
56.570 13.530059
56.575 12.952911
56.580 12.539491
56.585 11.930094
56.590 11.441127
56.595 11.864717
56.600 12.356634
56.605 12.455997
56.610 13.23928
56.615 13.4285
56.620 13.296153
56.625 13.521247
56.630 13.444024
56.635 13.435375
56.640 12.848173
56.645 12.12316
56.650 12.382739
56.655 12.774908
56.660 13.191139
56.665 13.431348
56.670 13.12257
56.675 13.869781
56.680 14.143449
56.685 14.515231
56.690 14.414615
56.695 14.235626
56.700 14.123628
56.705 14.160377
56.710 14.034246
56.715 13.762943
56.720 14.029872
56.725 14.198065
56.730 13.481007
56.735 12.952641
56.740 13.532099
56.745 13.868407
56.750 14.03357
56.755 13.367528
56.760 13.584068
56.765 14.327332
56.770 14.659863
56.775 14.228746
56.780 14.229755
56.785 14.210374
56.790 14.262334
56.795 13.92486
56.800 13.604915
56.805 13.788423
56.810 13.640766
56.815 13.127711
56.820 13.264633
56.825 13.866548
56.830 13.659377
56.835 13.402223
56.840 13.115488
56.845 13.056887
56.850 13.18337
56.855 13.023611
56.860 12.808794
56.865 13.253343
56.870 14.070579
56.875 14.828535
56.880 15.29328
56.885 15.528657
56.890 15.148557
56.895 15.100366
56.900 15.395051
56.905 15.057794
56.910 15.051209
56.915 15.151335
56.920 15.149282
56.925 15.36473
56.930 15.177686
56.935 14.446614
56.940 14.203342
56.945 13.467132
56.950 13.20201
56.955 13.342733
56.960 13.764234
56.965 13.828815
56.970 13.449091
56.975 13.841289
56.980 14.39755
56.985 14.657355
56.990 14.434299
56.995 14.196393
57.000 14.778673
57.005 15.347233
57.010 14.517377
57.015 13.832338
57.020 13.598898
57.025 13.581296
57.030 12.971599
57.035 12.401074
57.040 12.473593
57.045 12.411077
57.050 12.496799
57.055 12.474665
57.060 12.468575
57.065 12.765213
57.070 12.804772
57.075 12.777453
57.080 13.175302
57.085 13.254573
57.090 13.171902
57.095 12.760044
57.100 12.572054
57.105 12.232117
57.110 12.392005
57.115 12.113565
57.120 12.096112
57.125 12.497518
57.130 12.936104
57.135 13.393157
57.140 13.448259
57.145 13.62686
57.150 14.237783
57.155 14.415865
57.160 14.1811
57.165 13.955422
57.170 13.774089
57.175 14.316189
57.180 14.901728
57.185 15.060158
57.190 14.774572
57.195 15.088598
57.200 15.520241
57.205 15.078607
57.210 14.66763
57.215 13.365447
57.220 12.914712
57.225 13.416157
57.230 12.938621
57.235 12.853284
57.240 13.037555
57.245 12.627786
57.250 12.967609
57.255 12.912797
57.260 12.864541
57.265 13.034686
57.270 13.174741
57.275 13.308577
57.280 14.066385
57.285 14.163102
57.290 14.711531
57.295 15.125068
57.300 14.85667
57.305 14.800934
57.310 14.579926
57.315 13.832864
57.320 13.65632
57.325 12.504554
57.330 12.437722
57.335 12.984259
57.340 13.042236
57.345 13.142506
57.350 13.483395
57.355 13.780544
57.360 14.009613
57.365 13.49736
57.370 13.098802
57.375 13.323671
57.380 13.516304
57.385 13.166636
57.390 12.971663
57.395 13.190549
57.400 13.616572
57.405 13.778296
57.410 13.931084
57.415 14.607305
57.420 14.791878
57.425 14.881934
57.430 14.796966
57.435 14.914837
57.440 14.966242
57.445 14.63085
57.450 14.201699
57.455 14.797675
57.460 15.017796
57.465 14.807572
57.470 14.430788
57.475 14.26132
57.480 14.144349
57.485 14.275673
57.490 13.803433
57.495 13.75017
57.500 13.785096
57.505 14.071858
57.510 14.285883
57.515 13.899846
57.520 13.806487
57.525 13.928421
57.530 13.760438
57.535 13.523114
57.540 13.382781
57.545 13.760038
57.550 14.261985
57.555 13.836615
57.560 13.897481
57.565 14.508222
57.570 14.626432
57.575 14.67997
57.580 14.105996
57.585 14.044049
57.590 14.554737
57.595 14.48415
57.600 14.177531
57.605 14.353502
57.610 13.772717
57.615 14.001928
57.620 13.849304
57.625 13.625057
57.630 14.241786
57.635 13.87659
57.640 13.774089
57.645 13.948603
57.650 14.16984
57.655 14.65177
57.660 14.866996
57.665 14.901452
57.670 14.797992
57.675 14.692613
57.680 14.575669
57.685 14.015581
57.690 13.679405
57.695 13.517099
57.700 13.583531
57.705 14.025657
57.710 14.745944
57.715 15.12358
57.720 15.29929
57.725 14.90839
57.730 14.595028
57.735 14.265038
57.740 14.121082
57.745 13.493074
57.750 13.394135
57.755 13.807884
57.760 14.719928
57.765 14.985105
57.770 14.494394
57.775 14.328164
57.780 14.473929
57.785 14.240115
57.790 14.041841
57.795 13.319505
57.800 13.283242
57.805 13.60548
57.810 13.791749
57.815 14.429205
57.820 14.725755
57.825 14.581849
57.830 14.520775
57.835 14.654188
57.840 14.664942
57.845 14.942768
57.850 14.43138
57.855 14.281646
57.860 14.237585
57.865 14.442281
57.870 14.493395
57.875 14.589522
57.880 14.460807
57.885 14.513515
57.890 14.500451
57.895 14.493015
57.900 14.785391
57.905 14.455107
57.910 14.606222
57.915 14.685498
57.920 15.008778
57.925 15.54642
57.930 15.584065
57.935 15.220779
57.940 15.459469
57.945 15.733995
57.950 15.833161
57.955 15.478121
57.960 14.852201
57.965 14.527414
57.970 14.885817
57.975 14.727009
57.980 14.536226
57.985 14.612025
57.990 15.036077
57.995 15.712344
58.000 16.065672
58.005 15.952318
58.010 15.674439
58.015 15.347767
58.020 15.28042
58.025 14.927037
58.030 14.6617
58.035 14.686368
58.040 14.687094
58.045 15.139608
58.050 14.961543
58.055 14.991293
58.060 14.947028
58.065 15.296868
58.070 15.295046
58.075 15.114888
58.080 15.057355
58.085 15.013426
58.090 15.122774
58.095 14.891303
58.100 14.843301
58.105 15.431899
58.110 15.577529
58.115 15.370127
58.120 15.153519
58.125 15.152687
58.130 14.990002
58.135 14.454607
58.140 14.044693
58.145 14.347077
58.150 14.580716
58.155 14.57296
58.160 14.886354
58.165 14.964796
58.170 15.245357
58.175 15.363025
58.180 15.443075
58.185 15.509005
58.190 15.526763
58.195 15.054297
58.200 15.262735
58.205 15.019615
58.210 14.762044
58.215 14.608943
58.220 14.747468
58.225 14.759918
58.230 14.611019
58.235 14.607617
58.240 14.82214
58.245 14.58932
58.250 13.850976
58.255 13.852126
58.260 13.72368
58.265 13.627757
58.270 13.07205
58.275 12.859076
58.280 13.080647
58.285 13.678215
58.290 14.007927
58.295 14.688013
58.300 15.092869
58.305 15.129273
58.310 14.769955
58.315 14.097945
58.320 14.154627
58.325 13.578789
58.330 12.973753
58.335 13.347314
58.340 13.566697
58.345 14.441809
58.350 15.540708
58.355 15.794935
58.360 16.093731
58.365 17.018593
58.370 16.62162
58.375 16.613388
58.380 16.554365
58.385 16.099638
58.390 15.219232
58.395 15.172361
58.400 14.550389
58.405 15.053601
58.410 15.018089
58.415 14.706427
58.420 15.239938
58.425 15.449623
58.430 15.561918
58.435 15.611116
58.440 15.407772
58.445 16.080355
58.450 15.84202
58.455 15.236263
58.460 15.433537
58.465 15.821527
58.470 15.945667
58.475 15.622274
58.480 15.037397
58.485 15.357483
58.490 15.79312
58.495 15.987436
