!@!!GADDS PLOTSO FILE: Chi integration type
!@!!Title/SampleName: map-11d
!@!!Comment: ?
!@!!User: Bruker Instrument Administrator
!@!!Site: University of Illinois Chicago
!@!!Frame: map-11d_01_000.gfrm
!@!!Wavelengths    1.54184   1.54056   1.54439
!@!!Frame angles: 2Theta: 63.000 Omega: 50.000 Phi: 0.000 Chi: 90.000
!@!!Integration range: 2Theta: 53.000 to 73.000  Gamma: -105.000 to -75.000
!@!!Integration method: bin normalized
!@!N
!@!SS
!@!M
!@!L 0.0 0.0 0.0 0.0
!@!XDegrees
!@!YCounts
53.000 10.434897
53.005 10.122431
53.010 10.222714
53.015 9.978128
53.020 10.199017
53.025 9.812094
53.030 9.431719
53.035 10.020969
53.040 9.920793
53.045 9.249729
53.050 8.97157
53.055 8.484113
53.060 8.661304
53.065 8.856464
53.070 9.153288
53.075 9.420242
53.080 10.049343
53.085 10.411897
53.090 10.837857
53.095 11.028981
53.100 10.730575
53.105 10.496585
53.110 10.763314
53.115 10.380795
53.120 9.893674
53.125 9.431609
53.130 9.373242
53.135 9.418741
53.140 9.362072
53.145 9.161114
53.150 9.340279
53.155 10.119495
53.160 10.558403
53.165 10.510286
53.170 10.529059
53.175 10.491117
53.180 10.591477
53.185 10.732219
53.190 10.51486
53.195 10.51514
53.200 10.720246
53.205 10.807944
53.210 10.982589
53.215 11.06236
53.220 11.176511
53.225 11.115035
53.230 10.63544
53.235 10.261313
53.240 10.445224
53.245 9.744881
53.250 9.326204
53.255 9.099944
53.260 9.133745
53.265 9.835294
53.270 9.876945
53.275 10.019461
53.280 10.336129
53.285 10.143479
53.290 9.890279
53.295 9.56889
53.300 9.369064
53.305 9.244735
53.310 9.232755
53.315 9.475792
53.320 9.96339
53.325 10.217402
53.330 9.743119
53.335 9.454038
53.340 9.007863
53.345 8.749143
53.350 8.448319
53.355 8.189431
53.360 8.580482
53.365 9.03551
53.370 9.290237
53.375 9.57162
53.380 9.508648
53.385 9.75265
53.390 9.556194
53.395 9.455221
53.400 9.851844
53.405 9.697111
53.410 9.943735
53.415 10.235856
53.420 10.760148
53.425 10.766137
53.430 10.108335
53.435 10.17353
53.440 10.516742
53.445 10.119009
53.450 9.868998
53.455 9.514256
53.460 10.079474
53.465 10.6367
53.470 11.145241
53.475 11.236093
53.480 11.711412
53.485 11.952533
53.490 11.990928
53.495 11.801823
53.500 11.265118
53.505 10.704441
53.510 10.829449
53.515 10.625858
53.520 10.457123
53.525 10.325432
53.530 10.352692
53.535 10.294781
53.540 10.379904
53.545 10.002195
53.550 9.963169
53.555 10.138432
53.560 10.154272
53.565 10.200365
53.570 10.108329
53.575 10.346461
53.580 10.546155
53.585 10.403766
53.590 10.217717
53.595 10.293845
53.600 10.149132
53.605 9.935136
53.610 9.913169
53.615 10.165862
53.620 10.001519
53.625 9.945444
53.630 9.9131
53.635 10.570032
53.640 11.02493
53.645 11.079318
53.650 11.038929
53.655 11.194607
53.660 11.492963
53.665 11.685458
53.670 11.421064
53.675 11.314334
53.680 10.791204
53.685 10.628657
53.690 10.415529
53.695 10.333017
53.700 9.73853
53.705 9.653858
53.710 9.106046
53.715 9.143685
53.720 9.620638
53.725 9.881557
53.730 9.627591
53.735 9.94382
53.740 10.555392
53.745 10.953156
53.750 11.120135
53.755 11.166718
53.760 11.235226
53.765 11.483933
53.770 10.983475
53.775 11.180264
53.780 11.348658
53.785 11.142821
53.790 11.014141
53.795 10.799386
53.800 10.62225
53.805 10.39428
53.810 10.053355
53.815 10.255175
53.820 10.462846
53.825 10.774624
53.830 11.02999
53.835 11.203666
53.840 11.583438
53.845 11.471573
53.850 11.390265
53.855 11.391542
53.860 11.376682
53.865 11.074217
53.870 11.451275
53.875 11.039187
53.880 10.87919
53.885 10.925452
53.890 10.634003
53.895 10.523766
53.900 10.394999
53.905 10.072275
53.910 10.60552
53.915 10.670818
53.920 10.716349
53.925 10.68587
53.930 11.62922
53.935 12.439926
53.940 12.246309
53.945 11.933644
53.950 11.621329
53.955 11.356961
53.960 11.273501
53.965 10.624002
53.970 10.176266
53.975 10.636721
53.980 10.564085
53.985 10.752562
53.990 10.936069
53.995 10.901598
54.000 10.613159
54.005 10.740428
54.010 10.660068
54.015 11.088939
54.020 11.11573
54.025 11.305578
54.030 11.038242
54.035 11.239096
54.040 11.315495
54.045 11.32441
54.050 11.43388
54.055 11.41852
54.060 11.918155
54.065 12.402921
54.070 12.388304
54.075 12.068408
54.080 11.794827
54.085 12.089144
54.090 11.903355
54.095 10.858096
54.100 10.396042
54.105 10.463243
54.110 10.832267
54.115 10.74203
54.120 10.331955
54.125 10.466442
54.130 10.948997
54.135 11.003872
54.140 10.829473
54.145 10.669742
54.150 10.463435
54.155 10.402139
54.160 10.544077
54.165 10.236337
54.170 10.027714
54.175 10.30007
54.180 10.281303
54.185 10.544185
54.190 10.652821
54.195 10.417321
54.200 10.865867
54.205 10.98559
54.210 11.28575
54.215 11.100472
54.220 11.109699
54.225 11.530844
54.230 12.162126
54.235 12.903748
54.240 12.855459
54.245 12.957283
54.250 12.969773
54.255 12.676157
54.260 12.678548
54.265 12.524332
54.270 12.380332
54.275 12.227935
54.280 12.031309
54.285 12.770373
54.290 12.61091
54.295 11.963005
54.300 11.852769
54.305 12.105592
54.310 12.245777
54.315 11.871972
54.320 11.711166
54.325 11.811612
54.330 11.722987
54.335 11.358795
54.340 10.919617
54.345 10.97243
54.350 11.26382
54.355 11.023464
54.360 10.772328
54.365 10.751506
54.370 10.654096
54.375 10.351048
54.380 10.152225
54.385 10.03604
54.390 9.995943
54.395 10.11871
54.400 10.1582
54.405 10.591608
54.410 10.893045
54.415 11.231378
54.420 11.457588
54.425 12.101239
54.430 12.342231
54.435 12.71766
54.440 13.413445
54.445 13.705675
54.450 13.749195
54.455 13.670455
54.460 13.718925
54.465 13.232825
54.470 12.685505
54.475 11.743721
54.480 11.568042
54.485 11.119246
54.490 10.76469
54.495 10.364948
54.500 10.562286
54.505 10.839408
54.510 10.957851
54.515 11.383309
54.520 11.747951
54.525 12.163607
54.530 12.272109
54.535 12.022853
54.540 11.992895
54.545 11.985787
54.550 11.829742
54.555 11.179743
54.560 10.914351
54.565 11.268701
54.570 11.190218
54.575 10.775296
54.580 10.437648
54.585 10.240436
54.590 10.648332
54.595 10.992246
54.600 11.183021
54.605 11.463019
54.610 11.906701
54.615 12.304842
54.620 12.25159
54.625 12.532636
54.630 12.103761
54.635 12.195464
54.640 12.469116
54.645 12.372914
54.650 12.240445
54.655 11.923765
54.660 11.589004
54.665 11.540125
54.670 10.925432
54.675 10.399824
54.680 10.497601
54.685 10.578122
54.690 10.656328
54.695 10.574714
54.700 10.403844
54.705 10.508505
54.710 10.496491
54.715 9.80689
54.720 9.257791
54.725 9.597419
54.730 9.918415
54.735 10.307602
54.740 11.174777
54.745 11.88227
54.750 12.254373
54.755 12.212242
54.760 11.84067
54.765 11.819887
54.770 11.616581
54.775 11.623902
54.780 11.832308
54.785 12.042968
54.790 11.965261
54.795 11.842492
54.800 11.825274
54.805 11.319138
54.810 10.579909
54.815 10.196694
54.820 10.530528
54.825 10.710737
54.830 11.284413
54.835 11.233082
54.840 11.181351
54.845 11.528375
54.850 11.795837
54.855 11.869722
54.860 11.713426
54.865 11.407582
54.870 11.508584
54.875 11.572424
54.880 11.687155
54.885 11.63087
54.890 11.451987
54.895 11.777078
54.900 11.779729
54.905 11.546948
54.910 11.57421
54.915 11.172829
54.920 11.565593
54.925 11.867567
54.930 12.049165
54.935 12.104631
54.940 12.346009
54.945 12.797694
54.950 12.807439
54.955 13.202668
54.960 13.169917
54.965 12.697407
54.970 12.585698
54.975 12.596633
54.980 12.340686
54.985 12.349834
54.990 11.253181
54.995 11.143354
55.000 11.372281
55.005 11.517209
55.010 11.509025
55.015 11.451777
55.020 11.263889
55.025 11.719036
55.030 11.948802
55.035 12.371111
55.040 13.108672
55.045 13.452188
55.050 13.553285
55.055 13.654646
55.060 13.439142
55.065 13.311253
55.070 12.5962
55.075 11.682832
55.080 11.47367
55.085 11.27932
55.090 11.840126
55.095 11.914028
55.100 12.175543
55.105 12.574455
55.110 12.904269
55.115 12.749951
55.120 12.565161
55.125 12.219805
55.130 12.298195
55.135 11.919362
55.140 11.309197
55.145 11.221479
55.150 11.225263
55.155 11.129703
55.160 11.115015
55.165 11.215766
55.170 11.886484
55.175 12.601489
55.180 12.836271
55.185 13.274422
55.190 13.730192
55.195 13.810394
55.200 13.015788
55.205 12.428862
55.210 11.998738
55.215 12.231398
55.220 12.826938
55.225 12.358955
55.230 12.167784
55.235 12.418583
55.240 12.623955
55.245 12.945439
55.250 12.569113
55.255 11.910584
55.260 12.039011
55.265 12.019799
55.270 11.921226
55.275 11.797162
55.280 11.681691
55.285 11.691279
55.290 11.57479
55.295 12.497665
55.300 12.874358
55.305 12.817823
55.310 12.374818
55.315 12.131027
55.320 12.211774
55.325 12.329318
55.330 11.129191
55.335 11.112966
55.340 11.151884
55.345 11.333589
55.350 11.29817
55.355 10.997466
55.360 10.946316
55.365 11.376147
55.370 11.343366
55.375 10.9297
55.380 10.754981
55.385 10.437934
55.390 10.61942
55.395 11.650961
55.400 11.475299
55.405 11.515642
55.410 12.269473
55.415 12.571157
55.420 12.846167
55.425 12.727353
55.430 12.009074
55.435 11.935589
55.440 12.688289
55.445 12.868449
55.450 12.938788
55.455 13.069179
55.460 12.686174
55.465 12.535958
55.470 12.628501
55.475 12.145298
55.480 11.611476
55.485 11.6865
55.490 11.43475
55.495 11.353981
55.500 11.935394
55.505 11.602314
55.510 11.134773
55.515 10.792929
55.520 10.741324
55.525 10.789838
55.530 10.877179
55.535 11.471878
55.540 12.219116
55.545 12.987152
55.550 13.134593
55.555 13.235469
55.560 13.449149
55.565 13.558306
55.570 13.079901
55.575 12.836664
55.580 12.928144
55.585 13.815176
55.590 13.965529
55.595 13.954561
55.600 13.768643
55.605 13.464562
55.610 13.176984
55.615 12.820967
55.620 12.498635
55.625 12.476171
55.630 12.306762
55.635 12.133052
55.640 12.179631
55.645 12.668957
55.650 12.661109
55.655 11.922105
55.660 11.771923
55.665 11.666518
55.670 11.248996
55.675 11.107224
55.680 11.078951
55.685 11.287829
55.690 11.620297
55.695 11.357562
55.700 11.353782
55.705 11.375679
55.710 11.115766
55.715 11.181216
55.720 11.283816
55.725 11.574563
55.730 12.224772
55.735 12.650602
55.740 13.036489
55.745 13.162892
55.750 13.099518
55.755 13.165173
55.760 12.642153
55.765 12.490968
55.770 12.523376
55.775 12.682694
55.780 12.33626
55.785 12.025073
55.790 12.404673
55.795 12.892524
55.800 12.869991
55.805 13.245462
55.810 13.383566
55.815 13.720528
55.820 13.932618
55.825 13.38753
55.830 13.036863
55.835 12.503295
55.840 11.914066
55.845 11.75779
55.850 11.326808
55.855 10.964761
55.860 10.721191
55.865 11.028193
55.870 11.628618
55.875 11.695333
55.880 11.757787
55.885 12.129244
55.890 12.672669
55.895 12.913516
55.900 12.518143
55.905 12.398689
55.910 12.767853
55.915 12.886985
55.920 12.714764
55.925 11.975858
55.930 12.139347
55.935 12.749423
55.940 12.58326
55.945 13.076825
55.950 13.081436
55.955 13.370273
55.960 13.939669
55.965 13.834
55.970 13.670753
55.975 13.79864
55.980 13.142236
55.985 13.173331
55.990 12.709556
55.995 12.596804
56.000 12.461186
56.005 11.790956
56.010 11.586955
56.015 11.882826
56.020 11.41103
56.025 11.86431
56.030 11.795555
56.035 11.943069
56.040 12.031363
56.045 11.429808
56.050 11.40538
56.055 11.729836
56.060 11.637586
56.065 11.861798
56.070 12.004504
56.075 12.259212
56.080 12.714862
56.085 13.070708
56.090 13.503216
56.095 13.532213
56.100 12.860572
56.105 12.434655
56.110 12.533387
56.115 12.13165
56.120 11.25658
56.125 10.787544
56.130 10.94163
56.135 11.763532
56.140 11.921031
56.145 11.518236
56.150 11.465167
56.155 11.23569
56.160 11.11781
56.165 11.063223
56.170 10.769381
56.175 10.997294
56.180 11.388188
56.185 11.745391
56.190 12.349718
56.195 12.633852
56.200 12.509044
56.205 12.435899
56.210 12.06089
56.215 12.004274
56.220 12.190672
56.225 12.419829
56.230 12.606324
56.235 12.845061
56.240 13.112204
56.245 13.505778
56.250 13.342314
56.255 12.61857
56.260 12.379891
56.265 12.41671
56.270 12.451301
56.275 12.004864
56.280 11.77439
56.285 11.871098
56.290 12.374685
56.295 12.239828
56.300 11.842955
56.305 11.90751
56.310 12.108567
56.315 12.088411
56.320 12.403101
56.325 12.613672
56.330 12.411403
56.335 12.569873
56.340 12.891395
56.345 12.823927
56.350 12.689778
56.355 12.470552
56.360 11.900715
56.365 12.13607
56.370 12.031677
56.375 11.779546
56.380 11.9823
56.385 12.861835
56.390 12.904176
56.395 13.013468
56.400 13.021294
56.405 12.962622
56.410 12.817291
56.415 12.381233
56.420 12.456683
56.425 13.184185
56.430 13.322359
56.435 13.013264
56.440 13.083072
56.445 13.297101
56.450 13.519922
56.455 12.701871
56.460 12.355924
56.465 13.114512
56.470 13.563667
56.475 13.662613
56.480 13.875309
56.485 14.253044
56.490 14.595336
56.495 14.581291
56.500 13.789557
56.505 13.976178
56.510 14.171087
56.515 14.085742
56.520 13.655846
56.525 13.372888
56.530 13.3957
56.535 13.613387
56.540 14.035592
56.545 14.024628
56.550 14.127082
56.555 14.221478
56.560 14.302263
56.565 14.440389
56.570 14.665268
56.575 14.163495
56.580 14.146944
56.585 14.337957
56.590 14.761304
56.595 14.73192
56.600 14.654902
56.605 14.638783
56.610 15.073094
56.615 15.058719
56.620 14.793392
56.625 15.206856
56.630 15.49708
56.635 14.994589
56.640 14.421369
56.645 13.7174
56.650 13.263733
56.655 13.089725
56.660 12.72318
56.665 12.455101
56.670 12.456186
56.675 12.599332
56.680 12.843427
56.685 13.017894
56.690 12.838789
56.695 13.146523
56.700 13.630662
56.705 14.224654
56.710 14.365677
56.715 14.391025
56.720 14.22458
56.725 14.387527
56.730 13.256888
56.735 12.806149
56.740 12.81635
56.745 12.584721
56.750 12.824938
56.755 13.371982
56.760 13.516467
56.765 13.839411
56.770 14.170988
56.775 13.933186
56.780 13.889122
56.785 13.210253
56.790 13.094351
56.795 13.377313
56.800 13.653388
56.805 13.621182
56.810 13.633107
56.815 13.962836
56.820 14.106938
56.825 13.773026
56.830 13.765144
56.835 13.037027
56.840 13.046022
56.845 13.213417
56.850 13.219641
56.855 13.063128
56.860 12.465593
56.865 12.252929
56.870 12.626874
56.875 12.298497
56.880 11.842129
56.885 11.865422
56.890 11.857947
56.895 12.065858
56.900 12.11165
56.905 11.746276
56.910 11.632169
56.915 11.878116
56.920 11.745277
56.925 11.946027
56.930 11.731096
56.935 12.078403
56.940 12.371035
56.945 12.617787
56.950 12.594213
56.955 12.76735
56.960 12.621686
56.965 12.757278
56.970 13.179283
56.975 13.468747
56.980 13.579424
56.985 13.854721
56.990 14.780575
56.995 15.318417
57.000 15.183961
57.005 14.931346
57.010 14.95503
57.015 15.257339
57.020 14.674376
57.025 13.844185
57.030 13.637079
57.035 13.470423
57.040 13.072901
57.045 13.032327
57.050 12.975061
57.055 13.35889
57.060 13.371999
57.065 13.213432
57.070 13.532771
57.075 13.684001
57.080 13.316413
57.085 13.67538
57.090 13.866258
57.095 14.038645
57.100 14.029755
57.105 14.111337
57.110 14.270484
57.115 14.214881
57.120 13.541264
57.125 13.689628
57.130 14.258717
57.135 14.652261
57.140 14.870275
57.145 14.654513
57.150 14.943017
57.155 15.33106
57.160 15.21465
57.165 15.100086
57.170 15.554684
57.175 15.658491
57.180 15.851006
57.185 15.522882
57.190 14.961016
57.195 14.528328
57.200 14.159137
57.205 13.330613
57.210 12.770329
57.215 12.901162
57.220 13.259877
57.225 13.754364
57.230 13.896511
57.235 14.040331
57.240 14.37703
57.245 14.843497
57.250 14.406595
57.255 13.952124
57.260 13.551659
57.265 13.545423
57.270 13.682339
57.275 13.380019
57.280 13.265556
57.285 13.953115
57.290 13.798255
57.295 14.262733
57.300 14.424894
57.305 14.630733
57.310 14.785758
57.315 14.561508
57.320 14.401367
57.325 15.209608
57.330 15.243813
57.335 15.074841
57.340 15.037136
57.345 14.636176
57.350 14.440729
57.355 14.36693
57.360 13.690489
57.365 13.607484
57.370 13.753702
57.375 13.84137
57.380 14.70892
57.385 14.85669
57.390 15.019283
57.395 15.793807
57.400 15.567196
57.405 15.005743
57.410 15.033298
57.415 14.660863
57.420 14.73816
57.425 14.427745
57.430 13.60034
57.435 13.462196
57.440 13.94192
57.445 14.279849
57.450 14.579901
57.455 14.44633
57.460 14.783926
57.465 14.921887
57.470 15.218909
57.475 15.205193
57.480 14.99591
57.485 14.913897
57.490 15.503078
57.495 15.846908
57.500 16.426584
57.505 16.136974
57.510 16.054174
57.515 16.235064
57.520 15.815602
57.525 15.026151
57.530 14.358576
57.535 14.590141
57.540 14.255467
57.545 13.390556
57.550 12.819763
57.555 13.697201
57.560 14.276695
57.565 13.996676
57.570 13.390968
57.575 13.84959
57.580 14.766895
57.585 15.433463
57.590 15.197054
57.595 15.034914
57.600 15.733467
57.605 16.581421
57.610 16.494688
57.615 15.671522
57.620 15.172454
57.625 14.819683
57.630 14.377589
57.635 13.818014
57.640 13.686758
57.645 13.47101
57.650 13.990414
57.655 13.983726
57.660 13.695953
57.665 13.962948
57.670 14.221766
57.675 14.124315
57.680 14.368902
57.685 14.510935
57.690 14.850844
57.695 15.738259
57.700 15.591448
57.705 15.395153
57.710 15.457138
57.715 15.71673
57.720 15.660524
57.725 15.486855
57.730 15.075981
57.735 15.231267
57.740 15.492963
57.745 16.069538
57.750 16.448299
57.755 16.092821
57.760 15.839205
57.765 15.620093
57.770 15.535213
57.775 15.181307
57.780 14.277719
57.785 14.035284
57.790 13.98259
57.795 14.528271
57.800 14.748867
57.805 14.741619
57.810 14.728042
57.815 14.824582
57.820 15.387211
57.825 16.0084
57.830 16.390015
57.835 16.122765
57.840 16.44775
57.845 16.847363
57.850 16.620338
57.855 16.164541
57.860 16.079985
57.865 15.64781
57.870 15.855533
57.875 15.565636
57.880 15.279002
57.885 14.842685
57.890 14.190815
57.895 14.231031
57.900 14.26152
57.905 14.228609
57.910 14.463655
57.915 14.898219
57.920 15.433366
57.925 15.825585
57.930 15.160435
57.935 15.261503
57.940 15.528964
57.945 15.643114
57.950 15.523735
57.955 15.309008
57.960 15.090348
57.965 15.661854
57.970 16.063284
57.975 15.800126
57.980 15.851109
57.985 15.808622
57.990 16.077782
57.995 15.945906
58.000 15.445777
58.005 15.152067
58.010 15.296264
58.015 15.108735
58.020 15.472818
58.025 15.789424
58.030 16.162775
58.035 16.408598
58.040 16.507074
58.045 16.720888
58.050 16.762791
58.055 16.601477
58.060 16.15704
58.065 16.143877
58.070 16.194839
58.075 16.242064
58.080 16.17104
58.085 16.670494
58.090 17.121363
58.095 17.624701
58.100 17.544519
58.105 18.087271
58.110 18.304358
58.115 18.484549
58.120 18.395599
58.125 18.137985
58.130 18.37994
58.135 18.827908
58.140 18.589962
58.145 18.372091
58.150 18.297447
58.155 18.229992
58.160 18.871454
58.165 19.097824
58.170 19.121223
58.175 19.082344
58.180 19.810909
58.185 19.870152
58.190 19.931625
58.195 19.075623
58.200 18.201227
58.205 17.914551
58.210 18.405085
58.215 18.139389
58.220 18.238565
58.225 18.501694
58.230 19.205862
58.235 19.662819
58.240 19.640345
58.245 19.395849
58.250 19.061174
58.255 18.709354
58.260 18.858044
58.265 19.181097
58.270 19.969324
58.275 20.183273
58.280 20.679146
58.285 21.207676
58.290 22.056421
58.295 22.064962
58.300 21.498615
58.305 21.434654
58.310 22.369041
58.315 22.281967
58.320 21.957844
58.325 21.388464
58.330 21.587296
58.335 21.916342
58.340 22.015024
58.345 22.207912
58.350 22.990086
58.355 23.998913
58.360 24.99575
58.365 25.69973
58.370 26.631458
58.375 26.330042
58.380 25.690506
58.385 25.663376
58.390 25.383749
58.395 24.979439
58.400 24.499296
58.405 24.860756
58.410 25.635612
58.415 26.239065
58.420 26.576082
58.425 26.733633
58.430 26.86171
58.435 26.930603
58.440 25.917496
58.445 25.580059
58.450 25.816965
58.455 26.124546
58.460 26.3575
