!@!!GADDS PLOTSO FILE: Chi integration type
!@!!Title/SampleName: map-c5
!@!!Comment: ?
!@!!User: Bruker Instrument Administrator
!@!!Site: University of Illinois Chicago
!@!!Frame: map-c5_01_000.gfrm
!@!!Wavelengths    1.54184   1.54056   1.54439
!@!!Frame angles: 2Theta: 63.000 Omega: 50.000 Phi: 0.000 Chi: 90.000
!@!!Integration range: 2Theta: 53.000 to 73.000  Gamma: -105.000 to -75.000
!@!!Integration method: bin normalized
!@!N
!@!SS
!@!M
!@!L 0.0 0.0 0.0 0.0
!@!XDegrees
!@!YCounts
53.000 7.662829
53.005 7.463912
53.010 7.287611
53.015 6.914947
53.020 7.037132
53.025 7.680744
53.030 8.182126
53.035 8.632717
53.040 8.829754
53.045 9.038586
53.050 8.837499
53.055 8.382327
53.060 8.381889
53.065 8.523855
53.070 8.245128
53.075 8.465789
53.080 9.117016
53.085 9.433246
53.090 9.519969
53.095 8.766521
53.100 8.582567
53.105 8.471927
53.110 7.895349
53.115 7.591006
53.120 7.5492
53.125 8.010927
53.130 7.926058
53.135 8.219448
53.140 8.624881
53.145 8.640638
53.150 8.598099
53.155 8.730353
53.160 8.619074
53.165 8.84838
53.170 9.049322
53.175 9.778155
53.180 9.954212
53.185 9.802553
53.190 9.703506
53.195 9.852882
53.200 9.521153
53.205 9.130569
53.210 9.120988
53.215 9.66932
53.220 9.872429
53.225 9.774507
53.230 9.910728
53.235 10.317231
53.240 10.344941
53.245 9.828179
53.250 9.835538
53.255 9.877643
53.260 10.203401
53.265 9.85507
53.270 9.392613
53.275 9.312608
53.280 9.229701
53.285 8.940171
53.290 8.442219
53.295 8.396762
53.300 8.568212
53.305 8.645385
53.310 8.387938
53.315 8.267735
53.320 8.123751
53.325 8.343881
53.330 8.289881
53.335 8.602796
53.340 8.989376
53.345 9.445921
53.350 9.427758
53.355 9.54324
53.360 9.374693
53.365 9.442517
53.370 9.193233
53.375 8.833385
53.380 8.951557
53.385 8.885906
53.390 8.96971
53.395 9.444577
53.400 9.809617
53.405 10.010683
53.410 9.635164
53.415 9.211109
53.420 9.254153
53.425 9.290788
53.430 9.112713
53.435 8.46858
53.440 8.319652
53.445 7.943224
53.450 8.428436
53.455 8.61954
53.460 8.178081
53.465 8.641136
53.470 9.22243
53.475 9.89751
53.480 10.293542
53.485 10.170553
53.490 10.324343
53.495 10.245236
53.500 9.365962
53.505 8.969316
53.510 8.3643
53.515 8.659673
53.520 9.165489
53.525 9.252858
53.530 9.715319
53.535 9.846836
53.540 9.69945
53.545 9.735746
53.550 8.907206
53.555 8.605966
53.560 8.456093
53.565 8.483383
53.570 9.134845
53.575 9.814606
53.580 10.227568
53.585 10.39092
53.590 10.281874
53.595 10.401295
53.600 9.770592
53.605 9.283063
53.610 8.768058
53.615 8.605816
53.620 8.298587
53.625 8.155999
53.630 8.177906
53.635 8.691957
53.640 9.117569
53.645 9.566947
53.650 9.77763
53.655 10.05564
53.660 10.030448
53.665 9.936388
53.670 9.561425
53.675 8.926528
53.680 8.531408
53.685 8.64481
53.690 8.698358
53.695 9.167799
53.700 9.485648
53.705 9.616241
53.710 9.945153
53.715 10.205333
53.720 10.006541
53.725 10.252744
53.730 9.922117
53.735 10.19482
53.740 10.050758
53.745 10.033908
53.750 10.065193
53.755 10.304478
53.760 10.24406
53.765 10.355072
53.770 10.382701
53.775 10.717207
53.780 10.815911
53.785 10.64257
53.790 10.26937
53.795 10.040249
53.800 10.055388
53.805 9.910424
53.810 9.592166
53.815 9.479808
53.820 9.808598
53.825 10.314788
53.830 10.295186
53.835 9.825057
53.840 9.532358
53.845 9.4993
53.850 9.653959
53.855 9.63416
53.860 9.290826
53.865 9.561146
53.870 9.9676
53.875 10.049225
53.880 10.503054
53.885 10.432185
53.890 10.357299
53.895 10.896021
53.900 10.537864
53.905 10.704121
53.910 10.761295
53.915 10.055122
53.920 9.774319
53.925 9.523946
53.930 9.112973
53.935 8.927314
53.940 8.659552
53.945 8.601777
53.950 8.697942
53.955 8.92484
53.960 8.896843
53.965 9.718685
53.970 9.808228
53.975 10.277719
53.980 9.791941
53.985 9.575895
53.990 9.613395
53.995 9.499308
54.000 9.098678
54.005 8.716284
54.010 8.460263
54.015 8.849147
54.020 8.846135
54.025 8.751668
54.030 8.975924
54.035 9.418818
54.040 10.028787
54.045 10.277339
54.050 10.539628
54.055 10.538162
54.060 10.338111
54.065 9.432936
54.070 8.874192
54.075 8.345009
54.080 8.225258
54.085 8.166898
54.090 8.7025
54.095 8.863414
54.100 9.416983
54.105 9.735578
54.110 9.920575
54.115 10.067163
54.120 10.139805
54.125 10.057109
54.130 10.202095
54.135 10.017879
54.140 10.117515
54.145 9.838526
54.150 9.429658
54.155 9.290629
54.160 9.074678
54.165 8.852119
54.170 8.963549
54.175 8.760496
54.180 9.161619
54.185 9.380856
54.190 9.347672
54.195 9.344076
54.200 9.427161
54.205 9.598027
54.210 9.996294
54.215 9.808733
54.220 9.748679
54.225 9.930077
54.230 10.209846
54.235 10.465901
54.240 10.437348
54.245 10.283978
54.250 10.623778
54.255 10.454971
54.260 10.553663
54.265 10.417301
54.270 9.99205
54.275 10.107611
54.280 10.245436
54.285 10.796169
54.290 11.210564
54.295 11.189386
54.300 11.080697
54.305 11.258075
54.310 11.40362
54.315 11.727747
54.320 11.187214
54.325 11.13919
54.330 11.444201
54.335 12.000091
54.340 12.44965
54.345 12.318685
54.350 11.616783
54.355 11.61753
54.360 11.796244
54.365 11.701463
54.370 11.222599
54.375 10.840478
54.380 10.530935
54.385 10.890272
54.390 11.187657
54.395 10.820731
54.400 10.906333
54.405 10.988218
54.410 10.376828
54.415 10.463055
54.420 10.375686
54.425 10.163624
54.430 10.350822
54.435 10.286905
54.440 10.31994
54.445 10.901528
54.450 10.80474
54.455 10.459591
54.460 10.251223
54.465 9.766887
54.470 9.735155
54.475 10.18991
54.480 10.254638
54.485 10.313174
54.490 10.407887
54.495 10.302063
54.500 10.048314
54.505 9.788845
54.510 9.004282
54.515 8.876706
54.520 8.900284
54.525 9.242315
54.530 9.439995
54.535 9.680373
54.540 9.955211
54.545 10.321307
54.550 10.550917
54.555 10.213748
54.560 10.059579
54.565 10.433044
54.570 10.138873
54.575 9.469185
54.580 9.510342
54.585 10.062425
54.590 10.254386
54.595 10.474631
54.600 10.144277
54.605 10.635186
54.610 10.757469
54.615 10.388304
54.620 10.588696
54.625 10.978307
54.630 11.011203
54.635 11.336191
54.640 11.101548
54.645 11.426267
54.650 10.766254
54.655 10.109836
54.660 10.094726
54.665 10.278343
54.670 10.169065
54.675 10.999923
54.680 11.521349
54.685 11.920811
54.690 12.006561
54.695 11.748386
54.700 11.349432
54.705 11.198273
54.710 10.504091
54.715 10.193521
54.720 10.524098
54.725 10.587982
54.730 10.555335
54.735 11.091812
54.740 11.327964
54.745 11.555472
54.750 11.540163
54.755 11.034766
54.760 10.585002
54.765 10.642645
54.770 10.480298
54.775 10.279805
54.780 10.470448
54.785 11.03957
54.790 11.271047
54.795 11.299067
54.800 11.06126
54.805 10.988784
54.810 10.642244
54.815 10.025938
54.820 9.639119
54.825 9.86923
54.830 9.825862
54.835 9.902956
54.840 9.780634
54.845 10.113418
54.850 10.458988
54.855 10.922569
54.860 11.041735
54.865 11.460172
54.870 11.794433
54.875 11.835225
54.880 12.425125
54.885 12.224624
54.890 11.647019
54.895 11.609408
54.900 11.232588
54.905 11.165638
54.910 11.276818
54.915 11.686601
54.920 11.572983
54.925 11.743641
54.930 11.45824
54.935 11.684811
54.940 11.687943
54.945 11.663499
54.950 11.384218
54.955 11.731427
54.960 11.854409
54.965 11.81451
54.970 11.506032
54.975 11.484817
54.980 11.357189
54.985 11.067005
54.990 10.508229
54.995 10.432195
55.000 10.858948
55.005 11.409828
55.010 11.174376
55.015 10.724918
55.020 11.05675
55.025 11.402485
55.030 11.627279
55.035 11.703814
55.040 11.562591
55.045 12.030285
55.050 12.055048
55.055 11.637885
55.060 11.409623
55.065 10.986732
55.070 10.395861
55.075 10.373925
55.080 10.631928
55.085 10.688619
55.090 10.697601
55.095 11.421666
55.100 11.679002
55.105 11.788102
55.110 11.473516
55.115 10.809096
55.120 11.189198
55.125 11.172088
55.130 11.426936
55.135 11.468528
55.140 11.845557
55.145 12.022589
55.150 12.167243
55.155 12.416395
55.160 12.307278
55.165 12.039398
55.170 12.280869
55.175 11.986393
55.180 11.867184
55.185 11.896988
55.190 11.695058
55.195 11.290739
55.200 10.8725
55.205 10.244465
55.210 10.081313
55.215 10.659195
55.220 10.327322
55.225 10.356441
55.230 10.843578
55.235 11.222117
55.240 11.55363
55.245 11.349666
55.250 10.613777
55.255 10.989411
55.260 10.813428
55.265 10.148649
55.270 9.969592
55.275 10.018789
55.280 10.601231
55.285 10.913239
55.290 10.99623
55.295 11.312033
55.300 11.570169
55.305 11.472205
55.310 11.420568
55.315 11.057353
55.320 11.150804
55.325 10.850487
55.330 10.822005
55.335 10.575305
55.340 10.285769
55.345 10.115856
55.350 10.091369
55.355 10.244797
55.360 10.692546
55.365 10.397202
55.370 10.566837
55.375 11.078938
55.380 11.309525
55.385 11.035653
55.390 10.808741
55.395 10.823596
55.400 11.472214
55.405 11.787726
55.410 11.805605
55.415 12.187147
55.420 12.385127
55.425 12.52922
55.430 12.336323
55.435 12.003295
55.440 11.944569
55.445 12.030754
55.450 11.719697
55.455 11.760006
55.460 11.220034
55.465 11.227524
55.470 11.701854
55.475 11.714156
55.480 11.395273
55.485 11.470691
55.490 11.339735
55.495 11.947034
55.500 11.941426
55.505 11.186679
55.510 11.104918
55.515 11.183751
55.520 11.167431
55.525 10.90291
55.530 10.314281
55.535 10.435978
55.540 10.730299
55.545 10.500652
55.550 10.760433
55.555 10.900717
55.560 10.868818
55.565 11.044804
55.570 11.123206
55.575 11.147053
55.580 11.424842
55.585 11.409691
55.590 11.994151
55.595 12.514894
55.600 12.366084
55.605 12.061056
55.610 12.058257
55.615 12.01629
55.620 12.184883
55.625 11.590986
55.630 11.024587
55.635 11.101089
55.640 11.298404
55.645 11.660767
55.650 11.575889
55.655 11.097432
55.660 11.494443
55.665 12.297154
55.670 12.333082
55.675 11.791906
55.680 10.958418
55.685 10.671619
55.690 10.275031
55.695 9.722349
55.700 8.503136
55.705 8.307758
55.710 8.837173
55.715 9.050804
55.720 9.470781
55.725 10.019185
55.730 10.250488
55.735 10.816872
55.740 10.998673
55.745 10.959417
55.750 11.215463
55.755 10.827989
55.760 10.558561
55.765 10.924978
55.770 11.261157
55.775 11.313891
55.780 11.494221
55.785 11.555415
55.790 12.127883
55.795 12.187699
55.800 11.847587
55.805 11.977227
55.810 11.945662
55.815 11.786514
55.820 11.708868
55.825 11.058917
55.830 11.330689
55.835 11.383605
55.840 11.711338
55.845 12.184277
55.850 11.999545
55.855 12.112003
55.860 12.273593
55.865 11.896264
55.870 11.602908
55.875 11.049877
55.880 10.537313
55.885 10.97138
55.890 11.112499
55.895 10.927284
55.900 10.798657
55.905 10.768062
55.910 10.759117
55.915 10.899885
55.920 10.780891
55.925 11.254142
55.930 11.825312
55.935 12.050779
55.940 12.564473
55.945 13.209262
55.950 13.941988
55.955 13.891237
55.960 13.584449
55.965 13.649461
55.970 14.004975
55.975 13.905705
55.980 13.044864
55.985 12.366006
55.990 12.257925
55.995 12.427217
56.000 12.171472
56.005 11.973306
56.010 11.902099
56.015 11.715936
56.020 11.405963
56.025 11.191802
56.030 11.165575
56.035 11.494614
56.040 11.104872
56.045 10.545468
56.050 10.701589
56.055 11.013198
56.060 10.638143
56.065 10.21632
56.070 10.340581
56.075 10.692788
56.080 10.638708
56.085 10.693986
56.090 11.060482
56.095 11.370149
56.100 11.707552
56.105 11.549119
56.110 11.453995
56.115 11.80405
56.120 11.452334
56.125 10.908495
56.130 10.585587
56.135 10.626205
56.140 11.042767
56.145 11.645948
56.150 12.535827
56.155 13.005469
56.160 13.779431
56.165 14.264518
56.170 13.714322
56.175 13.092856
56.180 11.932991
56.185 10.885743
56.190 10.910305
56.195 10.629576
56.200 10.76546
56.205 11.037718
56.210 11.939728
56.215 12.957881
56.220 13.450803
56.225 13.863679
56.230 13.855911
56.235 14.197194
56.240 13.830395
56.245 13.504402
56.250 13.291768
56.255 12.867929
56.260 12.512366
56.265 12.007589
56.270 11.290529
56.275 11.604091
56.280 11.349648
56.285 11.435502
56.290 11.268539
56.295 11.257618
56.300 11.92165
56.305 12.197239
56.310 11.47164
56.315 11.162511
56.320 10.971531
56.325 11.024682
56.330 10.642956
56.335 10.766174
56.340 10.756413
56.345 11.069952
56.350 11.328361
56.355 11.490284
56.360 11.753122
56.365 12.25741
56.370 12.347759
56.375 12.283426
56.380 12.65063
56.385 12.982869
56.390 13.362113
56.395 13.428045
56.400 13.342112
56.405 13.170908
56.410 12.846733
56.415 12.411499
56.420 12.061069
56.425 11.815537
56.430 11.803044
56.435 11.573817
56.440 11.226388
56.445 11.859488
56.450 11.649453
56.455 11.309228
56.460 10.905646
56.465 10.273156
56.470 10.987724
56.475 11.622548
56.480 11.639731
56.485 12.11522
56.490 12.308563
56.495 12.482684
56.500 12.579123
56.505 11.794073
56.510 11.751593
56.515 11.374174
56.520 11.333121
56.525 11.534238
56.530 11.703701
56.535 12.112954
56.540 12.238922
56.545 12.12925
56.550 12.454857
56.555 12.375364
56.560 12.203338
56.565 12.66473
56.570 12.51355
56.575 12.374142
56.580 11.983614
56.585 11.518212
56.590 12.392876
56.595 12.460149
56.600 12.665868
56.605 13.045411
56.610 13.695515
56.615 14.298747
56.620 14.542366
56.625 14.298789
56.630 14.506137
56.635 14.360422
56.640 13.829793
56.645 13.519901
56.650 13.745521
56.655 14.007284
56.660 13.672478
56.665 13.504514
56.670 13.385197
56.675 13.710682
56.680 13.407525
56.685 13.040974
56.690 12.743797
56.695 12.622324
56.700 13.149966
56.705 12.982007
56.710 13.008481
56.715 13.466008
56.720 14.109895
56.725 14.46789
56.730 14.443728
56.735 14.272238
56.740 14.629894
56.745 14.804365
56.750 14.788366
56.755 14.336884
56.760 14.076781
56.765 13.735719
56.770 13.387461
56.775 12.865142
56.780 12.477274
56.785 12.125965
56.790 11.939958
56.795 11.848159
56.800 11.879781
56.805 11.878423
56.810 12.107191
56.815 11.762319
56.820 11.621885
56.825 11.603799
56.830 11.592855
56.835 11.571927
56.840 11.60515
56.845 11.721231
56.850 12.017333
56.855 11.899636
56.860 12.128474
56.865 12.473132
56.870 12.824705
56.875 12.942627
56.880 12.595483
56.885 12.278837
56.890 12.446952
56.895 12.583686
56.900 12.696762
56.905 12.084384
56.910 12.147966
56.915 12.565007
56.920 12.634466
56.925 12.688267
56.930 12.366696
56.935 12.252769
56.940 13.052067
56.945 13.303985
56.950 13.244701
56.955 13.459693
56.960 13.995096
56.965 14.071648
56.970 13.776775
56.975 13.487742
56.980 13.362407
56.985 13.584226
56.990 13.372169
56.995 13.320944
57.000 13.077005
57.005 13.498075
57.010 13.920331
57.015 13.761025
57.020 13.619885
57.025 13.471181
57.030 13.431719
57.035 13.381207
57.040 12.974569
57.045 12.768377
57.050 13.050944
57.055 13.073958
57.060 12.871675
57.065 12.622771
57.070 13.041632
57.075 13.283347
57.080 13.059155
57.085 13.037533
57.090 12.831911
57.095 12.632342
57.100 12.424274
57.105 12.806468
57.110 12.580432
57.115 13.1208
57.120 13.362947
57.125 13.832124
57.130 14.26692
57.135 14.393466
57.140 13.618172
57.145 13.557514
57.150 13.334332
57.155 12.897134
57.160 12.579059
57.165 12.602059
57.170 12.570739
57.175 12.874496
57.180 13.029686
57.185 12.666689
57.190 12.996289
57.195 13.14439
57.200 13.554682
57.205 13.553473
57.210 13.628602
57.215 13.608692
57.220 13.726656
57.225 13.520807
57.230 13.51925
57.235 13.472774
57.240 13.737685
57.245 13.623543
57.250 13.420339
57.255 13.334031
57.260 13.285858
57.265 13.040179
57.270 12.90861
57.275 12.791373
57.280 12.816628
57.285 13.037458
57.290 13.109007
57.295 13.266746
57.300 13.770674
57.305 14.030448
57.310 14.045315
57.315 13.843529
57.320 13.607458
57.325 13.782781
57.330 13.975367
57.335 13.474718
57.340 13.075022
57.345 13.50023
57.350 13.940692
57.355 14.004824
57.360 13.904664
57.365 13.825479
57.370 14.249894
57.375 14.305674
57.380 14.133853
57.385 14.136298
57.390 14.151875
57.395 14.187988
57.400 13.924567
57.405 13.84356
57.410 14.463012
57.415 14.437346
57.420 13.775614
57.425 13.508922
57.430 13.312766
57.435 13.294456
57.440 13.570252
57.445 13.358216
57.450 13.530063
57.455 13.280493
57.460 13.464971
57.465 13.905169
57.470 13.782361
57.475 13.206111
57.480 12.859144
57.485 13.081604
57.490 13.591657
57.495 13.564543
57.500 13.36925
57.505 13.28881
57.510 13.227285
57.515 13.552625
57.520 13.39507
57.525 13.452392
57.530 13.203607
57.535 13.461658
57.540 13.816031
57.545 13.902368
57.550 13.727551
57.555 13.506616
57.560 13.346088
57.565 13.364771
57.570 13.118455
57.575 12.97122
57.580 13.189989
57.585 12.900969
57.590 13.107951
57.595 13.5549
57.600 13.925595
57.605 13.730941
57.610 13.969921
57.615 14.206993
57.620 14.859088
57.625 15.003682
57.630 14.632465
57.635 14.142301
57.640 13.948689
57.645 13.413483
57.650 12.78642
57.655 12.629424
57.660 12.88026
57.665 12.916466
57.670 13.635349
57.675 14.542459
57.680 14.732741
57.685 14.72834
57.690 15.03794
57.695 15.247306
57.700 15.309881
57.705 14.638732
57.710 14.054597
57.715 14.342342
57.720 14.47102
57.725 13.636717
57.730 13.095472
57.735 12.812839
57.740 12.786137
57.745 12.557756
57.750 12.58611
57.755 12.836136
57.760 13.314948
57.765 13.773556
57.770 13.622791
57.775 13.961984
57.780 14.680226
57.785 14.670288
57.790 14.796838
57.795 14.345778
57.800 14.2843
57.805 15.15871
57.810 15.176635
57.815 15.079425
57.820 14.855544
57.825 14.806993
57.830 15.18851
57.835 14.771697
57.840 14.504331
57.845 14.247706
57.850 14.134185
57.855 14.262205
57.860 14.357701
57.865 14.566751
57.870 14.918814
57.875 15.039443
57.880 15.352695
57.885 15.340477
57.890 15.329855
57.895 15.335889
57.900 15.77057
57.905 16.007315
57.910 15.477871
57.915 14.964178
57.920 15.182437
57.925 14.807733
57.930 14.762083
57.935 14.150577
57.940 13.915645
57.945 14.384267
57.950 14.074872
57.955 13.434817
57.960 13.441868
57.965 13.616041
57.970 14.296176
57.975 14.416716
57.980 14.603439
57.985 14.964896
57.990 15.662894
57.995 15.766018
58.000 15.434937
58.005 15.08648
58.010 15.540472
58.015 16.078045
58.020 16.526283
58.025 16.02471
58.030 16.556055
58.035 17.003227
58.040 17.555201
58.045 17.528168
58.050 17.493662
58.055 17.889688
58.060 18.117386
58.065 17.653141
58.070 17.466257
58.075 16.813005
58.080 16.117847
58.085 15.728585
58.090 15.492981
58.095 15.381792
58.100 15.76888
58.105 16.116102
58.110 16.179811
58.115 16.420589
58.120 16.090731
58.125 15.958253
58.130 16.354456
58.135 16.301313
58.140 16.027975
58.145 16.198042
58.150 16.149054
58.155 15.924491
58.160 16.019405
58.165 15.83006
58.170 15.854404
58.175 16.075136
58.180 16.391356
58.185 16.873333
58.190 16.737738
58.195 16.00602
58.200 15.881387
58.205 15.72318
58.210 15.330654
58.215 15.122746
58.220 15.5544
58.225 16.60293
58.230 17.176514
58.235 17.005415
58.240 17.225115
58.245 17.231407
58.250 16.232843
58.255 15.55356
58.260 15.294429
58.265 15.701622
58.270 15.789737
58.275 15.414256
58.280 15.440239
58.285 15.746263
58.290 16.146444
58.295 16.515589
58.300 16.605967
58.305 16.58255
58.310 16.379194
58.315 16.840303
58.320 17.380293
58.325 17.143885
58.330 16.847076
58.335 17.144022
58.340 17.381628
58.345 17.368181
58.350 17.311199
58.355 18.187634
58.360 18.640707
58.365 18.309978
58.370 18.349283
58.375 18.594627
58.380 19.260494
58.385 19.572626
58.390 19.236961
58.395 19.155399
58.400 19.612383
58.405 19.686762
58.410 19.684851
58.415 19.248358
58.420 19.048021
58.425 18.990992
58.430 19.639105
58.435 20.013988
58.440 20.100121
58.445 20.926756
58.450 21.639299
58.455 22.11475
58.460 22.288818
58.465 22.228289
58.470 22.496389
58.475 22.884052
58.480 23.190527
58.485 23.942419
58.490 25.248165
58.495 25.535271
