!@!!GADDS PLOTSO FILE: Chi integration type
!@!!Title/SampleName: map-80
!@!!Comment: ?
!@!!User: Bruker Instrument Administrator
!@!!Site: University of Illinois Chicago
!@!!Frame: map-80_01_000.gfrm
!@!!Wavelengths    1.54184   1.54056   1.54439
!@!!Frame angles: 2Theta: 63.000 Omega: 50.000 Phi: 0.000 Chi: 90.000
!@!!Integration range: 2Theta: 53.000 to 73.000  Gamma: -105.000 to -75.000
!@!!Integration method: bin normalized
!@!N
!@!SS
!@!M
!@!L 0.0 0.0 0.0 0.0
!@!XDegrees
!@!YCounts
53.000 9.741098
53.005 9.911337
53.010 10.0102
53.015 9.516633
53.020 9.407204
53.025 9.993687
53.030 10.118306
53.035 10.48237
53.040 10.723949
53.045 10.48099
53.050 10.718603
53.055 10.504722
53.060 9.830957
53.065 9.686822
53.070 9.50669
53.075 9.134438
53.080 9.083778
53.085 8.85594
53.090 9.046636
53.095 9.487978
53.100 9.497939
53.105 9.330705
53.110 9.262164
53.115 10.137218
53.120 10.591021
53.125 10.412217
53.130 10.406629
53.135 10.429134
53.140 11.061639
53.145 10.883045
53.150 10.416751
53.155 10.30135
53.160 10.259849
53.165 10.082451
53.170 9.964749
53.175 9.397964
53.180 9.51641
53.185 9.482618
53.190 9.359636
53.195 9.695722
53.200 9.592597
53.205 9.493486
53.210 9.890347
53.215 9.906363
53.220 9.921378
53.225 9.999153
53.230 9.672805
53.235 10.04744
53.240 10.346973
53.245 10.669821
53.250 10.941925
53.255 11.093356
53.260 10.893132
53.265 10.876881
53.270 10.830239
53.275 10.340055
53.280 10.322026
53.285 10.605127
53.290 10.459334
53.295 10.968007
53.300 11.485744
53.305 11.648904
53.310 11.845517
53.315 11.469754
53.320 11.177691
53.325 11.365072
53.330 10.575506
53.335 9.908236
53.340 9.805943
53.345 10.060152
53.350 10.078861
53.355 10.313149
53.360 10.138439
53.365 10.638499
53.370 10.700709
53.375 10.537647
53.380 10.165347
53.385 10.527914
53.390 10.923614
53.395 10.909966
53.400 10.710423
53.405 11.040444
53.410 11.204789
53.415 11.663286
53.420 11.399189
53.425 11.38662
53.430 11.092463
53.435 10.982552
53.440 10.656919
53.445 10.351417
53.450 9.949509
53.455 9.832108
53.460 10.308631
53.465 11.219974
53.470 11.615965
53.475 12.150297
53.480 12.580315
53.485 12.554814
53.490 12.294221
53.495 11.998258
53.500 11.659735
53.505 11.399645
53.510 11.023138
53.515 10.890165
53.520 11.112398
53.525 10.960585
53.530 10.936585
53.535 10.790418
53.540 10.495784
53.545 10.63028
53.550 10.550166
53.555 10.779858
53.560 10.79987
53.565 10.667676
53.570 11.222168
53.575 11.618859
53.580 11.910611
53.585 11.974046
53.590 11.749778
53.595 12.120378
53.600 12.105513
53.605 11.505442
53.610 11.515813
53.615 11.6609
53.620 11.700556
53.625 11.719355
53.630 11.88812
53.635 12.51811
53.640 13.060237
53.645 12.495644
53.650 11.867695
53.655 12.29178
53.660 12.045074
53.665 11.483613
53.670 10.872667
53.675 10.974676
53.680 10.931752
53.685 10.998591
53.690 10.829851
53.695 10.998669
53.700 11.273614
53.705 11.201784
53.710 11.335662
53.715 11.6216
53.720 11.561666
53.725 11.342685
53.730 11.356153
53.735 11.103606
53.740 10.356447
53.745 9.809077
53.750 9.613653
53.755 9.645217
53.760 10.02742
53.765 9.672283
53.770 9.97107
53.775 10.174486
53.780 10.467422
53.785 10.784556
53.790 10.810554
53.795 11.084272
53.800 11.363414
53.805 11.364533
53.810 11.683527
53.815 11.534194
53.820 11.145213
53.825 11.169715
53.830 10.570861
53.835 10.656541
53.840 11.135254
53.845 11.241267
53.850 11.001837
53.855 10.792903
53.860 10.204676
53.865 10.285586
53.870 9.981243
53.875 9.640993
53.880 9.749272
53.885 10.101912
53.890 10.59146
53.895 10.912829
53.900 10.345789
53.905 10.697025
53.910 10.925915
53.915 11.057319
53.920 11.510072
53.925 11.125169
53.930 11.390246
53.935 11.631479
53.940 11.542384
53.945 11.413709
53.950 11.031325
53.955 11.087848
53.960 11.42547
53.965 11.524816
53.970 11.112132
53.975 10.504125
53.980 10.56594
53.985 10.425407
53.990 10.356297
53.995 10.214441
54.000 10.375316
54.005 11.134668
54.010 11.455742
54.015 11.536362
54.020 11.86178
54.025 11.871202
54.030 12.475212
54.035 12.535987
54.040 13.058765
54.045 13.354903
54.050 13.542577
54.055 13.993886
54.060 13.871768
54.065 13.595351
54.070 13.064674
54.075 12.748667
54.080 12.406837
54.085 12.430719
54.090 12.119268
54.095 12.348241
54.100 12.190104
54.105 11.770847
54.110 11.1442
54.115 11.068706
54.120 10.453035
54.125 9.866069
54.130 9.813864
54.135 10.344775
54.140 10.430419
54.145 10.693798
54.150 10.894179
54.155 11.23204
54.160 11.891469
54.165 11.612532
54.170 11.746791
54.175 12.044273
54.180 12.553442
54.185 12.309737
54.190 12.254867
54.195 12.243393
54.200 12.049788
54.205 11.947737
54.210 11.550119
54.215 11.011499
54.220 11.065775
54.225 10.679706
54.230 10.676339
54.235 10.5308
54.240 10.394814
54.245 10.57764
54.250 10.279531
54.255 10.402601
54.260 10.072928
54.265 10.091067
54.270 10.621571
54.275 10.612078
54.280 10.807631
54.285 11.490458
54.290 12.041284
54.295 12.477607
54.300 12.828961
54.305 12.593421
54.310 12.655773
54.315 13.088483
54.320 12.776238
54.325 12.289192
54.330 11.840958
54.335 12.078418
54.340 12.512133
54.345 12.606206
54.350 12.053003
54.355 12.215279
54.360 12.232268
54.365 12.311205
54.370 11.620799
54.375 11.494115
54.380 11.190448
54.385 10.816666
54.390 10.985847
54.395 11.03216
54.400 11.216928
54.405 11.327559
54.410 10.834835
54.415 11.113958
54.420 11.194079
54.425 10.672535
54.430 10.831122
54.435 10.860575
54.440 11.097569
54.445 11.342947
54.450 11.435302
54.455 11.320033
54.460 11.553724
54.465 11.889135
54.470 12.095966
54.475 12.446105
54.480 12.140479
54.485 12.473126
54.490 12.993807
54.495 12.663299
54.500 12.320814
54.505 11.494609
54.510 11.480232
54.515 11.374162
54.520 11.545817
54.525 11.826806
54.530 11.838654
54.535 11.926067
54.540 12.498705
54.545 12.359754
54.550 12.651559
54.555 11.96525
54.560 11.505579
54.565 11.305499
54.570 11.248917
54.575 11.107018
54.580 11.324119
54.585 10.902275
54.590 10.823372
54.595 11.287765
54.600 11.761004
54.605 12.198112
54.610 12.110796
54.615 12.235723
54.620 12.490284
54.625 12.758662
54.630 13.005422
54.635 12.945489
54.640 12.368194
54.645 12.239449
54.650 12.29909
54.655 12.187477
54.660 12.001599
54.665 11.985544
54.670 11.89331
54.675 12.160138
54.680 12.553687
54.685 12.975912
54.690 13.391571
54.695 13.00131
54.700 12.378923
54.705 12.386789
54.710 12.65568
54.715 12.687558
54.720 12.204343
54.725 11.583778
54.730 11.748781
54.735 11.950426
54.740 11.658636
54.745 11.085061
54.750 10.777015
54.755 10.928413
54.760 11.120724
54.765 11.246077
54.770 11.593835
54.775 11.984555
54.780 11.975711
54.785 11.678905
54.790 11.619011
54.795 12.02678
54.800 12.15231
54.805 11.667028
54.810 11.596813
54.815 12.095332
54.820 12.973324
54.825 13.183091
54.830 12.866011
54.835 12.60384
54.840 12.868352
54.845 12.60154
54.850 12.493677
54.855 11.744
54.860 11.423687
54.865 11.227839
54.870 11.173444
54.875 11.34149
54.880 11.405432
54.885 11.505038
54.890 11.92257
54.895 12.262847
54.900 12.825961
54.905 12.614434
54.910 12.684667
54.915 12.843362
54.920 12.663247
54.925 12.306818
54.930 12.159544
54.935 11.764055
54.940 11.509582
54.945 11.227326
54.950 11.312629
54.955 11.227688
54.960 11.403506
54.965 11.313832
54.970 11.557194
54.975 11.673429
54.980 11.802647
54.985 11.641933
54.990 11.67078
54.995 11.797369
55.000 11.69728
55.005 11.91372
55.010 11.897494
55.015 12.08274
55.020 11.94482
55.025 11.82579
55.030 11.700194
55.035 11.547829
55.040 11.507195
55.045 11.590143
55.050 11.505612
55.055 11.725222
55.060 11.716689
55.065 11.591869
55.070 11.731363
55.075 11.880802
55.080 11.9832
55.085 12.081305
55.090 12.280296
55.095 12.804148
55.100 13.151304
55.105 13.237846
55.110 13.291563
55.115 13.221463
55.120 13.209622
55.125 13.040626
55.130 12.761173
55.135 13.167761
55.140 13.353329
55.145 13.406491
55.150 13.355878
55.155 13.120458
55.160 13.310268
55.165 13.694298
55.170 13.40303
55.175 12.809967
55.180 12.499577
55.185 12.56995
55.190 13.080408
55.195 13.23941
55.200 12.481326
55.205 12.666778
55.210 12.816733
55.215 12.766097
55.220 12.618803
55.225 12.241484
55.230 11.756327
55.235 11.915929
55.240 12.287069
55.245 12.911612
55.250 13.083393
55.255 13.404831
55.260 12.879688
55.265 12.988442
55.270 13.10043
55.275 13.106301
55.280 12.503555
55.285 12.486826
55.290 12.302322
55.295 12.762744
55.300 12.709138
55.305 12.390474
55.310 12.333529
55.315 12.877633
55.320 12.741
55.325 12.574649
55.330 12.123448
55.335 12.523556
55.340 12.442292
55.345 12.094755
55.350 11.964193
55.355 12.097146
55.360 12.270555
55.365 12.632288
55.370 12.116945
55.375 11.776012
55.380 11.96207
55.385 12.289591
55.390 12.922066
55.395 12.808428
55.400 12.757926
55.405 12.652212
55.410 13.087046
55.415 12.832635
55.420 12.549678
55.425 12.281648
55.430 12.780067
55.435 13.200606
55.440 13.169725
55.445 13.027455
55.450 13.21263
55.455 13.125403
55.460 12.772962
55.465 12.50313
55.470 12.369856
55.475 12.496014
55.480 12.753408
55.485 12.629839
55.490 12.9757
55.495 13.131322
55.500 13.737136
55.505 14.199093
55.510 14.309611
55.515 14.038431
55.520 14.546807
55.525 14.658049
55.530 14.647929
55.535 13.853639
55.540 13.456258
55.545 13.440037
55.550 13.563616
55.555 13.054062
55.560 12.939902
55.565 13.160158
55.570 13.333674
55.575 14.131491
55.580 14.287899
55.585 14.454625
55.590 14.521389
55.595 14.382278
55.600 13.728084
55.605 13.264043
55.610 12.590235
55.615 12.166311
55.620 11.739429
55.625 11.211423
55.630 11.573044
55.635 11.786724
55.640 11.898911
55.645 12.129734
55.650 12.299891
55.655 12.232877
55.660 12.435031
55.665 11.859827
55.670 12.366968
55.675 12.287889
55.680 12.125634
55.685 12.719252
55.690 12.979491
55.695 13.314617
55.700 13.43194
55.705 13.675783
55.710 14.022119
55.715 14.183541
55.720 13.914644
55.725 13.937599
55.730 13.905914
55.735 13.519373
55.740 13.048863
55.745 12.980806
55.750 12.767025
55.755 12.036801
55.760 11.863925
55.765 12.092913
55.770 12.364718
55.775 12.179543
55.780 12.268446
55.785 12.622015
55.790 13.349846
55.795 13.254319
55.800 13.083975
55.805 13.468436
55.810 13.472599
55.815 13.976357
55.820 13.775346
55.825 13.813804
55.830 14.188315
55.835 15.102322
55.840 15.453237
55.845 14.998824
55.850 14.889293
55.855 15.255106
55.860 14.579074
55.865 13.882848
55.870 13.397964
55.875 13.54346
55.880 13.804465
55.885 13.354635
55.890 13.630995
55.895 14.013386
55.900 14.493092
55.905 14.457944
55.910 14.671056
55.915 14.635136
55.920 14.553131
55.925 14.393073
55.930 14.599102
55.935 14.401778
55.940 14.23014
55.945 14.682933
55.950 14.794515
55.955 15.422224
55.960 15.500644
55.965 15.127698
55.970 15.240808
55.975 14.734115
55.980 14.489121
55.985 14.353251
55.990 13.686951
55.995 13.557148
56.000 14.069225
56.005 13.950188
56.010 13.972198
56.015 13.164625
56.020 13.086893
56.025 13.085796
56.030 13.561395
56.035 13.517424
56.040 13.134938
56.045 12.901565
56.050 13.872318
56.055 14.65427
56.060 14.809299
56.065 14.629306
56.070 14.349459
56.075 14.598435
56.080 14.549951
56.085 13.921333
56.090 13.201596
56.095 13.222892
56.100 12.768866
56.105 13.328234
56.110 13.154737
56.115 12.893022
56.120 12.664287
56.125 13.007133
56.130 13.021459
56.135 13.235609
56.140 13.222694
56.145 13.532866
56.150 13.871965
56.155 13.944097
56.160 13.319511
56.165 12.908008
56.170 12.575494
56.175 12.575522
56.180 12.677249
56.185 12.481887
56.190 12.614562
56.195 13.476892
56.200 13.716224
56.205 13.551468
56.210 13.292583
56.215 13.07354
56.220 13.17764
56.225 13.253915
56.230 12.817456
56.235 13.41695
56.240 14.044879
56.245 14.015534
56.250 14.464943
56.255 14.785822
56.260 14.559212
56.265 14.945528
56.270 15.041179
56.275 14.88039
56.280 14.514413
56.285 14.065714
56.290 14.101558
56.295 14.138357
56.300 13.883091
56.305 13.554922
56.310 13.935138
56.315 14.373401
56.320 14.52657
56.325 14.51305
56.330 14.682425
56.335 14.743924
56.340 14.850666
56.345 14.457469
56.350 14.287316
56.355 14.285054
56.360 14.674205
56.365 14.287578
56.370 13.876492
56.375 13.897919
56.380 13.552915
56.385 13.472889
56.390 12.768991
56.395 12.191513
56.400 12.714365
56.405 12.738024
56.410 12.78985
56.415 12.711637
56.420 12.907824
56.425 12.910861
56.430 12.764296
56.435 12.754571
56.440 13.312572
56.445 13.309016
56.450 13.304528
56.455 13.146441
56.460 13.45744
56.465 13.487664
56.470 13.219227
56.475 13.350309
56.480 13.505784
56.485 14.080504
56.490 14.527994
56.495 14.391231
56.500 13.912675
56.505 13.551551
56.510 13.029049
56.515 13.092236
56.520 12.897861
56.525 12.718596
56.530 12.989837
56.535 13.652884
56.540 13.812525
56.545 13.931372
56.550 14.147171
56.555 14.115026
56.560 14.066975
56.565 14.068649
56.570 13.985804
56.575 13.679258
56.580 13.357243
56.585 13.069569
56.590 12.637569
56.595 12.69015
56.600 12.768748
56.605 13.072055
56.610 13.542334
56.615 13.818972
56.620 13.76475
56.625 14.519139
56.630 14.391842
56.635 14.176719
56.640 13.917521
56.645 13.712013
56.650 14.067156
56.655 14.264668
56.660 14.333915
56.665 14.544017
56.670 14.513336
56.675 14.536664
56.680 14.296693
56.685 13.96462
56.690 14.015229
56.695 13.79194
56.700 13.830695
56.705 14.098158
56.710 14.526414
56.715 14.946056
56.720 14.829691
56.725 14.19961
56.730 13.710288
56.735 13.847901
56.740 13.057917
56.745 12.785358
56.750 13.34348
56.755 13.881672
56.760 14.407792
56.765 15.236958
56.770 15.330542
56.775 15.6563
56.780 15.846767
56.785 15.466
56.790 15.497907
56.795 15.427773
56.800 15.481933
56.805 15.577457
56.810 15.899484
56.815 15.805292
56.820 15.390318
56.825 15.498905
56.830 15.241786
56.835 15.125029
56.840 14.961793
56.845 14.9519
56.850 14.787088
56.855 14.666352
56.860 14.653964
56.865 14.891833
56.870 15.081783
56.875 15.094028
56.880 14.94292
56.885 15.081487
56.890 15.353042
56.895 15.389033
56.900 16.04937
56.905 16.790594
56.910 16.945971
56.915 17.118858
56.920 17.142029
56.925 17.183098
56.930 17.01512
56.935 16.255463
56.940 15.338174
56.945 14.764705
56.950 14.446354
56.955 14.365874
56.960 13.846047
56.965 13.817945
56.970 13.2707
56.975 12.705955
56.980 13.067233
56.985 12.889555
56.990 13.120124
56.995 13.060315
57.000 12.68006
57.005 13.029759
57.010 13.449896
57.015 13.646901
57.020 13.574
57.025 13.353947
57.030 13.883033
57.035 14.708694
57.040 15.170698
57.045 15.268479
57.050 15.727272
57.055 16.37052
57.060 16.504362
57.065 16.49081
57.070 15.808924
57.075 15.618411
57.080 15.57663
57.085 14.730262
57.090 14.502933
57.095 14.27864
57.100 13.933838
57.105 14.103528
57.110 14.013695
57.115 13.738776
57.120 13.485778
57.125 13.25188
57.130 13.148952
57.135 13.447963
57.140 13.784119
57.145 13.923838
57.150 14.607958
57.155 15.093207
57.160 15.332622
57.165 15.038397
57.170 14.818969
57.175 15.184852
57.180 15.633656
57.185 15.401273
57.190 15.709922
57.195 15.970343
57.200 16.8545
57.205 16.683153
57.210 15.906635
57.215 15.361896
57.220 15.092566
57.225 14.957578
57.230 14.445315
57.235 13.993074
57.240 14.344477
57.245 14.328184
57.250 13.848369
57.255 14.24088
57.260 14.193676
57.265 14.724668
57.270 15.350907
57.275 14.938354
57.280 15.403493
57.285 15.963496
57.290 15.461827
57.295 15.175374
57.300 14.730894
57.305 14.258555
57.310 14.503942
57.315 14.375916
57.320 14.258122
57.325 14.499199
57.330 15.067186
57.335 15.124611
57.340 15.496078
57.345 15.526193
57.350 15.64364
57.355 16.065247
57.360 16.045525
57.365 15.801697
57.370 15.283295
57.375 15.004815
57.380 15.5666
57.385 15.67223
57.390 15.557408
57.395 15.411191
57.400 15.859308
57.405 16.579041
57.410 16.578976
57.415 16.372957
57.420 16.148121
57.425 16.325638
57.430 16.456074
57.435 15.819413
57.440 15.550464
57.445 15.441783
57.450 15.744411
57.455 15.790491
57.460 15.386937
57.465 15.290277
57.470 15.82952
57.475 15.476747
57.480 15.198591
57.485 15.040763
57.490 15.066571
57.495 15.490027
57.500 15.506588
57.505 15.681704
57.510 16.275446
57.515 16.727417
57.520 16.230389
57.525 16.280937
57.530 16.226845
57.535 15.761087
57.540 15.660042
57.545 15.364036
57.550 15.3337
57.555 15.647441
57.560 15.76251
57.565 15.67114
57.570 15.672937
57.575 15.301788
57.580 15.272797
57.585 15.291326
57.590 14.746473
57.595 14.148656
57.600 14.331626
57.605 15.221941
57.610 15.576105
57.615 15.54221
57.620 15.617538
57.625 15.368985
57.630 15.237552
57.635 14.696166
57.640 13.833468
57.645 14.031596
57.650 13.742537
57.655 13.54307
57.660 14.18513
57.665 14.439164
57.670 14.686337
57.675 14.999378
57.680 14.918868
57.685 14.958928
57.690 15.231812
57.695 14.874143
57.700 15.058406
57.705 15.596558
57.710 15.44069
57.715 15.545567
57.720 15.809335
57.725 16.508774
57.730 17.230982
57.735 17.434328
57.740 17.632969
57.745 17.56525
57.750 17.439478
57.755 17.291718
57.760 16.845253
57.765 16.350943
57.770 15.740618
57.775 15.094703
57.780 14.697097
57.785 14.387951
57.790 14.006151
57.795 13.472774
57.800 14.012098
57.805 14.099836
57.810 14.703909
57.815 15.596766
57.820 15.969654
57.825 16.158968
57.830 16.543352
57.835 16.295673
57.840 16.46162
57.845 16.306149
57.850 15.993831
57.855 15.710501
57.860 15.761707
57.865 15.970785
57.870 15.982883
57.875 15.843795
57.880 15.583449
57.885 15.766054
57.890 16.375799
57.895 16.124729
57.900 15.628761
57.905 15.834503
57.910 15.743335
57.915 15.571319
57.920 15.471685
57.925 15.475744
57.930 15.959843
57.935 16.300173
57.940 16.317877
57.945 16.212326
57.950 15.984055
57.955 15.385416
57.960 14.957341
57.965 14.746012
57.970 14.39049
57.975 14.204543
57.980 14.156095
57.985 14.774052
57.990 14.642997
57.995 14.642059
58.000 14.337523
58.005 14.182514
58.010 14.053991
58.015 14.298
58.020 13.977962
58.025 14.209665
58.030 13.796752
58.035 13.807835
58.040 14.144038
58.045 14.74709
58.050 14.410166
58.055 14.642606
58.060 14.923965
58.065 15.344114
58.070 15.370247
58.075 15.27
58.080 15.539866
58.085 16.135996
58.090 16.105368
58.095 15.926794
58.100 16.127396
58.105 16.465158
58.110 16.1987
58.115 16.329712
58.120 16.119087
58.125 16.169621
58.130 16.452559
58.135 16.183268
58.140 16.518911
58.145 16.389166
58.150 15.775271
58.155 15.835913
58.160 15.644551
58.165 15.287876
58.170 15.363021
58.175 15.629543
58.180 16.105732
58.185 16.445
58.190 16.450762
58.195 16.53863
58.200 16.758297
58.205 16.40913
58.210 16.591448
58.215 16.484346
58.220 16.380463
58.225 16.657934
58.230 16.802427
58.235 16.995785
58.240 16.981686
58.245 16.00104
58.250 15.969221
58.255 15.418962
58.260 14.751528
58.265 14.882446
58.270 15.165522
58.275 14.862621
58.280 14.436601
58.285 14.61684
58.290 15.023954
58.295 15.597572
58.300 15.459532
58.305 15.419085
58.310 15.745428
58.315 15.706608
58.320 15.200515
58.325 14.84058
58.330 14.583741
58.335 14.12369
58.340 13.824314
58.345 13.978601
58.350 13.824813
58.355 14.155822
58.360 14.109008
58.365 14.385593
58.370 14.970555
58.375 14.862164
58.380 14.732269
58.385 15.186079
58.390 14.991384
58.395 15.248498
58.400 15.274721
58.405 14.838758
58.410 14.700552
58.415 14.85674
58.420 15.07885
58.425 15.615034
58.430 16.2882
58.435 16.18882
58.440 16.297039
58.445 16.674292
58.450 16.674683
58.455 16.164053
58.460 15.16969
