!@!!GADDS PLOTSO FILE: Chi integration type
!@!!Title/SampleName: map-125
!@!!Comment: ?
!@!!User: Bruker Instrument Administrator
!@!!Site: University of Illinois Chicago
!@!!Frame: map-125_01_000.gfrm
!@!!Wavelengths    1.54184   1.54056   1.54439
!@!!Frame angles: 2Theta: 63.000 Omega: 50.000 Phi: 0.000 Chi: 90.000
!@!!Integration range: 2Theta: 53.000 to 73.000  Gamma: -105.000 to -75.000
!@!!Integration method: bin normalized
!@!N
!@!SS
!@!M
!@!L 0.0 0.0 0.0 0.0
!@!XDegrees
!@!YCounts
53.000 4.208233
53.005 4.232529
53.010 4.311604
53.015 4.283938
53.020 4.305234
53.025 4.098608
53.030 4.02427
53.035 4.233927
53.040 4.444335
53.045 4.755282
53.050 4.947913
53.055 5.262434
53.060 5.143682
53.065 5.048191
53.070 5.446716
53.075 5.604713
53.080 5.546497
53.085 5.439312
53.090 5.063484
53.095 5.088696
53.100 5.064813
53.105 4.891112
53.110 4.961816
53.115 5.000375
53.120 5.02481
53.125 5.270343
53.130 5.488256
53.135 5.657648
53.140 5.570882
53.145 5.33516
53.150 5.357367
53.155 5.434421
53.160 5.118237
53.165 4.702847
53.170 4.746699
53.175 4.845874
53.180 5.001454
53.185 4.941487
53.190 4.759119
53.195 4.707416
53.200 4.380314
53.205 3.934508
53.210 3.817018
53.215 3.616868
53.220 3.707037
53.225 3.791662
53.230 4.028307
53.235 4.227022
53.240 4.34117
53.245 4.123418
53.250 4.267692
53.255 4.194592
53.260 4.345758
53.265 4.36628
53.270 4.757417
53.275 4.875061
53.280 4.865022
53.285 4.730978
53.290 4.840009
53.295 5.055685
53.300 5.096066
53.305 4.987761
53.310 4.992313
53.315 5.049432
53.320 4.926879
53.325 4.996222
53.330 5.061147
53.335 4.480755
53.340 4.403053
53.345 4.281487
53.350 4.421725
53.355 4.260912
53.360 4.079373
53.365 4.318739
53.370 4.562593
53.375 4.696276
53.380 4.842354
53.385 4.465362
53.390 4.392812
53.395 4.090201
53.400 3.838493
53.405 3.842395
53.410 4.041623
53.415 4.151376
53.420 4.317382
53.425 4.719607
53.430 4.790427
53.435 5.149871
53.440 4.937381
53.445 4.572161
53.450 4.869015
53.455 5.264843
53.460 5.073347
53.465 5.117701
53.470 5.089055
53.475 5.290792
53.480 5.443439
53.485 5.203979
53.490 4.85607
53.495 5.096757
53.500 4.968835
53.505 4.963668
53.510 4.971286
53.515 4.810872
53.520 4.904073
53.525 4.942815
53.530 4.820846
53.535 4.857603
53.540 4.829651
53.545 4.921889
53.550 4.931291
53.555 4.896596
53.560 4.858559
53.565 4.647684
53.570 4.554977
53.575 4.735864
53.580 4.559306
53.585 4.563208
53.590 4.664677
53.595 5.123235
53.600 5.371889
53.605 5.102833
53.610 5.008765
53.615 5.111429
53.620 5.070093
53.625 4.94665
53.630 4.763671
53.635 5.138484
53.640 5.359543
53.645 5.107603
53.650 5.071034
53.655 4.931168
53.660 4.693474
53.665 4.171416
53.670 3.941216
53.675 4.213497
53.680 4.755822
53.685 4.974254
53.690 4.905354
53.695 5.103714
53.700 5.355579
53.705 5.148751
53.710 4.705975
53.715 4.256043
53.720 4.4012
53.725 4.886304
53.730 4.826024
53.735 4.823544
53.740 5.203791
53.745 5.260076
53.750 5.260052
53.755 4.914568
53.760 4.513228
53.765 4.788612
53.770 4.850147
53.775 4.7348
53.780 4.872307
53.785 5.285944
53.790 5.559026
53.795 6.069443
53.800 5.949912
53.805 5.900811
53.810 6.015073
53.815 6.11019
53.820 5.977186
53.825 6.09296
53.830 5.801083
53.835 5.914642
53.840 6.1753
53.845 6.144367
53.850 5.946986
53.855 5.95111
53.860 5.658604
53.865 5.437862
53.870 4.919641
53.875 4.858169
53.880 4.89783
53.885 5.018445
53.890 5.014987
53.895 5.382567
53.900 5.416285
53.905 5.6082
53.910 5.437558
53.915 5.695806
53.920 5.54121
53.925 5.20169
53.930 4.984654
53.935 5.235482
53.940 5.447137
53.945 5.311013
53.950 5.10969
53.955 4.87879
53.960 5.008787
53.965 5.060144
53.970 4.945208
53.975 4.572868
53.980 4.88086
53.985 5.33742
53.990 5.45998
53.995 5.45267
54.000 5.346212
54.005 5.285267
54.010 5.337081
54.015 5.061996
54.020 5.029729
54.025 5.310565
54.030 5.51283
54.035 5.780779
54.040 6.101788
54.045 6.221409
54.050 6.252603
54.055 6.264675
54.060 6.191903
54.065 6.149322
54.070 6.098145
54.075 5.826735
54.080 6.057875
54.085 6.113523
54.090 6.197147
54.095 6.533798
54.100 6.690704
54.105 7.383048
54.110 7.638169
54.115 7.468308
54.120 7.242256
54.125 7.161258
54.130 6.706919
54.135 6.347458
54.140 6.021065
54.145 6.034658
54.150 6.280683
54.155 6.469112
54.160 6.498775
54.165 6.623706
54.170 6.548669
54.175 6.413741
54.180 6.072239
54.185 5.618518
54.190 5.565936
54.195 5.692161
54.200 5.929697
54.205 6.238373
54.210 6.095256
54.215 6.268935
54.220 6.700945
54.225 7.118221
54.230 6.974582
54.235 6.632744
54.240 6.392054
54.245 6.850634
54.250 6.801402
54.255 6.298171
54.260 5.817376
54.265 5.687603
54.270 6.274182
54.275 6.415102
54.280 6.283822
54.285 6.002887
54.290 6.037088
54.295 6.211501
54.300 6.09023
54.305 5.481196
54.310 5.315199
54.315 5.385163
54.320 5.717894
54.325 6.004782
54.330 5.81677
54.335 5.914067
54.340 5.963391
54.345 5.774474
54.350 5.799325
54.355 5.771532
54.360 5.857483
54.365 6.164743
54.370 6.387637
54.375 6.415542
54.380 6.641428
54.385 6.476712
54.390 6.191329
54.395 5.825477
54.400 5.708264
54.405 5.702294
54.410 5.767561
54.415 5.505307
54.420 5.508323
54.425 5.944398
54.430 5.850757
54.435 5.442059
54.440 5.456822
54.445 5.552665
54.450 5.770973
54.455 5.728196
54.460 5.349764
54.465 5.371838
54.470 5.638436
54.475 5.638567
54.480 5.84488
54.485 5.796946
54.490 5.732625
54.495 5.821598
54.500 5.753047
54.505 5.323728
54.510 4.949786
54.515 4.583061
54.520 4.912391
54.525 4.999984
54.530 5.319097
54.535 5.76792
54.540 5.98031
54.545 6.040191
54.550 6.174109
54.555 5.849154
54.560 5.76308
54.565 5.454436
54.570 5.499216
54.575 5.829897
54.580 5.680501
54.585 5.543892
54.590 5.82828
54.595 5.925899
54.600 5.84847
54.605 6.070632
54.610 6.359327
54.615 6.450673
54.620 6.117493
54.625 5.789294
54.630 5.617556
54.635 5.661322
54.640 5.312915
54.645 5.028175
54.650 5.149902
54.655 5.181024
54.660 5.564853
54.665 6.08007
54.670 6.202837
54.675 6.420815
54.680 6.792239
54.685 6.804751
54.690 6.957129
54.695 6.837928
54.700 6.504667
54.705 6.345094
54.710 6.202261
54.715 6.023919
54.720 5.945413
54.725 6.096009
54.730 6.184818
54.735 6.338766
54.740 6.250629
54.745 6.159017
54.750 6.147129
54.755 6.065559
54.760 5.730252
54.765 5.881969
54.770 5.976368
54.775 5.879898
54.780 5.902045
54.785 5.862514
54.790 5.958199
54.795 5.901527
54.800 5.643315
54.805 5.70976
54.810 5.897656
54.815 5.955288
54.820 6.032413
54.825 5.966057
54.830 6.190269
54.835 6.260313
54.840 6.228528
54.845 6.429657
54.850 6.643147
54.855 6.702221
54.860 6.845667
54.865 6.607408
54.870 6.358302
54.875 6.144912
54.880 5.88241
54.885 5.870045
54.890 5.786846
54.895 5.8445
54.900 5.6343
54.905 5.550756
54.910 5.618428
54.915 5.606917
54.920 5.645638
54.925 5.621722
54.930 5.412051
54.935 5.592333
54.940 5.902627
54.945 6.225173
54.950 6.357348
54.955 6.135818
54.960 6.278915
54.965 6.542772
54.970 6.38605
54.975 6.115879
54.980 5.726481
54.985 5.374633
54.990 5.543472
54.995 5.538025
55.000 5.401279
55.005 5.363229
55.010 5.759129
55.015 5.821118
55.020 5.95108
55.025 6.08022
55.030 5.951678
55.035 6.099412
55.040 5.921454
55.045 5.716454
55.050 5.757327
55.055 5.733541
55.060 5.97491
55.065 6.283138
55.070 6.406434
55.075 6.444367
55.080 6.580838
55.085 6.471
55.090 6.212903
55.095 5.754395
55.100 5.688394
55.105 5.59914
55.110 5.537176
55.115 5.154747
55.120 5.345446
55.125 5.24637
55.130 5.093781
55.135 5.211701
55.140 5.482853
55.145 5.607964
55.150 5.777804
55.155 5.828903
55.160 6.073903
55.165 5.986291
55.170 5.905675
55.175 5.530437
55.180 6.015083
55.185 6.329119
55.190 6.434034
55.195 6.795002
55.200 6.976297
55.205 7.212876
55.210 7.170997
55.215 7.354519
55.220 7.386711
55.225 7.179035
55.230 6.872381
55.235 6.495536
55.240 6.519562
55.245 6.45419
55.250 5.801382
55.255 5.613525
55.260 5.870315
55.265 6.303671
55.270 6.544328
55.275 6.3594
55.280 6.289595
55.285 6.197168
55.290 6.010146
55.295 6.029275
55.300 5.654083
55.305 5.582834
55.310 5.960084
55.315 6.130833
55.320 6.224267
55.325 6.324116
55.330 6.445563
55.335 6.632765
55.340 6.790211
55.345 6.567212
55.350 6.581933
55.355 6.938546
55.360 7.302777
55.365 7.463096
55.370 7.585959
55.375 7.654077
55.380 7.580737
55.385 7.549122
55.390 7.282305
55.395 6.765409
55.400 6.245493
55.405 6.055546
55.410 5.833116
55.415 5.9408
55.420 5.85657
55.425 5.549303
55.430 5.339082
55.435 5.385557
55.440 5.225319
55.445 5.082153
55.450 5.459768
55.455 5.62462
55.460 5.821636
55.465 6.040785
55.470 6.0739
55.475 6.169494
55.480 6.166244
55.485 5.849675
55.490 5.859132
55.495 5.894041
55.500 5.737406
55.505 5.860655
55.510 5.974191
55.515 6.114442
55.520 6.025769
55.525 5.871171
55.530 6.073515
55.535 6.307214
55.540 6.220913
55.545 6.215778
55.550 6.021195
55.555 5.78076
55.560 5.652722
55.565 5.686097
55.570 5.499371
55.575 5.585865
55.580 5.364167
55.585 5.624069
55.590 5.788367
55.595 5.710185
55.600 5.665985
55.605 5.930736
55.610 5.791007
55.615 5.788373
55.620 5.697041
55.625 5.76041
55.630 5.795305
55.635 5.626339
55.640 5.289997
55.645 5.15882
55.650 5.208519
55.655 5.120495
55.660 4.872207
55.665 4.982331
55.670 4.978421
55.675 5.099429
55.680 5.012684
55.685 5.014289
55.690 5.062596
55.695 5.003441
55.700 4.958943
55.705 5.2329
55.710 5.539227
55.715 5.794057
55.720 6.038045
55.725 6.141152
55.730 6.641183
55.735 6.864917
55.740 6.717022
55.745 6.68036
55.750 6.599233
55.755 6.510073
55.760 6.525312
55.765 6.179513
55.770 5.8842
55.775 5.794453
55.780 5.752506
55.785 5.762362
55.790 5.952581
55.795 5.972543
55.800 6.078549
55.805 6.267718
55.810 6.202803
55.815 6.338442
55.820 5.949156
55.825 5.749774
55.830 5.947996
55.835 6.291656
55.840 6.508105
55.845 6.132094
55.850 6.359369
55.855 6.843787
55.860 6.976261
55.865 6.979913
55.870 6.21766
55.875 6.118534
55.880 6.554836
55.885 6.557959
55.890 6.667361
55.895 6.855034
55.900 6.938658
55.905 7.417575
55.910 7.157323
55.915 6.984867
55.920 6.781399
55.925 6.943625
55.930 6.811218
55.935 6.48971
55.940 6.310086
55.945 6.904421
55.950 7.169101
55.955 7.369172
55.960 7.406648
55.965 7.45764
55.970 7.873781
55.975 7.96416
55.980 7.625329
55.985 7.52532
55.990 7.049361
55.995 6.476239
56.000 6.501055
56.005 6.473832
56.010 6.42168
56.015 6.641867
56.020 6.26617
56.025 6.427105
56.030 6.894948
56.035 6.871253
56.040 6.946971
56.045 6.948478
56.050 6.658391
56.055 6.705099
56.060 6.653848
56.065 6.245255
56.070 5.86864
56.075 5.779296
56.080 6.015147
56.085 6.307941
56.090 6.323986
56.095 6.310216
56.100 6.330865
56.105 6.888143
56.110 6.807206
56.115 6.649841
56.120 6.888988
56.125 7.031812
56.130 7.259642
56.135 7.301288
56.140 7.059151
56.145 7.092013
56.150 6.970374
56.155 6.556077
56.160 6.690906
56.165 6.382596
56.170 6.225023
56.175 5.996502
56.180 5.69264
56.185 5.389275
56.190 5.329486
56.195 5.243502
56.200 5.263666
56.205 5.342859
56.210 5.767622
56.215 6.633916
56.220 7.028598
56.225 6.966489
56.230 6.952505
56.235 7.028728
56.240 6.921042
56.245 6.749612
56.250 6.695849
56.255 6.852839
56.260 7.22042
56.265 7.272687
56.270 7.357797
56.275 7.534597
56.280 7.263342
56.285 7.213658
56.290 7.154233
56.295 7.301161
56.300 7.539021
56.305 7.956719
56.310 8.091525
56.315 7.995281
56.320 8.032986
56.325 7.811967
56.330 7.166172
56.335 6.62448
56.340 6.164917
56.345 6.583889
56.350 6.574748
56.355 6.189345
56.360 6.400164
56.365 7.19831
56.370 7.61259
56.375 7.318541
56.380 6.466637
56.385 6.271386
56.390 6.204867
56.395 6.305452
56.400 6.222726
56.405 6.244168
56.410 6.376957
56.415 6.525534
56.420 6.610846
56.425 6.669271
56.430 6.489637
56.435 6.346576
56.440 6.574596
56.445 6.782646
56.450 7.151758
56.455 7.226002
56.460 7.363032
56.465 7.106318
56.470 6.992886
56.475 6.878746
56.480 6.888998
56.485 6.741781
56.490 7.022605
56.495 6.890533
56.500 6.750304
56.505 6.442703
56.510 6.560563
56.515 6.798148
56.520 6.726451
56.525 6.419514
56.530 6.611177
56.535 7.032029
56.540 7.059816
56.545 6.754567
56.550 6.366678
56.555 6.0681
56.560 6.152182
56.565 5.951658
56.570 5.90215
56.575 5.789176
56.580 5.721612
56.585 6.133105
56.590 6.333707
56.595 6.129797
56.600 6.345427
56.605 6.268851
56.610 6.482484
56.615 6.715141
56.620 6.420503
56.625 6.613703
56.630 6.884943
56.635 6.782584
56.640 7.087551
56.645 7.436213
56.650 7.602813
56.655 7.776486
56.660 7.916367
56.665 7.888731
56.670 7.627859
56.675 7.424543
56.680 6.891007
56.685 6.594747
56.690 6.652192
56.695 6.509413
56.700 6.576482
56.705 6.727179
56.710 6.859651
56.715 7.134667
56.720 7.19662
56.725 7.512686
56.730 7.678951
56.735 8.188399
56.740 8.399828
56.745 8.352175
56.750 8.42076
56.755 8.535769
56.760 8.356337
56.765 8.112398
56.770 7.348234
56.775 7.136001
56.780 6.899729
56.785 6.672867
56.790 6.285872
56.795 5.960549
56.800 5.546801
56.805 5.371758
56.810 5.563533
56.815 6.0324
56.820 6.211027
56.825 6.576956
56.830 6.891726
56.835 7.24524
56.840 7.1815
56.845 6.905571
56.850 6.570667
56.855 6.443428
56.860 6.291428
56.865 6.091286
56.870 5.926567
56.875 6.010443
56.880 6.351493
56.885 6.396032
56.890 6.397343
56.895 6.642532
56.900 6.980419
56.905 7.602504
56.910 7.943023
56.915 7.870716
56.920 7.876821
56.925 7.855493
56.930 7.676627
56.935 7.785237
56.940 7.272865
56.945 6.82221
56.950 6.670714
56.955 6.441443
56.960 6.615593
56.965 6.595064
56.970 6.83536
56.975 6.889395
56.980 7.146859
56.985 7.276102
56.990 7.716557
56.995 7.625061
57.000 7.638737
57.005 7.34907
57.010 7.100851
57.015 6.865931
57.020 6.510375
57.025 5.937138
57.030 6.020909
57.035 5.857422
57.040 5.957797
57.045 6.658267
57.050 6.883072
57.055 7.233147
57.060 7.593361
57.065 7.834763
57.070 7.969918
57.075 7.936449
57.080 7.455359
57.085 7.570509
57.090 7.989401
57.095 7.959181
57.100 7.649253
57.105 7.580709
57.110 7.619421
57.115 8.039936
57.120 7.834423
57.125 7.537849
57.130 7.578363
57.135 7.570087
57.140 7.907744
57.145 7.775073
57.150 7.735914
57.155 7.969965
57.160 8.01447
57.165 7.970736
57.170 8.003942
57.175 7.742051
57.180 7.61008
57.185 7.475754
57.190 7.378258
57.195 7.03584
57.200 7.06569
57.205 7.28617
57.210 7.388485
57.215 7.966161
57.220 7.801338
57.225 7.382598
57.230 7.26605
57.235 7.130329
57.240 6.844269
57.245 6.459096
57.250 5.748258
57.255 5.835688
57.260 6.061687
57.265 6.049724
57.270 6.357068
57.275 6.816108
57.280 7.038812
57.285 7.374732
57.290 7.451154
57.295 7.757794
57.300 7.993509
57.305 7.841603
57.310 8.112074
57.315 8.378339
57.320 8.324239
57.325 8.081585
57.330 7.984577
57.335 8.052186
57.340 7.719305
57.345 7.367197
57.350 7.569832
57.355 7.971847
57.360 8.299212
57.365 8.25615
57.370 7.999899
57.375 7.953207
57.380 7.677485
57.385 7.39403
57.390 7.338764
57.395 7.504817
57.400 7.736575
57.405 7.847625
57.410 7.932511
57.415 7.908674
57.420 7.855628
57.425 7.922203
57.430 7.446157
57.435 7.221426
57.440 7.147682
57.445 7.22129
57.450 6.974074
57.455 6.908028
57.460 6.67879
57.465 6.887719
57.470 7.01209
57.475 6.821679
57.480 6.955367
57.485 7.122952
57.490 7.323517
57.495 7.687348
57.500 7.504411
57.505 7.486534
57.510 7.634825
57.515 7.731489
57.520 7.917781
57.525 7.439069
57.530 7.273977
57.535 7.476922
57.540 7.412014
57.545 7.594115
57.550 7.158449
57.555 7.163315
57.560 7.223373
57.565 7.118732
57.570 7.136291
57.575 6.824849
57.580 6.935765
57.585 7.472146
57.590 7.637664
57.595 7.614376
57.600 8.048032
57.605 8.292651
57.610 8.89855
57.615 8.66237
57.620 8.549448
57.625 9.160707
57.630 9.11185
57.635 8.683803
57.640 8.680383
57.645 8.308982
57.650 8.329607
57.655 8.066463
57.660 7.25667
57.665 7.765033
57.670 7.508894
57.675 7.110423
57.680 7.163536
57.685 7.221205
57.690 7.643116
57.695 7.672211
57.700 7.402533
57.705 7.73866
57.710 7.791403
57.715 7.835483
57.720 7.701588
57.725 7.538195
57.730 7.490545
57.735 7.382739
57.740 7.281523
57.745 7.672929
57.750 7.654571
57.755 7.390513
57.760 7.331529
57.765 7.698637
57.770 8.069561
57.775 8.281682
57.780 8.160278
57.785 8.363184
57.790 8.582991
57.795 8.524358
57.800 7.914427
57.805 7.371996
57.810 6.993536
57.815 7.034051
57.820 7.163936
57.825 7.225204
57.830 7.372554
57.835 8.125093
57.840 8.57138
57.845 8.708884
57.850 8.997289
57.855 9.067568
57.860 8.996994
57.865 9.50302
57.870 9.33773
57.875 9.333446
57.880 9.237067
57.885 9.096621
57.890 8.895672
57.895 8.569787
57.900 8.214625
57.905 7.909968
57.910 8.164661
57.915 8.552618
57.920 8.513317
57.925 8.736067
57.930 9.217336
57.935 9.014022
57.940 9.255578
57.945 9.424228
57.950 9.150694
57.955 8.870211
57.960 8.915149
57.965 8.793656
57.970 8.909616
57.975 8.699634
57.980 8.528208
57.985 8.534383
57.990 8.35232
57.995 8.183476
58.000 8.220833
58.005 8.562673
58.010 8.703878
58.015 8.705748
58.020 8.965674
58.025 9.095758
58.030 9.235922
58.035 9.14151
58.040 8.731356
58.045 8.396003
58.050 8.588065
58.055 9.007206
58.060 9.28864
58.065 9.499634
58.070 9.821218
58.075 9.89931
58.080 10.565666
58.085 10.263519
58.090 9.792936
58.095 9.368955
58.100 8.979115
58.105 9.170298
58.110 9.409696
58.115 9.081522
58.120 8.533701
58.125 8.684104
58.130 8.957884
58.135 8.823265
58.140 8.798529
58.145 8.835313
58.150 8.80852
58.155 9.142275
58.160 9.090224
58.165 9.009917
58.170 9.089245
58.175 8.536521
58.180 8.48279
58.185 8.80916
58.190 9.122275
58.195 9.454247
58.200 9.49993
58.205 9.255731
58.210 9.67142
58.215 9.462392
58.220 9.071849
58.225 8.685389
58.230 8.45678
58.235 8.60122
58.240 8.645888
58.245 8.527242
58.250 8.398462
58.255 8.964388
58.260 9.100941
58.265 9.045032
58.270 9.394485
58.275 9.535648
58.280 9.592025
58.285 9.503196
58.290 9.357464
58.295 9.062801
58.300 9.158129
58.305 9.210394
58.310 9.195366
58.315 9.14427
58.320 9.032504
58.325 9.164046
58.330 9.436015
58.335 9.315687
58.340 8.941377
58.345 8.804752
58.350 9.355379
58.355 9.818474
58.360 9.824775
58.365 9.628213
58.370 9.627817
58.375 9.65332
58.380 9.869091
58.385 9.579512
58.390 9.405812
58.395 9.321383
58.400 9.461821
58.405 9.172322
58.410 9.293745
58.415 9.070029
58.420 9.5675
58.425 9.664361
58.430 9.836204
58.435 9.908628
58.440 10.232697
58.445 10.398156
58.450 10.589596
58.455 10.945493
58.460 11.0051
58.465 10.746497
58.470 11.17973
58.475 11.447089
58.480 11.865565
58.485 11.998312
58.490 11.923491
58.495 12.468302
58.500 12.868755
58.505 13.123769
58.510 13.534587
58.515 13.476276
58.520 13.601641
58.525 13.722959
58.530 13.434722
58.535 13.436957
58.540 13.332153
58.545 12.938333
58.550 12.965735
58.555 12.802056
58.560 12.897535
58.565 12.986748
58.570 12.8778
58.575 12.841209
58.580 13.370097
58.585 13.785952
58.590 13.76489
58.595 13.643185
58.600 13.777155
58.605 13.83747
58.610 13.596789
58.615 13.342071
58.620 13.348174
58.625 13.886896
58.630 14.28757
58.635 14.372498
58.640 14.779549
58.645 14.982236
58.650 14.889983
58.655 14.555781
58.660 14.187001
58.665 14.28219
58.670 14.51007
58.675 14.224021
58.680 14.327559
58.685 14.494096
58.690 14.595693
58.695 14.826758
58.700 14.397986
58.705 14.188722
58.710 13.931777
58.715 13.866043
58.720 14.245373
58.725 14.812595
58.730 14.745034
58.735 14.75795
58.740 14.770287
58.745 14.89831
