!@!!GADDS PLOTSO FILE: Chi integration type
!@!!Title/SampleName: map-1f
!@!!Comment: ?
!@!!User: Bruker Instrument Administrator
!@!!Site: University of Illinois Chicago
!@!!Frame: map-1f_01_000.gfrm
!@!!Wavelengths    1.54184   1.54056   1.54439
!@!!Frame angles: 2Theta: 63.000 Omega: 50.000 Phi: 0.000 Chi: 90.000
!@!!Integration range: 2Theta: 53.000 to 73.000  Gamma: -105.000 to -75.000
!@!!Integration method: bin normalized
!@!N
!@!SS
!@!M
!@!L 0.0 0.0 0.0 0.0
!@!XDegrees
!@!YCounts
53.000 7.708071
53.005 7.901735
53.010 8.032969
53.015 7.964442
53.020 7.723608
53.025 7.82211
53.030 8.074916
53.035 8.060875
53.040 8.058472
53.045 7.676133
53.050 7.743617
53.055 7.956378
53.060 7.32981
53.065 6.963206
53.070 7.035642
53.075 6.936262
53.080 6.899231
53.085 6.724642
53.090 6.948925
53.095 7.409343
53.100 7.497545
53.105 7.428786
53.110 7.73264
53.115 8.101886
53.120 7.761205
53.125 7.526112
53.130 7.514
53.135 7.767615
53.140 7.562183
53.145 7.272642
53.150 7.096904
53.155 7.369451
53.160 7.274498
53.165 7.198944
53.170 7.254869
53.175 7.641479
53.180 7.693282
53.185 7.783081
53.190 7.99368
53.195 8.262852
53.200 7.868902
53.205 7.616079
53.210 7.739028
53.215 7.888543
53.220 8.130964
53.225 7.920742
53.230 7.748875
53.235 7.971362
53.240 7.92606
53.245 7.734208
53.250 7.411914
53.255 7.084449
53.260 6.83309
53.265 6.929426
53.270 6.84455
53.275 6.942895
53.280 7.065607
53.285 7.138846
53.290 7.460388
53.295 8.002953
53.300 8.278989
53.305 8.348639
53.310 8.458204
53.315 8.952307
53.320 9.237531
53.325 8.842745
53.330 8.809505
53.335 8.375656
53.340 8.522632
53.345 8.358088
53.350 8.329448
53.355 8.184193
53.360 7.95173
53.365 7.585214
53.370 7.911069
53.375 7.512432
53.380 7.510421
53.385 7.437446
53.390 7.694424
53.395 7.893235
53.400 7.910661
53.405 8.029087
53.410 8.132295
53.415 8.233214
53.420 7.91548
53.425 7.751992
53.430 7.755496
53.435 7.607528
53.440 7.50019
53.445 7.40994
53.450 6.938736
53.455 6.836998
53.460 6.847927
53.465 7.365592
53.470 7.495617
53.475 7.543139
53.480 7.701095
53.485 7.940809
53.490 7.723845
53.495 7.788654
53.500 7.47773
53.505 7.239617
53.510 6.991808
53.515 6.756657
53.520 7.051201
53.525 8.063954
53.530 8.24582
53.535 8.325763
53.540 8.422128
53.545 8.699648
53.550 9.373694
53.555 9.373053
53.560 8.673895
53.565 8.536914
53.570 8.70319
53.575 8.964761
53.580 8.930067
53.585 8.054255
53.590 8.12728
53.595 8.597689
53.600 8.496288
53.605 8.648127
53.610 8.762932
53.615 9.068541
53.620 9.890836
53.625 9.627459
53.630 9.456491
53.635 9.840717
53.640 9.48868
53.645 9.415802
53.650 9.037049
53.655 8.503074
53.660 8.423188
53.665 8.612129
53.670 8.323065
53.675 8.070668
53.680 8.136149
53.685 8.339382
53.690 8.697141
53.695 8.851248
53.700 8.350892
53.705 8.702922
53.710 8.962482
53.715 8.73649
53.720 8.439884
53.725 8.397033
53.730 8.742689
53.735 8.601495
53.740 8.508487
53.745 8.983034
53.750 9.338113
53.755 9.688133
53.760 9.317772
53.765 9.368513
53.770 10.042692
53.775 10.21924
53.780 10.074288
53.785 10.230257
53.790 10.15022
53.795 10.423166
53.800 10.562172
53.805 9.798866
53.810 9.660322
53.815 9.627956
53.820 9.238456
53.825 9.048689
53.830 8.303973
53.835 7.801479
53.840 7.984006
53.845 7.860531
53.850 7.991387
53.855 8.303732
53.860 8.795874
53.865 9.49368
53.870 9.995342
53.875 10.16489
53.880 10.009445
53.885 9.611473
53.890 9.312273
53.895 9.134438
53.900 9.063447
53.905 8.663023
53.910 8.442564
53.915 8.692691
53.920 8.9723
53.925 9.199593
53.930 8.987555
53.935 9.167677
53.940 9.440229
53.945 9.400359
53.950 9.091311
53.955 8.98748
53.960 8.740462
53.965 8.609935
53.970 8.598497
53.975 8.67589
53.980 8.435881
53.985 8.459303
53.990 7.814309
53.995 7.746697
54.000 7.842512
54.005 7.431639
54.010 7.433144
54.015 7.581064
54.020 7.892663
54.025 8.630156
54.030 8.854751
54.035 8.646963
54.040 8.563943
54.045 8.273935
54.050 8.128063
54.055 8.34229
54.060 8.557699
54.065 8.309152
54.070 8.68983
54.075 8.945056
54.080 9.502961
54.085 9.84392
54.090 9.535065
54.095 9.349147
54.100 9.437811
54.105 9.357493
54.110 9.3305
54.115 8.890928
54.120 8.753301
54.125 9.081797
54.130 9.220592
54.135 9.404687
54.140 9.384847
54.145 9.33013
54.150 9.315188
54.155 9.116177
54.160 8.760641
54.165 8.490629
54.170 8.583395
54.175 8.478991
54.180 8.22006
54.185 8.292972
54.190 8.489513
54.195 8.812603
54.200 9.303358
54.205 9.201581
54.210 9.208407
54.215 9.571674
54.220 9.688393
54.225 9.574669
54.230 9.413844
54.235 9.325482
54.240 9.48272
54.245 10.365939
54.250 10.168899
54.255 10.201211
54.260 10.308442
54.265 10.233439
54.270 10.25303
54.275 9.911046
54.280 9.172806
54.285 9.140453
54.290 8.765388
54.295 8.551954
54.300 8.404596
54.305 8.595866
54.310 8.772554
54.315 8.569518
54.320 8.601356
54.325 9.188376
54.330 9.596584
54.335 9.521644
54.340 9.045252
54.345 8.948609
54.350 9.369369
54.355 9.236668
54.360 9.024703
54.365 8.787363
54.370 9.17596
54.375 9.397079
54.380 9.532286
54.385 9.148026
54.390 8.953278
54.395 8.649767
54.400 8.2528
54.405 8.092212
54.410 8.282901
54.415 8.874173
54.420 9.162029
54.425 9.689571
54.430 9.998333
54.435 10.103895
54.440 10.69811
54.445 10.11598
54.450 9.773223
54.455 9.914958
54.460 9.582518
54.465 9.256673
54.470 9.012355
54.475 8.422677
54.480 8.853064
54.485 8.66325
54.490 8.385942
54.495 8.541505
54.500 8.72473
54.505 8.684856
54.510 8.822559
54.515 8.747949
54.520 9.039407
54.525 9.033876
54.530 9.097322
54.535 9.130712
54.540 9.575424
54.545 9.496561
54.550 9.315391
54.555 9.382824
54.560 9.794157
54.565 9.638932
54.570 9.810256
54.575 9.761662
54.580 10.016433
54.585 10.058156
54.590 9.824241
54.595 9.496783
54.600 10.078801
54.605 9.861914
54.610 9.47665
54.615 9.475915
54.620 9.45172
54.625 9.3519
54.630 9.296202
54.635 8.750538
54.640 8.730573
54.645 8.682115
54.650 8.660637
54.655 8.715098
54.660 8.950471
54.665 9.053371
54.670 9.131382
54.675 9.389124
54.680 9.569306
54.685 9.480027
54.690 9.967768
54.695 9.990501
54.700 9.987853
54.705 10.17741
54.710 10.073994
54.715 10.288253
54.720 10.257711
54.725 10.143616
54.730 10.358218
54.735 10.182365
54.740 10.306037
54.745 10.159131
54.750 10.002148
54.755 9.754258
54.760 9.728936
54.765 9.520396
54.770 9.690948
54.775 9.725588
54.780 10.352324
54.785 10.56802
54.790 10.967566
54.795 10.844251
54.800 10.571417
54.805 10.517261
54.810 10.478829
54.815 10.172825
54.820 9.810359
54.825 9.501283
54.830 9.955729
54.835 10.425614
54.840 9.938511
54.845 9.840603
54.850 10.189793
54.855 10.457833
54.860 10.492153
54.865 10.325831
54.870 10.585208
54.875 11.130326
54.880 11.126688
54.885 10.836972
54.890 10.898499
54.895 10.682509
54.900 10.628134
54.905 10.787205
54.910 10.384933
54.915 10.107667
54.920 10.181847
54.925 10.650417
54.930 10.815236
54.935 10.655235
54.940 10.293754
54.945 10.578154
54.950 10.981614
54.955 10.920946
54.960 10.446921
54.965 10.189766
54.970 9.948282
54.975 9.846622
54.980 9.520122
54.985 9.208271
54.990 9.030164
54.995 8.911254
55.000 8.98226
55.005 9.253702
55.010 9.449576
55.015 9.134207
55.020 9.363264
55.025 9.405971
55.030 9.659744
55.035 10.409975
55.040 10.681205
55.045 10.74875
55.050 11.236417
55.055 11.491905
55.060 11.916348
55.065 12.205513
55.070 11.685485
55.075 11.562677
55.080 11.499729
55.085 11.225479
55.090 10.894334
55.095 10.966741
55.100 10.666154
55.105 10.503351
55.110 10.291858
55.115 10.407868
55.120 9.897523
55.125 9.878746
55.130 9.638005
55.135 9.772666
55.140 9.792664
55.145 10.050236
55.150 10.252398
55.155 10.414037
55.160 10.717246
55.165 10.460958
55.170 10.472682
55.175 10.573064
55.180 10.362993
55.185 10.94556
55.190 10.877051
55.195 10.576926
55.200 10.614167
55.205 10.495317
55.210 10.551071
55.215 10.708166
55.220 10.245443
55.225 10.136741
55.230 10.084456
55.235 10.204625
55.240 10.604167
55.245 10.57295
55.250 10.239293
55.255 10.418119
55.260 10.570014
55.265 10.376482
55.270 9.856325
55.275 9.364431
55.280 9.592787
55.285 9.716714
55.290 10.318631
55.295 10.70885
55.300 11.139006
55.305 11.56287
55.310 11.389668
55.315 11.145635
55.320 11.438405
55.325 11.087286
55.330 10.858119
55.335 10.673816
55.340 10.993425
55.345 11.696857
55.350 11.693621
55.355 11.01437
55.360 10.916664
55.365 10.637
55.370 10.248971
55.375 9.314914
55.380 8.956031
55.385 9.110627
55.390 9.02251
55.395 9.379374
55.400 10.053934
55.405 10.696226
55.410 11.406013
55.415 11.382318
55.420 11.22713
55.425 11.73418
55.430 11.439694
55.435 11.464461
55.440 11.756201
55.445 11.533917
55.450 11.481514
55.455 11.360691
55.460 11.169976
55.465 11.276561
55.470 10.59979
55.475 10.157887
55.480 10.138601
55.485 10.269581
55.490 10.135978
55.495 9.9822
55.500 9.697396
55.505 10.100014
55.510 10.336079
55.515 10.236349
55.520 10.434511
55.525 10.70858
55.530 10.462446
55.535 10.869287
55.540 10.786431
55.545 10.701641
55.550 11.137084
55.555 10.852676
55.560 10.738603
55.565 11.19707
55.570 10.840881
55.575 10.815309
55.580 10.862556
55.585 10.853876
55.590 10.951173
55.595 10.691313
55.600 10.46685
55.605 10.407933
55.610 10.41676
55.615 10.162933
55.620 10.104407
55.625 10.383267
55.630 10.573278
55.635 10.907994
55.640 11.343486
55.645 11.308696
55.650 11.104948
55.655 11.181489
55.660 11.140025
55.665 10.841891
55.670 10.839607
55.675 10.358418
55.680 10.395333
55.685 10.389687
55.690 10.116927
55.695 10.098041
55.700 10.144951
55.705 10.028949
55.710 10.521276
55.715 10.358747
55.720 10.72418
55.725 10.667802
55.730 11.231894
55.735 11.354097
55.740 11.213002
55.745 10.707277
55.750 10.802378
55.755 10.736315
55.760 10.480427
55.765 10.145231
55.770 10.218057
55.775 9.710161
55.780 9.931803
55.785 9.997124
55.790 10.153348
55.795 10.184814
55.800 9.801645
55.805 9.691329
55.810 10.301581
55.815 10.424627
55.820 10.62342
55.825 10.436258
55.830 10.459484
55.835 10.719957
55.840 10.848404
55.845 10.759761
55.850 10.838054
55.855 10.883733
55.860 10.980139
55.865 10.955114
55.870 10.823183
55.875 10.926888
55.880 10.729699
55.885 10.768215
55.890 10.975123
55.895 10.943596
55.900 10.673187
55.905 10.333013
55.910 10.208472
55.915 10.46874
55.920 10.004098
55.925 10.019413
55.930 10.394199
55.935 10.743258
55.940 11.37475
55.945 11.948306
55.950 11.958516
55.955 12.031209
55.960 12.10545
55.965 12.214128
55.970 12.24262
55.975 11.684956
55.980 10.700767
55.985 10.546825
55.990 10.115224
55.995 9.390435
56.000 9.201043
56.005 8.901295
56.010 9.298298
56.015 9.834451
56.020 10.170552
56.025 11.034791
56.030 11.748188
56.035 12.234892
56.040 12.241201
56.045 12.073957
56.050 11.869746
56.055 11.727072
56.060 11.68692
56.065 10.866085
56.070 10.416636
56.075 10.741105
56.080 10.675942
56.085 10.595844
56.090 10.491927
56.095 10.315169
56.100 10.507695
56.105 10.639287
56.110 10.317416
56.115 10.693067
56.120 10.727182
56.125 10.555191
56.130 10.362322
56.135 10.72609
56.140 10.762389
56.145 10.832118
56.150 10.57179
56.155 10.755728
56.160 10.477025
56.165 10.668937
56.170 10.726137
56.175 10.73691
56.180 10.655227
56.185 10.840398
56.190 11.221279
56.195 11.816195
56.200 11.669228
56.205 11.621851
56.210 11.739412
56.215 11.507469
56.220 11.251911
56.225 10.933283
56.230 11.360936
56.235 11.812905
56.240 11.97084
56.245 12.239161
56.250 12.770793
56.255 12.847676
56.260 13.274399
56.265 12.579502
56.270 12.126454
56.275 12.187226
56.280 11.802866
56.285 12.008287
56.290 12.164532
56.295 11.692751
56.300 11.638321
56.305 11.887426
56.310 11.835254
56.315 12.309555
56.320 12.19609
56.325 12.13509
56.330 12.307973
56.335 12.499626
56.340 12.666767
56.345 12.312223
56.350 12.316222
56.355 12.415916
56.360 11.759911
56.365 11.729888
56.370 11.370265
56.375 10.602701
56.380 10.56979
56.385 10.129002
56.390 9.75233
56.395 9.776315
56.400 9.618937
56.405 10.125322
56.410 10.752301
56.415 11.344373
56.420 11.342878
56.425 11.551147
56.430 11.980985
56.435 11.909114
56.440 11.491529
56.445 11.042218
56.450 10.829577
56.455 10.841585
56.460 11.031622
56.465 10.860571
56.470 11.029905
56.475 11.268661
56.480 11.142879
56.485 11.204887
56.490 11.604999
56.495 11.545565
56.500 11.698675
56.505 12.151052
56.510 12.364059
56.515 12.461343
56.520 12.306408
56.525 11.77619
56.530 11.919083
56.535 12.255956
56.540 11.801038
56.545 11.414753
56.550 11.264552
56.555 11.378838
56.560 11.399983
56.565 11.11584
56.570 10.993159
56.575 11.641524
56.580 12.173968
56.585 12.207462
56.590 12.263465
56.595 12.162478
56.600 12.102802
56.605 11.625948
56.610 11.347819
56.615 10.927987
56.620 10.817693
56.625 10.87525
56.630 11.316646
56.635 11.314228
56.640 11.499254
56.645 11.512019
56.650 11.569426
56.655 11.406463
56.660 11.354856
56.665 11.358756
56.670 11.090681
56.675 10.461577
56.680 10.722718
56.685 11.426221
56.690 12.012902
56.695 12.131827
56.700 12.349623
56.705 13.012124
56.710 13.62678
56.715 13.906423
56.720 14.150784
56.725 14.203759
56.730 14.350002
56.735 14.150046
56.740 14.17151
56.745 13.807665
56.750 13.069401
56.755 12.796985
56.760 12.735861
56.765 12.705527
56.770 12.540984
56.775 12.17758
56.780 12.152133
56.785 12.400939
56.790 12.363127
56.795 12.337147
56.800 12.535459
56.805 12.86044
56.810 13.169727
56.815 13.664129
56.820 13.885984
56.825 13.484255
56.830 13.290994
56.835 13.228841
56.840 13.316932
56.845 13.174882
56.850 12.891485
56.855 12.557424
56.860 12.906067
56.865 13.077675
56.870 13.145037
56.875 12.819231
56.880 13.064331
56.885 13.345079
56.890 13.278707
56.895 13.501287
56.900 13.815773
56.905 13.915705
56.910 14.162715
56.915 13.692531
56.920 13.632739
56.925 13.953531
56.930 13.819628
56.935 13.723797
56.940 13.513538
56.945 13.346592
56.950 13.154079
56.955 13.159091
56.960 12.784222
56.965 12.562426
56.970 12.221836
56.975 12.057097
56.980 11.951152
56.985 12.212219
56.990 12.526474
56.995 13.246624
57.000 13.324781
57.005 13.283684
57.010 13.452424
57.015 13.521962
57.020 13.268572
57.025 12.92061
57.030 12.644648
57.035 12.168725
57.040 11.943879
57.045 12.057943
57.050 12.549329
57.055 12.993227
57.060 12.457256
57.065 12.162055
57.070 12.112571
57.075 11.832724
57.080 12.282532
57.085 12.134339
57.090 12.235699
57.095 12.580642
57.100 12.94438
57.105 13.372534
57.110 14.026235
57.115 13.517479
57.120 13.275418
57.125 13.413997
57.130 13.320525
57.135 13.179909
57.140 13.167303
57.145 12.780656
57.150 12.817061
57.155 12.844606
57.160 12.158032
57.165 12.097379
57.170 11.742097
57.175 11.748784
57.180 11.432643
57.185 11.654919
57.190 11.601308
57.195 12.474196
57.200 13.571481
57.205 14.182345
57.210 14.764647
57.215 14.955945
57.220 14.618146
57.225 14.6816
57.230 14.584874
57.235 13.914468
57.240 13.460232
57.245 12.819745
57.250 12.575795
57.255 12.62369
57.260 12.433964
57.265 12.169996
57.270 12.080589
57.275 12.065374
57.280 12.379221
57.285 12.389663
57.290 12.513149
57.295 12.472379
57.300 12.475338
57.305 12.578035
57.310 12.669394
57.315 12.364288
57.320 12.849451
57.325 13.073669
57.330 13.23837
57.335 13.359471
57.340 13.99503
57.345 14.669694
57.350 15.106121
57.355 14.814919
57.360 14.808764
57.365 14.361869
57.370 14.099248
57.375 13.631867
57.380 13.396866
57.385 12.635788
57.390 12.487487
57.395 12.510216
57.400 12.489998
57.405 12.92016
57.410 12.58378
57.415 12.466584
57.420 12.761461
57.425 12.760277
57.430 13.10294
57.435 13.648097
57.440 13.399295
57.445 13.633738
57.450 13.670901
57.455 13.72245
57.460 13.519533
57.465 13.193704
57.470 13.138489
57.475 12.809985
57.480 12.824841
57.485 12.785888
57.490 13.293848
57.495 13.525537
57.500 13.464106
57.505 13.091902
57.510 12.694779
57.515 12.566186
57.520 12.189783
57.525 11.384697
57.530 11.555986
57.535 11.337963
57.540 11.923171
57.545 12.151277
57.550 12.501901
57.555 12.852736
57.560 13.057273
57.565 13.553729
57.570 13.534953
57.575 13.292301
57.580 13.429708
57.585 12.829591
57.590 12.926152
57.595 12.792619
57.600 12.357279
57.605 11.969585
57.610 11.708699
57.615 11.594565
57.620 11.872465
57.625 12.531195
57.630 12.710181
57.635 12.801382
57.640 13.349647
57.645 13.206664
57.650 13.356124
57.655 13.315587
57.660 12.875072
57.665 12.739661
57.670 12.556075
57.675 12.314487
57.680 12.776506
57.685 13.13096
57.690 13.495576
57.695 13.624423
57.700 13.794746
57.705 14.142162
57.710 14.864655
57.715 14.674926
57.720 14.535336
57.725 14.51232
57.730 15.078958
57.735 15.188694
57.740 15.246249
57.745 15.108492
57.750 15.540515
57.755 15.523995
57.760 15.099186
57.765 14.748318
57.770 14.513804
57.775 14.321929
57.780 14.556153
57.785 14.393151
57.790 14.690526
57.795 14.679656
57.800 14.304676
57.805 13.920207
57.810 13.836627
57.815 13.475323
57.820 13.573198
57.825 13.184307
57.830 13.252106
57.835 13.300185
57.840 13.31108
57.845 13.531537
57.850 13.375633
57.855 13.275925
57.860 13.320888
57.865 13.27482
57.870 13.656595
57.875 13.924316
57.880 13.779251
57.885 13.425916
57.890 13.405126
57.895 13.317618
57.900 13.160513
57.905 12.905705
57.910 12.685377
57.915 12.477306
57.920 12.357741
57.925 12.019586
57.930 11.948187
57.935 11.927705
57.940 11.784204
57.945 11.770038
57.950 11.722897
57.955 12.019508
57.960 12.292027
57.965 12.717135
57.970 12.917459
57.975 13.20396
57.980 13.246174
57.985 13.453902
57.990 13.628473
57.995 13.623698
58.000 13.34736
58.005 13.000254
58.010 13.621699
58.015 13.840564
58.020 13.556639
58.025 13.273827
58.030 13.523294
58.035 13.833503
58.040 13.727839
58.045 13.213327
58.050 13.550453
58.055 13.990775
58.060 14.472647
58.065 14.695374
58.070 14.572294
58.075 14.709636
58.080 14.855383
58.085 14.618555
58.090 14.519293
58.095 13.777893
58.100 13.069638
58.105 13.683861
58.110 13.412621
58.115 12.959588
58.120 12.991143
58.125 13.200891
58.130 13.660045
58.135 14.074222
58.140 13.846298
58.145 14.228333
58.150 14.342048
58.155 14.340107
58.160 13.803403
58.165 13.429765
58.170 13.340251
58.175 13.513888
58.180 13.526465
58.185 13.363493
58.190 12.944669
58.195 13.164884
58.200 13.543516
58.205 13.413345
58.210 13.405347
58.215 13.660235
58.220 14.284986
58.225 14.824421
58.230 15.075139
58.235 14.940779
58.240 14.818027
58.245 14.622794
58.250 14.25943
58.255 13.579459
58.260 13.59931
58.265 13.565022
58.270 13.536363
58.275 13.775717
58.280 13.400851
58.285 14.008614
58.290 14.498309
58.295 14.283973
58.300 14.33052
58.305 14.631973
58.310 14.778431
58.315 15.015615
58.320 14.65033
58.325 14.364204
58.330 14.387496
58.335 14.626956
58.340 14.404008
58.345 14.6113
58.350 14.171771
58.355 14.167765
58.360 14.367345
58.365 14.375617
58.370 13.937147
58.375 14.006212
58.380 13.81005
58.385 13.803465
58.390 13.490088
58.395 13.293406
58.400 13.222412
58.405 12.977908
58.410 12.302535
58.415 12.052126
58.420 12.536691
58.425 12.658293
58.430 12.498326
58.435 12.230189
58.440 12.186331
58.445 12.406168
58.450 12.489827
58.455 12.888401
58.460 13.440594
58.465 13.662427
58.470 14.472269
58.475 14.529762
58.480 14.614244
58.485 14.50482
58.490 14.304456
58.495 14.635412
58.500 14.315478
58.505 13.672968
58.510 13.709528
58.515 14.059829
58.520 14.258181
58.525 14.387396
58.530 14.383979
58.535 14.497969
58.540 15.051085
58.545 15.562425
