!@!!GADDS PLOTSO FILE: Chi integration type
!@!!Title/SampleName: map-4c
!@!!Comment: ?
!@!!User: Bruker Instrument Administrator
!@!!Site: University of Illinois Chicago
!@!!Frame: map-4c_01_000.gfrm
!@!!Wavelengths    1.54184   1.54056   1.54439
!@!!Frame angles: 2Theta: 63.000 Omega: 50.000 Phi: 0.000 Chi: 90.000
!@!!Integration range: 2Theta: 53.000 to 73.000  Gamma: -105.000 to -75.000
!@!!Integration method: bin normalized
!@!N
!@!SS
!@!M
!@!L 0.0 0.0 0.0 0.0
!@!XDegrees
!@!YCounts
53.000 8.676813
53.005 9.02159
53.010 9.51775
53.015 10.358698
53.020 10.838234
53.025 10.887124
53.030 11.237914
53.035 11.624547
53.040 11.810233
53.045 11.443439
53.050 11.014194
53.055 10.64816
53.060 10.899806
53.065 10.954468
53.070 10.654486
53.075 10.486249
53.080 10.532545
53.085 10.645452
53.090 10.84218
53.095 11.006415
53.100 11.263306
53.105 11.762263
53.110 11.947711
53.115 12.029634
53.120 11.815312
53.125 11.729277
53.130 11.268335
53.135 11.28179
53.140 11.03972
53.145 10.86697
53.150 11.158414
53.155 11.815114
53.160 11.614635
53.165 11.028542
53.170 10.460617
53.175 10.391247
53.180 10.394863
53.185 9.717582
53.190 9.157696
53.195 9.559911
53.200 9.522508
53.205 9.116194
53.210 9.307881
53.215 9.123474
53.220 9.082999
53.225 9.310892
53.230 9.554221
53.235 10.30165
53.240 10.897929
53.245 10.917134
53.250 10.995389
53.255 11.509968
53.260 11.429308
53.265 10.911172
53.270 10.307329
53.275 10.225692
53.280 10.162127
53.285 10.350011
53.290 9.681879
53.295 9.843463
53.300 10.042014
53.305 11.027983
53.310 11.658511
53.315 11.831532
53.320 11.970028
53.325 12.197781
53.330 12.000255
53.335 11.471975
53.340 10.744188
53.345 10.353347
53.350 10.333337
53.355 10.662513
53.360 11.439345
53.365 12.000154
53.370 12.289317
53.375 12.526656
53.380 12.692605
53.385 12.320737
53.390 11.648101
53.395 10.983575
53.400 10.836495
53.405 10.650091
53.410 10.450397
53.415 10.179576
53.420 10.711157
53.425 11.088642
53.430 10.746653
53.435 10.60795
53.440 10.692245
53.445 11.125544
53.450 11.181495
53.455 10.784644
53.460 11.194216
53.465 11.346763
53.470 11.687262
53.475 11.407269
53.480 10.91347
53.485 11.135751
53.490 11.357665
53.495 11.203719
53.500 10.973654
53.505 10.683246
53.510 11.166598
53.515 11.895517
53.520 11.89193
53.525 11.576869
53.530 11.917046
53.535 12.242823
53.540 11.995716
53.545 11.343744
53.550 10.96275
53.555 11.210932
53.560 11.524008
53.565 11.084522
53.570 11.467875
53.575 11.605736
53.580 11.940065
53.585 12.547523
53.590 12.734263
53.595 12.652057
53.600 12.635894
53.605 12.158968
53.610 12.148592
53.615 11.847388
53.620 11.13887
53.625 10.233884
53.630 9.866424
53.635 9.696941
53.640 10.383754
53.645 10.219992
53.650 10.028425
53.655 10.091702
53.660 10.36432
53.665 10.629149
53.670 10.450073
53.675 9.936305
53.680 9.995788
53.685 10.296873
53.690 10.883193
53.695 11.194448
53.700 11.457325
53.705 11.952515
53.710 12.138618
53.715 11.946529
53.720 11.991571
53.725 11.279548
53.730 11.722521
53.735 11.964828
53.740 12.372746
53.745 12.612626
53.750 12.505577
53.755 12.376602
53.760 12.352955
53.765 11.86245
53.770 11.218303
53.775 10.660401
53.780 10.691939
53.785 10.964522
53.790 10.636171
53.795 10.884008
53.800 10.998907
53.805 11.642477
53.810 12.223556
53.815 12.124927
53.820 12.589911
53.825 12.505999
53.830 12.498134
53.835 12.076035
53.840 11.392562
53.845 11.184123
53.850 11.843087
53.855 11.819737
53.860 11.98351
53.865 12.044246
53.870 12.687282
53.875 13.203998
53.880 12.866432
53.885 12.410612
53.890 13.160903
53.895 13.416439
53.900 13.181579
53.905 12.98385
53.910 12.89424
53.915 12.965186
53.920 12.342406
53.925 11.681953
53.930 11.924139
53.935 11.766039
53.940 11.195527
53.945 10.910189
53.950 11.119637
53.955 11.400084
53.960 11.502712
53.965 11.156335
53.970 11.53466
53.975 11.843747
53.980 12.151643
53.985 12.100937
53.990 12.254838
53.995 12.244841
54.000 12.571895
54.005 12.311456
54.010 12.285683
54.015 11.935887
54.020 11.810999
54.025 11.577088
54.030 11.350098
54.035 10.715215
54.040 10.595849
54.045 10.62992
54.050 10.842799
54.055 11.09775
54.060 10.91511
54.065 10.933764
54.070 11.323024
54.075 11.542084
54.080 11.996888
54.085 12.135512
54.090 11.864978
54.095 12.113041
54.100 12.030928
54.105 11.821423
54.110 11.25325
54.115 10.503957
54.120 10.023962
54.125 10.059456
54.130 10.059971
54.135 10.517201
54.140 10.688552
54.145 11.067476
54.150 11.418166
54.155 11.730463
54.160 12.11997
54.165 11.778453
54.170 11.416701
54.175 11.713279
54.180 11.831383
54.185 11.775678
54.190 11.828797
54.195 11.680256
54.200 12.274341
54.205 12.825059
54.210 12.517175
54.215 12.193846
54.220 11.93356
54.225 11.393439
54.230 11.576516
54.235 11.800332
54.240 11.690026
54.245 11.566397
54.250 11.682715
54.255 12.517962
54.260 12.855949
54.265 12.072967
54.270 11.508414
54.275 11.412086
54.280 11.475461
54.285 11.826131
54.290 11.03386
54.295 11.13297
54.300 11.494184
54.305 11.329076
54.310 11.146126
54.315 11.030501
54.320 11.117408
54.325 11.306558
54.330 11.364176
54.335 11.489686
54.340 12.027684
54.345 12.308339
54.350 12.095191
54.355 11.733476
54.360 12.001794
54.365 11.916077
54.370 11.222811
54.375 10.593373
54.380 10.298178
54.385 10.530013
54.390 10.28178
54.395 10.061096
54.400 10.167625
54.405 10.5897
54.410 11.071831
54.415 11.621037
54.420 11.561098
54.425 11.932135
54.430 12.097786
54.435 12.178428
54.440 12.352833
54.445 11.84024
54.450 11.780035
54.455 11.392315
54.460 10.742373
54.465 10.328019
54.470 10.005589
54.475 9.7972
54.480 9.904409
54.485 10.10963
54.490 10.50794
54.495 10.955791
54.500 11.287782
54.505 11.612549
54.510 11.867001
54.515 11.786021
54.520 11.813875
54.525 12.359587
54.530 12.599715
54.535 12.730299
54.540 12.752031
54.545 12.342295
54.550 12.37993
54.555 12.345273
54.560 11.895242
54.565 11.751836
54.570 11.699313
54.575 11.394427
54.580 11.591643
54.585 11.563503
54.590 11.532033
54.595 11.554255
54.600 11.575715
54.605 11.528696
54.610 12.467652
54.615 12.521321
54.620 12.824642
54.625 12.790545
54.630 13.262859
54.635 13.322809
54.640 13.103457
54.645 12.475526
54.650 12.664331
54.655 12.147506
54.660 11.978006
54.665 11.581993
54.670 11.825076
54.675 11.984487
54.680 12.077902
54.685 11.769114
54.690 12.557657
54.695 12.812269
54.700 12.931854
54.705 12.469085
54.710 11.831483
54.715 11.785309
54.720 11.613751
54.725 11.228369
54.730 11.178254
54.735 11.03381
54.740 11.133647
54.745 11.315999
54.750 11.345209
54.755 11.992312
54.760 11.767975
54.765 11.873924
54.770 11.839345
54.775 12.384156
54.780 12.815535
54.785 12.682725
54.790 12.512278
54.795 12.312024
54.800 11.967148
54.805 12.090822
54.810 11.972195
54.815 12.225351
54.820 12.566644
54.825 12.310719
54.830 12.006887
54.835 11.858243
54.840 11.789705
54.845 11.730494
54.850 11.332838
54.855 10.967255
54.860 11.098064
54.865 11.775598
54.870 12.273758
54.875 12.476636
54.880 12.649541
54.885 13.114264
54.890 13.460932
54.895 13.748067
54.900 13.797185
54.905 13.641662
54.910 13.566086
54.915 13.723372
54.920 13.340764
54.925 12.815585
54.930 12.62923
54.935 12.560364
54.940 12.385267
54.945 12.224053
54.950 12.172451
54.955 12.222934
54.960 12.849942
54.965 12.853663
54.970 12.725847
54.975 12.798977
54.980 12.772348
54.985 12.81031
54.990 12.773539
54.995 12.651351
55.000 13.087617
55.005 13.076983
55.010 13.231094
55.015 12.735663
55.020 12.19956
55.025 11.884867
55.030 11.537879
55.035 11.282348
55.040 11.506157
55.045 11.553222
55.050 11.933125
55.055 11.774322
55.060 12.343583
55.065 12.494411
55.070 12.574769
55.075 12.272636
55.080 12.568281
55.085 12.629348
55.090 13.084951
55.095 12.819693
55.100 12.689958
55.105 12.715281
55.110 13.04437
55.115 12.966458
55.120 13.807767
55.125 13.907298
55.130 13.925536
55.135 14.0149
55.140 13.634402
55.145 13.074232
55.150 12.96525
55.155 12.146874
55.160 11.645164
55.165 11.536613
55.170 11.81216
55.175 12.237759
55.180 13.047954
55.185 12.984952
55.190 13.556609
55.195 13.476048
55.200 13.485482
55.205 13.40303
55.210 13.43628
55.215 13.303026
55.220 13.25404
55.225 12.722545
55.230 12.549475
55.235 12.238093
55.240 12.568707
55.245 12.390835
55.250 12.092129
55.255 11.889029
55.260 11.99316
55.265 12.21644
55.270 12.485181
55.275 12.716196
55.280 12.979239
55.285 13.453114
55.290 13.911745
55.295 13.933524
55.300 13.75113
55.305 13.059052
55.310 12.635056
55.315 12.829692
55.320 12.30154
55.325 12.516808
55.330 12.929218
55.335 13.513135
55.340 13.919664
55.345 13.820292
55.350 13.323623
55.355 13.287894
55.360 13.046755
55.365 12.660905
55.370 12.496454
55.375 12.360484
55.380 12.298526
55.385 12.602419
55.390 12.174338
55.395 12.164748
55.400 11.885472
55.405 11.731977
55.410 11.626277
55.415 11.684423
55.420 11.553971
55.425 11.740915
55.430 12.1897
55.435 12.807385
55.440 13.418026
55.445 13.362714
55.450 13.29339
55.455 14.065809
55.460 14.241373
55.465 13.594232
55.470 12.910435
55.475 12.790211
55.480 12.500942
55.485 12.7591
55.490 12.140823
55.495 11.770423
55.500 11.434903
55.505 11.826966
55.510 11.834935
55.515 12.205276
55.520 12.580179
55.525 12.910458
55.530 13.947588
55.535 14.325456
55.540 14.335072
55.545 14.312604
55.550 14.354068
55.555 13.893975
55.560 13.644118
55.565 13.974324
55.570 14.448577
55.575 14.614257
55.580 14.712317
55.585 14.356094
55.590 14.32906
55.595 14.249475
55.600 13.338075
55.605 12.458189
55.610 12.05908
55.615 11.846101
55.620 12.22353
55.625 12.128318
55.630 11.931307
55.635 12.554721
55.640 12.393088
55.645 12.20083
55.650 12.426204
55.655 12.504621
55.660 13.35396
55.665 13.553536
55.670 13.395026
55.675 14.276414
55.680 14.641379
55.685 14.475377
55.690 14.044693
55.695 13.400537
55.700 13.18749
55.705 12.941468
55.710 12.515918
55.715 12.552766
55.720 12.675398
55.725 12.893635
55.730 12.953636
55.735 12.968024
55.740 12.836832
55.745 12.980181
55.750 12.993928
55.755 12.635114
55.760 12.486754
55.765 12.74381
55.770 12.94853
55.775 12.959596
55.780 12.609394
55.785 12.560736
55.790 12.702533
55.795 12.5862
55.800 12.219513
55.805 12.192218
55.810 12.75895
55.815 12.981908
55.820 13.319067
55.825 13.544191
55.830 13.70866
55.835 14.182388
55.840 14.304801
55.845 14.038133
55.850 14.112995
55.855 13.972101
55.860 13.737014
55.865 13.702684
55.870 13.701508
55.875 14.468417
55.880 14.717098
55.885 14.726567
55.890 14.946579
55.895 15.499547
55.900 15.031436
55.905 14.155933
55.910 13.664432
55.915 13.516903
55.920 13.091496
55.925 12.770527
55.930 12.837266
55.935 13.569525
55.940 13.957909
55.945 14.511511
55.950 14.994537
55.955 15.486957
55.960 15.406049
55.965 15.250827
55.970 15.14119
55.975 14.963675
55.980 14.757625
55.985 13.835631
55.990 13.341495
55.995 13.714405
56.000 13.827756
56.005 13.877
56.010 13.893276
56.015 13.510349
56.020 13.746386
56.025 13.891156
56.030 13.491734
56.035 13.411677
56.040 13.406444
56.045 13.186953
56.050 13.307286
56.055 12.81754
56.060 12.751391
56.065 12.829294
56.070 13.27175
56.075 13.995298
56.080 13.666742
56.085 14.029313
56.090 14.628719
56.095 14.71735
56.100 14.218447
56.105 13.872132
56.110 13.960865
56.115 15.028314
56.120 15.768791
56.125 15.846637
56.130 15.530428
56.135 15.152304
56.140 14.728921
56.145 14.369831
56.150 13.468192
56.155 13.233315
56.160 13.013983
56.165 13.364674
56.170 14.130278
56.175 14.214053
56.180 14.044894
56.185 13.848199
56.190 13.859738
56.195 13.67745
56.200 12.986905
56.205 12.375434
56.210 12.161755
56.215 12.804919
56.220 12.698031
56.225 12.25705
56.230 13.010121
56.235 13.620301
56.240 14.113317
56.245 14.240667
56.250 13.789135
56.255 14.099714
56.260 14.341776
56.265 14.606778
56.270 14.798271
56.275 14.599
56.280 14.048086
56.285 13.780698
56.290 13.625235
56.295 13.432309
56.300 12.971566
56.305 13.262404
56.310 13.609719
56.315 13.895229
56.320 14.412204
56.325 14.721635
56.330 14.811778
56.335 14.983089
56.340 14.88872
56.345 14.538223
56.350 14.306911
56.355 14.007607
56.360 13.770566
56.365 13.568685
56.370 13.45034
56.375 12.802773
56.380 12.894051
56.385 13.180657
56.390 12.828009
56.395 12.4013
56.400 12.46269
56.405 12.368316
56.410 13.042584
56.415 12.996308
56.420 12.983036
56.425 12.810274
56.430 13.625757
56.435 13.742425
56.440 13.548368
56.445 13.600227
56.450 14.021235
56.455 14.173003
56.460 14.789848
56.465 14.409544
56.470 14.518603
56.475 14.329943
56.480 13.982871
56.485 13.830271
56.490 14.281611
56.495 13.85134
56.500 13.757651
56.505 14.053836
56.510 14.475857
56.515 14.683055
56.520 14.665484
56.525 14.754074
56.530 15.228429
56.535 14.666097
56.540 14.010131
56.545 14.00946
56.550 13.992871
56.555 13.921748
56.560 13.834314
56.565 13.766067
56.570 14.195661
56.575 14.547436
56.580 14.259014
56.585 13.973208
56.590 13.82922
56.595 14.130819
56.600 14.28865
56.605 14.03936
56.610 14.042553
56.615 14.273236
56.620 14.446194
56.625 13.557117
56.630 13.442743
56.635 13.68126
56.640 13.89957
56.645 13.930824
56.650 13.663338
56.655 13.808787
56.660 13.917857
56.665 13.134434
56.670 12.643748
56.675 12.219038
56.680 12.554229
56.685 12.583435
56.690 12.597595
56.695 13.499167
56.700 14.342178
56.705 14.533911
56.710 15.0488
56.715 15.449266
56.720 15.809337
56.725 15.501237
56.730 14.995491
56.735 14.697916
56.740 14.82255
56.745 14.304441
56.750 13.654205
56.755 13.954855
56.760 14.262417
56.765 14.839504
56.770 15.056806
56.775 15.099229
56.780 14.915661
56.785 14.993722
56.790 14.845622
56.795 14.570977
56.800 14.269956
56.805 14.332976
56.810 14.436244
56.815 14.872079
56.820 14.868518
56.825 14.794018
56.830 15.188878
56.835 15.178101
56.840 15.532162
56.845 15.129279
56.850 14.978436
56.855 14.801825
56.860 14.467102
56.865 13.8494
56.870 13.692228
56.875 13.384184
56.880 13.838587
56.885 14.057262
56.890 14.375252
56.895 14.90796
56.900 15.028541
56.905 15.048721
56.910 15.330845
56.915 15.72859
56.920 15.536808
56.925 15.339904
56.930 14.918763
56.935 14.818338
56.940 14.777471
56.945 14.485987
56.950 13.709697
56.955 13.548228
56.960 13.609173
56.965 14.082435
56.970 14.226164
56.975 14.085326
56.980 13.839722
56.985 14.172565
56.990 14.315401
56.995 13.988169
57.000 14.155363
57.005 14.148538
57.010 14.172056
57.015 14.69164
57.020 14.977349
57.025 15.141866
57.030 15.177749
57.035 15.13017
57.040 15.578805
57.045 15.572442
57.050 15.320984
57.055 14.910656
57.060 14.780931
57.065 15.325915
57.070 15.470618
57.075 15.530133
57.080 15.386159
57.085 15.09448
57.090 15.078687
57.095 15.174728
57.100 14.900953
57.105 14.840302
57.110 14.633833
57.115 15.270948
57.120 14.992917
57.125 15.189512
57.130 15.09215
57.135 14.825741
57.140 15.22731
57.145 15.229713
57.150 14.910836
57.155 15.09765
57.160 14.563156
57.165 14.456812
57.170 14.404304
57.175 13.756962
57.180 13.738445
57.185 14.318191
57.190 14.471274
57.195 14.899118
57.200 14.718626
57.205 14.391632
57.210 14.68072
57.215 14.313682
57.220 14.08321
57.225 13.999101
57.230 13.608013
57.235 13.895177
57.240 14.163875
57.245 14.123624
57.250 14.459307
57.255 14.250823
57.260 14.145518
57.265 14.080992
57.270 14.130126
57.275 14.161995
57.280 13.835261
57.285 13.345867
57.290 13.363171
57.295 14.011739
57.300 14.275447
57.305 14.491503
57.310 14.669252
57.315 15.401694
57.320 15.9374
57.325 16.103458
57.330 16.125643
57.335 16.153843
57.340 15.934238
57.345 15.707384
57.350 15.523965
57.355 15.337082
57.360 14.843366
57.365 14.838421
57.370 14.642636
57.375 14.542035
57.380 14.119582
57.385 13.520508
57.390 13.088326
57.395 12.615587
57.400 12.168207
57.405 12.271157
57.410 12.324817
57.415 12.786615
57.420 13.121757
57.425 13.659762
57.430 14.031116
57.435 14.308674
57.440 14.532744
57.445 14.585997
57.450 14.23182
57.455 14.363713
57.460 14.61943
57.465 15.428136
57.470 15.27321
57.475 14.871581
57.480 14.821099
57.485 14.900043
57.490 14.930469
57.495 14.898531
57.500 14.953652
57.505 15.33088
57.510 15.515201
57.515 16.125965
57.520 16.746674
57.525 16.791103
57.530 16.805525
57.535 16.41527
57.540 16.334318
57.545 16.327927
57.550 16.152128
57.555 15.817397
57.560 15.267051
57.565 15.913249
57.570 16.522587
57.575 16.236032
57.580 16.455898
57.585 16.822296
57.590 17.231577
57.595 17.713329
57.600 16.818626
57.605 16.631237
57.610 17.150728
57.615 16.870255
57.620 16.654869
57.625 16.724062
57.630 16.825151
57.635 16.73583
57.640 16.562853
57.645 16.309074
57.650 16.625221
57.655 16.667412
57.660 16.273418
57.665 16.126432
57.670 16.239254
57.675 16.463161
57.680 16.315664
57.685 15.785304
57.690 15.831109
57.695 16.299501
57.700 16.442715
57.705 16.789709
57.710 17.302719
57.715 17.536028
57.720 18.016901
57.725 18.103111
57.730 17.887831
57.735 17.912897
57.740 17.725132
57.745 17.447618
57.750 17.298101
57.755 16.992363
57.760 17.201422
57.765 17.268379
57.770 17.157717
57.775 17.021618
57.780 17.137787
57.785 17.17786
57.790 16.593231
57.795 16.11578
57.800 15.722915
57.805 15.297935
57.810 15.042538
57.815 14.335723
57.820 14.267749
57.825 14.96244
57.830 15.124428
57.835 15.049751
57.840 15.073344
57.845 15.121513
57.850 15.829616
57.855 16.39662
57.860 16.239084
57.865 16.793898
57.870 17.371061
57.875 17.663519
57.880 17.759827
57.885 17.561117
57.890 17.520493
57.895 17.591972
57.900 17.334991
57.905 17.341454
57.910 17.452024
57.915 17.340782
57.920 17.08086
57.925 16.468954
57.930 16.424902
57.935 16.529171
57.940 16.744089
57.945 17.120255
57.950 17.383068
57.955 17.825787
57.960 18.507992
57.965 18.249662
57.970 18.305532
57.975 18.537359
57.980 18.516426
57.985 18.897251
57.990 19.013578
57.995 18.903999
58.000 18.542679
58.005 18.214828
58.010 17.882959
58.015 18.005955
58.020 18.085262
58.025 17.923836
58.030 18.07317
58.035 18.288723
58.040 18.567877
58.045 19.065533
58.050 18.775991
58.055 18.457796
58.060 18.858465
58.065 18.726797
58.070 19.420189
58.075 19.823309
58.080 19.679665
58.085 19.426664
58.090 19.148735
58.095 18.864779
58.100 18.663527
58.105 18.255756
58.110 18.011852
58.115 18.00849
58.120 18.092838
58.125 18.320917
58.130 18.504204
58.135 18.722904
58.140 18.779104
58.145 18.509651
58.150 18.052052
58.155 18.177059
58.160 17.679296
58.165 17.235432
58.170 16.84062
58.175 16.64852
58.180 17.152172
58.185 17.026066
58.190 16.460142
58.195 16.518122
58.200 16.948296
58.205 17.317522
58.210 17.059923
58.215 16.543812
58.220 17.32016
58.225 18.183212
58.230 17.925795
58.235 17.61327
58.240 17.806616
58.245 17.841242
58.250 18.077917
58.255 17.651316
58.260 17.719639
58.265 18.315634
58.270 18.322792
58.275 17.988003
58.280 18.137192
58.285 18.373692
58.290 18.335199
58.295 18.035711
58.300 17.693314
58.305 18.340422
58.310 18.614094
58.315 19.396811
58.320 20.301086
58.325 20.867579
58.330 21.636316
58.335 22.316938
58.340 22.396376
58.345 23.044149
58.350 22.386967
58.355 22.982811
58.360 23.140434
58.365 22.9727
58.370 22.580442
58.375 22.360437
58.380 22.455938
58.385 23.271553
58.390 23.615643
58.395 23.181948
58.400 23.881983
58.405 23.98402
58.410 23.671373
58.415 23.829666
58.420 24.232334
58.425 24.118114
58.430 25.080122
58.435 24.91395
58.440 25.321716
58.445 25.778767
58.450 25.771919
