!@!!GADDS PLOTSO FILE: Chi integration type
!@!!Title/SampleName: map-156
!@!!Comment: ?
!@!!User: Bruker Instrument Administrator
!@!!Site: University of Illinois Chicago
!@!!Frame: map-156_01_000.gfrm
!@!!Wavelengths    1.54184   1.54056   1.54439
!@!!Frame angles: 2Theta: 63.000 Omega: 50.000 Phi: 0.000 Chi: 90.000
!@!!Integration range: 2Theta: 53.000 to 73.000  Gamma: -105.000 to -75.000
!@!!Integration method: bin normalized
!@!N
!@!SS
!@!M
!@!L 0.0 0.0 0.0 0.0
!@!XDegrees
!@!YCounts
53.000 5.171759
53.005 5.029643
53.010 5.014497
53.015 4.818439
53.020 4.987523
53.025 5.335807
53.030 5.626365
53.035 6.05911
53.040 6.316665
53.045 6.160392
53.050 5.840055
53.055 5.666245
53.060 5.782573
53.065 5.612884
53.070 5.39886
53.075 5.38533
53.080 5.846574
53.085 6.414349
53.090 6.282308
53.095 5.930407
53.100 5.983482
53.105 6.203248
53.110 6.327127
53.115 6.00701
53.120 5.35251
53.125 4.970931
53.130 5.303269
53.135 5.235109
53.140 5.229692
53.145 5.374182
53.150 6.145862
53.155 6.980928
53.160 7.072963
53.165 6.813444
53.170 6.720026
53.175 6.69277
53.180 6.449812
53.185 5.843154
53.190 5.692053
53.195 5.73767
53.200 5.807374
53.205 5.756341
53.210 5.676842
53.215 6.113441
53.220 6.266552
53.225 6.318689
53.230 6.19311
53.235 6.088868
53.240 6.489844
53.245 6.66678
53.250 6.274909
53.255 6.500125
53.260 6.547495
53.265 6.643105
53.270 6.377249
53.275 6.347502
53.280 6.63954
53.285 6.59729
53.290 6.721807
53.295 6.737302
53.300 6.63728
53.305 6.601961
53.310 6.063586
53.315 5.718372
53.320 5.396329
53.325 5.350824
53.330 5.248008
53.335 5.259118
53.340 5.626296
53.345 5.820221
53.350 5.975944
53.355 6.087887
53.360 6.227677
53.365 6.60657
53.370 6.870527
53.375 6.661246
53.380 6.516434
53.385 6.329365
53.390 6.135975
53.395 5.795545
53.400 5.716285
53.405 5.644273
53.410 5.722334
53.415 5.610515
53.420 5.689772
53.425 6.2766
53.430 6.325653
53.435 6.335866
53.440 6.161765
53.445 5.973701
53.450 6.50838
53.455 6.354963
53.460 5.90714
53.465 6.041032
53.470 6.121602
53.475 6.420184
53.480 6.644647
53.485 6.566158
53.490 6.628622
53.495 6.438197
53.500 6.358335
53.505 6.293634
53.510 6.116217
53.515 6.043516
53.520 5.885496
53.525 6.363776
53.530 6.71956
53.535 6.936742
53.540 6.836666
53.545 6.866921
53.550 6.827355
53.555 6.82944
53.560 6.600076
53.565 6.409673
53.570 6.364506
53.575 6.57073
53.580 6.502527
53.585 6.702052
53.590 6.510079
53.595 6.467929
53.600 6.474916
53.605 6.684528
53.610 7.261789
53.615 7.44954
53.620 7.526021
53.625 7.356237
53.630 7.227131
53.635 7.32111
53.640 7.250327
53.645 6.931537
53.650 7.209611
53.655 7.304554
53.660 7.685623
53.665 7.835954
53.670 7.829905
53.675 7.707945
53.680 7.883497
53.685 7.548104
53.690 7.934251
53.695 7.600277
53.700 7.66361
53.705 7.784698
53.710 7.813475
53.715 7.077615
53.720 6.616378
53.725 6.202928
53.730 6.659351
53.735 6.628207
53.740 6.338982
53.745 6.579804
53.750 7.153643
53.755 7.833805
53.760 7.849069
53.765 7.776217
53.770 7.899993
53.775 8.413076
53.780 8.220214
53.785 7.996562
53.790 7.502052
53.795 7.275518
53.800 7.052058
53.805 7.036343
53.810 6.794237
53.815 6.728223
53.820 6.466269
53.825 6.835585
53.830 7.269702
53.835 7.037628
53.840 6.88914
53.845 7.144711
53.850 7.763322
53.855 8.206861
53.860 7.911016
53.865 7.701576
53.870 7.707341
53.875 7.566454
53.880 7.40451
53.885 6.985919
53.890 6.921455
53.895 7.243496
53.900 7.030142
53.905 6.740735
53.910 6.879888
53.915 6.908046
53.920 6.953637
53.925 7.137565
53.930 7.411903
53.935 7.830778
53.940 7.753833
53.945 7.580879
53.950 7.458687
53.955 7.414465
53.960 7.058469
53.965 6.789886
53.970 6.751913
53.975 7.120703
53.980 6.945972
53.985 7.076804
53.990 7.090693
53.995 7.226593
54.000 7.162313
54.005 7.306252
54.010 7.541713
54.015 7.660594
54.020 7.502071
54.025 7.476927
54.030 7.190591
54.035 6.945957
54.040 6.47766
54.045 5.995941
54.050 6.014197
54.055 6.00834
54.060 6.089467
54.065 6.267424
54.070 6.564655
54.075 6.861978
54.080 6.745757
54.085 6.679227
54.090 6.429803
54.095 6.1271
54.100 6.249166
54.105 6.328802
54.110 6.275638
54.115 6.58941
54.120 6.824334
54.125 7.013261
54.130 7.254916
54.135 7.209858
54.140 7.242469
54.145 6.891577
54.150 6.55202
54.155 6.241895
54.160 6.17395
54.165 5.917224
54.170 6.429101
54.175 6.490498
54.180 6.619739
54.185 7.158495
54.190 7.309884
54.195 7.564611
54.200 7.799642
54.205 7.159327
54.210 7.391427
54.215 7.205142
54.220 7.079669
54.225 7.096195
54.230 6.883903
54.235 6.804905
54.240 6.664581
54.245 6.651885
54.250 6.816963
54.255 6.747016
54.260 6.887379
54.265 7.164538
54.270 7.245992
54.275 7.018948
54.280 6.674661
54.285 6.57125
54.290 6.465211
54.295 6.404566
54.300 6.065303
54.305 6.206199
54.310 6.50835
54.315 6.976461
54.320 7.012208
54.325 7.002082
54.330 7.067759
54.335 7.06599
54.340 6.789487
54.345 6.849009
54.350 6.564351
54.355 6.641606
54.360 6.505815
54.365 5.93105
54.370 6.248873
54.375 6.263702
54.380 6.469182
54.385 6.421267
54.390 6.20628
54.395 6.131682
54.400 6.374672
54.405 6.012983
54.410 6.165969
54.415 5.793159
54.420 6.100626
54.425 6.567019
54.430 6.992549
54.435 6.8196
54.440 6.823514
54.445 7.199864
54.450 7.689449
54.455 7.939999
54.460 7.740747
54.465 7.600635
54.470 7.786243
54.475 7.580076
54.480 7.314521
54.485 7.105274
54.490 6.559495
54.495 6.347673
54.500 6.338474
54.505 6.338361
54.510 6.891456
54.515 6.771167
54.520 6.804249
54.525 7.358206
54.530 7.744167
54.535 7.699308
54.540 7.602689
54.545 7.749263
54.550 7.98362
54.555 8.118656
54.560 7.812404
54.565 7.6145
54.570 7.424024
54.575 7.135535
54.580 6.607194
54.585 6.221361
54.590 6.265457
54.595 6.474062
54.600 7.037705
54.605 7.611748
54.610 8.199301
54.615 8.127842
54.620 7.958442
54.625 7.335544
54.630 6.743025
54.635 6.383812
54.640 5.857785
54.645 5.437458
54.650 5.728562
54.655 6.02781
54.660 6.663271
54.665 7.024851
54.670 7.111229
54.675 7.311503
54.680 7.133817
54.685 6.704431
54.690 6.606158
54.695 6.482051
54.700 6.376548
54.705 6.138181
54.710 6.342554
54.715 6.799107
54.720 7.022537
54.725 6.656079
54.730 6.692849
54.735 7.039136
54.740 7.167131
54.745 7.205031
54.750 7.004087
54.755 6.89726
54.760 7.382972
54.765 7.226803
54.770 7.073437
54.775 7.135504
54.780 7.785513
54.785 8.227693
54.790 8.227936
54.795 8.185958
54.800 8.451087
54.805 8.406493
54.810 8.392055
54.815 7.549791
54.820 7.536336
54.825 7.646525
54.830 7.288426
54.835 7.121307
54.840 7.269076
54.845 7.268137
54.850 7.40425
54.855 7.326406
54.860 7.523
54.865 7.820816
54.870 8.157804
54.875 8.435624
54.880 8.350074
54.885 8.578671
54.890 8.579569
54.895 8.591052
54.900 8.521943
54.905 8.376825
54.910 8.22164
54.915 8.022714
54.920 7.915156
54.925 7.77893
54.930 7.863105
54.935 8.347547
54.940 8.226855
54.945 8.146329
54.950 8.680269
54.955 9.024724
54.960 9.006484
54.965 8.595498
54.970 7.896521
54.975 7.918293
54.980 8.075887
54.985 8.112907
54.990 7.814031
54.995 7.691043
55.000 7.836946
55.005 8.137681
55.010 8.192304
55.015 8.311823
55.020 8.134095
55.025 8.372066
55.030 8.633021
55.035 8.181085
55.040 8.172081
55.045 7.898322
55.050 7.390319
55.055 7.351604
55.060 7.041043
55.065 7.027279
55.070 7.438247
55.075 7.391869
55.080 7.791471
55.085 8.348354
55.090 8.598851
55.095 9.014997
55.100 9.300956
55.105 9.292353
55.110 9.303354
55.115 9.111415
55.120 8.647457
55.125 8.533183
55.130 8.466007
55.135 8.109663
55.140 8.174853
55.145 7.885369
55.150 7.780283
55.155 7.752192
55.160 7.535896
55.165 7.32384
55.170 7.224914
55.175 7.311268
55.180 7.715227
55.185 8.021962
55.190 8.169186
55.195 8.224417
55.200 8.121316
55.205 7.815627
55.210 7.487075
55.215 7.477864
55.220 6.862542
55.225 6.612341
55.230 6.393904
55.235 6.436399
55.240 6.541194
55.245 6.461893
55.250 6.531474
55.255 6.903785
55.260 7.512794
55.265 7.686717
55.270 8.315001
55.275 8.370724
55.280 8.236923
55.285 8.190948
55.290 8.081337
55.295 7.997823
55.300 7.740775
55.305 7.235999
55.310 7.302454
55.315 7.159878
55.320 7.117283
55.325 6.938215
55.330 6.791737
55.335 6.97054
55.340 7.038817
55.345 7.117344
55.350 7.169411
55.355 7.025589
55.360 6.784758
55.365 6.528197
55.370 6.688528
55.375 6.43747
55.380 6.207458
55.385 6.395898
55.390 5.984107
55.395 6.105341
55.400 6.485641
55.405 6.492487
55.410 7.235183
55.415 7.750937
55.420 8.078468
55.425 8.538608
55.430 8.363789
55.435 8.416037
55.440 8.041093
55.445 7.640668
55.450 7.720291
55.455 7.62777
55.460 7.675194
55.465 7.971738
55.470 7.801212
55.475 7.838181
55.480 7.58892
55.485 7.27969
55.490 6.936199
55.495 6.596809
55.500 6.104962
55.505 6.538915
55.510 6.906461
55.515 6.796872
55.520 6.712884
55.525 7.040503
55.530 7.288331
55.535 7.438183
55.540 7.028976
55.545 6.820572
55.550 6.743105
55.555 6.744317
55.560 6.566725
55.565 6.444059
55.570 6.22927
55.575 6.239831
55.580 6.150014
55.585 6.169574
55.590 6.216142
55.595 6.353988
55.600 6.327228
55.605 6.43388
55.610 6.627381
55.615 7.069062
55.620 7.355922
55.625 7.621929
55.630 7.679263
55.635 8.003647
55.640 8.236609
55.645 8.144836
55.650 7.992204
55.655 8.105975
55.660 8.113625
55.665 7.865764
55.670 7.476021
55.675 7.085253
55.680 7.216673
55.685 7.239734
55.690 7.294682
55.695 7.191843
55.700 7.421029
55.705 7.314817
55.710 7.258866
55.715 7.022333
55.720 6.672909
55.725 6.457495
55.730 6.79963
55.735 6.753122
55.740 6.921329
55.745 7.124047
55.750 7.33279
55.755 7.719112
55.760 7.613888
55.765 7.188861
55.770 7.420388
55.775 7.9188
55.780 7.723374
55.785 7.058677
55.790 6.939957
55.795 7.106762
55.800 7.108745
55.805 6.783193
55.810 6.784256
55.815 6.779366
55.820 6.836338
55.825 6.540674
55.830 6.18144
55.835 6.195943
55.840 6.490597
55.845 6.218546
55.850 6.568421
55.855 6.546472
55.860 6.552404
55.865 6.795528
55.870 6.943727
55.875 6.639102
55.880 6.714088
55.885 6.710649
55.890 6.921027
55.895 6.987198
55.900 7.199158
55.905 6.800161
55.910 7.185817
55.915 6.958364
55.920 6.664976
55.925 6.581017
55.930 6.834487
55.935 6.737836
55.940 7.14601
55.945 7.181001
55.950 7.674754
55.955 8.079443
55.960 7.862861
55.965 7.632773
55.970 7.805833
55.975 7.354633
55.980 7.054237
55.985 6.861898
55.990 7.08379
55.995 7.464572
56.000 7.387395
56.005 7.208528
56.010 7.302271
56.015 6.909491
56.020 6.78244
56.025 6.995484
56.030 7.023631
56.035 6.653176
56.040 6.441352
56.045 6.676206
56.050 7.161563
56.055 6.803735
56.060 6.305475
56.065 6.641243
56.070 6.889625
56.075 6.785252
56.080 6.583528
56.085 6.54782
56.090 6.791656
56.095 6.945344
56.100 6.772796
56.105 7.094447
56.110 7.200831
56.115 7.410606
56.120 7.385192
56.125 7.179568
56.130 6.866673
56.135 7.012275
56.140 7.208529
56.145 7.497965
56.150 7.344351
56.155 7.236328
56.160 7.068881
56.165 6.941803
56.170 6.731371
56.175 6.613693
56.180 6.654724
56.185 6.885286
56.190 7.648614
56.195 7.783951
56.200 8.056224
56.205 8.222247
56.210 8.234836
56.215 8.197532
56.220 8.311315
56.225 7.942783
56.230 8.068601
56.235 8.125223
56.240 7.849073
56.245 7.845592
56.250 7.808648
56.255 7.413862
56.260 7.509591
56.265 7.477114
56.270 7.216707
56.275 7.509783
56.280 7.610463
56.285 7.676062
56.290 8.18786
56.295 8.641631
56.300 8.720037
56.305 8.814505
56.310 8.623134
56.315 8.451612
56.320 8.633115
56.325 8.26372
56.330 8.059127
56.335 8.586963
56.340 8.760786
56.345 8.796219
56.350 8.902164
56.355 8.59933
56.360 8.722097
56.365 8.653131
56.370 8.25985
56.375 7.868065
56.380 7.972729
56.385 7.658214
56.390 7.535652
56.395 7.586313
56.400 7.705765
56.405 7.702734
56.410 8.192497
56.415 8.233971
56.420 8.440994
56.425 8.619923
56.430 8.509243
56.435 8.547044
56.440 8.604553
56.445 8.348833
56.450 8.562781
56.455 8.747225
56.460 8.567974
56.465 8.452751
56.470 8.582438
56.475 8.837381
56.480 8.762809
56.485 8.62297
56.490 8.624615
56.495 8.857746
56.500 8.963109
56.505 8.623999
56.510 8.533364
56.515 8.691634
56.520 8.576784
56.525 8.44656
56.530 8.662268
56.535 9.025107
56.540 9.36393
56.545 9.520826
56.550 9.296541
56.555 9.660394
56.560 9.832901
56.565 9.677435
56.570 9.117039
56.575 8.776256
56.580 8.531372
56.585 8.530432
56.590 8.817591
56.595 9.278571
56.600 9.225495
56.605 9.32061
56.610 9.773987
56.615 10.199709
56.620 10.563185
56.625 10.560061
56.630 10.231068
56.635 10.514774
56.640 10.553843
56.645 10.031254
56.650 10.18755
56.655 9.883257
56.660 9.740437
56.665 9.297557
56.670 9.021213
56.675 9.028172
56.680 9.029739
56.685 8.629836
56.690 8.725759
56.695 8.781009
56.700 9.092291
56.705 9.397971
56.710 9.345084
56.715 9.174585
56.720 9.446734
56.725 9.167958
56.730 8.499629
56.735 8.649465
56.740 8.213974
56.745 8.244626
56.750 8.220454
56.755 7.70994
56.760 7.661027
56.765 7.69808
56.770 7.576734
56.775 7.953723
56.780 7.875905
56.785 7.854807
56.790 8.262061
56.795 8.311312
56.800 8.29698
56.805 8.129493
56.810 8.137634
56.815 8.161992
56.820 8.103908
56.825 7.748861
56.830 7.766222
56.835 7.601156
56.840 7.512722
56.845 7.389214
56.850 7.568104
56.855 7.513297
56.860 7.408594
56.865 7.575317
56.870 7.947303
56.875 8.230063
56.880 8.217001
56.885 8.200244
56.890 8.340964
56.895 8.498785
56.900 7.891505
56.905 7.939157
56.910 8.075388
56.915 8.028721
56.920 7.817287
56.925 7.541655
56.930 7.473873
56.935 7.752497
56.940 7.069166
56.945 6.92988
56.950 6.677535
56.955 6.862868
56.960 6.78006
56.965 6.782684
56.970 6.595282
56.975 6.866373
56.980 6.696606
56.985 6.512995
56.990 6.591097
56.995 6.798099
57.000 6.692765
57.005 7.322228
57.010 7.41534
57.015 7.659516
57.020 7.872207
57.025 7.844761
57.030 8.140155
57.035 8.182932
57.040 7.515907
57.045 7.543615
57.050 7.517469
57.055 7.500057
57.060 7.708161
57.065 8.232754
57.070 8.561525
57.075 8.823273
57.080 8.359846
57.085 8.284477
57.090 8.180135
57.095 7.674405
57.100 7.189682
57.105 7.204676
57.110 7.032116
57.115 7.435114
57.120 7.562025
57.125 7.832021
57.130 8.062024
57.135 8.01832
57.140 7.790505
57.145 7.99319
57.150 7.847154
57.155 7.687619
57.160 7.501734
57.165 7.207585
57.170 7.082072
57.175 6.993514
57.180 6.790815
57.185 7.281499
57.190 7.474575
57.195 7.713721
57.200 7.781428
57.205 7.909012
57.210 8.063142
57.215 8.471001
57.220 7.998287
57.225 7.74869
57.230 7.549833
57.235 7.684628
57.240 7.794731
57.245 7.615557
57.250 7.446243
57.255 7.708224
57.260 8.122034
57.265 8.395955
57.270 8.053415
57.275 7.789522
57.280 7.908256
57.285 7.652071
57.290 7.091252
57.295 6.820496
57.300 7.235617
57.305 7.685227
57.310 7.810634
57.315 7.664417
57.320 7.663756
57.325 7.678748
57.330 7.583638
57.335 6.958791
57.340 7.075428
57.345 7.063926
57.350 7.369462
57.355 7.413193
57.360 7.721841
57.365 8.037937
57.370 7.950517
57.375 7.639361
57.380 7.752547
57.385 8.011061
57.390 8.369613
57.395 8.381624
57.400 8.188187
57.405 8.228335
57.410 8.263188
57.415 8.112193
57.420 7.565466
57.425 7.078742
57.430 7.031742
57.435 7.302919
57.440 7.95601
57.445 8.11428
57.450 7.871639
57.455 8.052714
57.460 8.367647
57.465 8.358108
57.470 8.370112
57.475 7.892048
57.480 7.962006
57.485 8.214184
57.490 7.890015
57.495 7.83552
57.500 7.543337
57.505 7.092892
57.510 6.737869
57.515 6.215396
57.520 6.075009
57.525 6.423826
57.530 6.34549
57.535 6.503214
57.540 6.882818
57.545 6.798944
57.550 6.918821
57.555 7.048178
57.560 6.657094
57.565 6.870229
57.570 6.949943
57.575 6.974208
57.580 7.321282
57.585 7.529266
57.590 7.424758
57.595 7.71896
57.600 7.473278
57.605 7.234862
57.610 7.115504
57.615 6.863903
57.620 6.555109
57.625 6.81141
57.630 6.922455
57.635 7.151227
57.640 7.267063
57.645 7.13678
57.650 7.542187
57.655 8.072809
57.660 8.099412
57.665 8.013211
57.670 8.201696
57.675 8.365774
57.680 8.636764
57.685 8.346189
57.690 8.047813
57.695 7.652907
57.700 7.585195
57.705 7.186421
57.710 7.019093
57.715 6.903951
57.720 6.627252
57.725 6.782887
57.730 6.900137
57.735 6.55955
57.740 6.724104
57.745 6.621734
57.750 6.714838
57.755 6.856743
57.760 6.752238
57.765 6.690315
57.770 6.451741
57.775 6.405344
57.780 6.387997
57.785 6.332575
57.790 6.687234
57.795 6.346704
57.800 6.374641
57.805 6.732076
57.810 7.228782
57.815 7.27609
57.820 7.266932
57.825 6.897181
57.830 7.107068
57.835 7.577964
57.840 7.774631
57.845 7.653154
57.850 7.667252
57.855 7.732443
57.860 8.065265
57.865 7.883748
57.870 7.923271
57.875 7.780119
57.880 7.914312
57.885 8.140181
57.890 8.188517
57.895 8.195734
57.900 8.401478
57.905 8.52262
57.910 8.614828
57.915 8.231832
57.920 8.415442
57.925 8.609611
57.930 8.904419
57.935 8.562183
57.940 8.213079
57.945 8.00344
57.950 8.33394
57.955 7.894773
57.960 7.23198
57.965 6.970952
57.970 7.142682
57.975 7.141294
57.980 7.121522
57.985 6.788191
57.990 7.162249
57.995 7.445298
58.000 7.253025
58.005 7.51164
58.010 7.38501
58.015 7.527958
58.020 7.576295
58.025 7.319353
58.030 7.461274
58.035 7.707158
58.040 7.287863
58.045 7.671502
58.050 7.408562
58.055 7.649333
58.060 7.421257
58.065 7.062162
58.070 7.284976
58.075 7.550951
58.080 7.548002
58.085 8.012862
58.090 7.869894
58.095 8.076209
58.100 7.865475
58.105 7.62306
58.110 7.585063
58.115 7.383725
58.120 6.986335
58.125 6.977272
58.130 6.98096
58.135 7.387817
58.140 7.180636
58.145 7.118764
58.150 6.896919
58.155 6.663167
58.160 6.681295
58.165 6.770711
58.170 7.0323
58.175 6.977522
58.180 6.952777
58.185 6.906106
58.190 6.800683
58.195 6.848251
58.200 6.952012
58.205 6.807315
58.210 6.893505
58.215 6.871581
58.220 7.048605
58.225 7.039997
58.230 7.032994
58.235 7.20546
58.240 7.221104
58.245 7.303689
58.250 7.399083
58.255 7.439597
58.260 7.249848
58.265 7.225003
58.270 6.827573
58.275 6.647163
58.280 6.290567
58.285 6.204053
58.290 6.226448
58.295 6.089628
58.300 6.148358
58.305 6.476322
58.310 6.539761
58.315 7.088326
58.320 7.373369
58.325 7.639311
58.330 7.89817
58.335 7.931665
58.340 7.557039
58.345 7.367914
58.350 7.03748
58.355 6.880099
58.360 6.539394
58.365 6.370394
58.370 5.977572
58.375 5.713479
58.380 5.81781
58.385 5.746724
58.390 5.912528
58.395 6.023069
58.400 6.232249
58.405 6.663203
58.410 7.237031
58.415 7.499361
58.420 7.81715
58.425 7.60853
58.430 8.016329
58.435 7.713015
58.440 7.441236
58.445 7.287306
58.450 7.533116
58.455 7.659062
58.460 8.148275
58.465 7.979728
58.470 8.001272
58.475 7.951772
58.480 7.84053
58.485 7.433775
58.490 6.874299
58.495 6.489952
58.500 6.722652
58.505 7.05539
58.510 7.118099
58.515 7.044986
58.520 7.166125
58.525 7.588861
58.530 7.657355
58.535 7.980351
58.540 8.063635
58.545 8.356312
58.550 8.407295
58.555 8.19767
58.560 8.066169
58.565 7.953666
58.570 7.602699
58.575 7.849768
58.580 7.904937
58.585 7.693948
58.590 7.67323
58.595 7.511996
58.600 7.334774
58.605 7.503987
58.610 7.186605
58.615 7.207737
58.620 7.780434
58.625 8.298565
58.630 8.73295
58.635 8.801059
58.640 8.430016
58.645 8.070241
58.650 7.771585
58.655 7.579631
58.660 7.294209
58.665 7.025431
58.670 7.014899
58.675 7.406386
58.680 7.930514
58.685 7.927175
58.690 8.066078
58.695 7.896706
58.700 7.504398
58.705 7.425057
58.710 7.0562
58.715 7.003469
58.720 7.173594
58.725 6.879078
58.730 7.014663
58.735 7.680989
58.740 7.882065
58.745 8.16352
58.750 8.195195
58.755 8.350002
