!@!!GADDS PLOTSO FILE: Chi integration type
!@!!Title/SampleName: map-119
!@!!Comment: ?
!@!!User: Bruker Instrument Administrator
!@!!Site: University of Illinois Chicago
!@!!Frame: map-119_01_000.gfrm
!@!!Wavelengths    1.54184   1.54056   1.54439
!@!!Frame angles: 2Theta: 63.000 Omega: 50.000 Phi: 0.000 Chi: 90.000
!@!!Integration range: 2Theta: 53.000 to 73.000  Gamma: -105.000 to -75.000
!@!!Integration method: bin normalized
!@!N
!@!SS
!@!M
!@!L 0.0 0.0 0.0 0.0
!@!XDegrees
!@!YCounts
53.000 7.35458
53.005 7.460729
53.010 7.216366
53.015 7.255105
53.020 7.456962
53.025 7.84692
53.030 8.184262
53.035 7.894206
53.040 7.70019
53.045 7.953131
53.050 8.183973
53.055 7.930009
53.060 7.601706
53.065 7.643172
53.070 7.745254
53.075 7.579329
53.080 7.3505
53.085 7.231914
53.090 7.540515
53.095 7.423633
53.100 7.373192
53.105 7.744673
53.110 8.092621
53.115 7.811354
53.120 7.603083
53.125 7.433736
53.130 7.776783
53.135 7.901783
53.140 7.575184
53.145 7.617945
53.150 8.140448
53.155 7.852575
53.160 7.546312
53.165 7.027596
53.170 6.731725
53.175 6.82125
53.180 6.660595
53.185 6.386176
53.190 6.952782
53.195 7.25817
53.200 7.539
53.205 7.629439
53.210 7.619437
53.215 7.501688
53.220 7.655615
53.225 7.472131
53.230 7.605753
53.235 7.358998
53.240 7.272534
53.245 7.276423
53.250 7.290078
53.255 7.31754
53.260 7.701487
53.265 7.868745
53.270 8.069568
53.275 7.81249
53.280 7.424217
53.285 7.464736
53.290 7.20125
53.295 6.474188
53.300 6.645518
53.305 6.733974
53.310 7.044539
53.315 7.383039
53.320 7.575552
53.325 7.847545
53.330 7.911863
53.335 7.80723
53.340 7.850088
53.345 7.979533
53.350 7.907506
53.355 7.486364
53.360 7.576915
53.365 7.471643
53.370 7.458383
53.375 7.739221
53.380 8.049273
53.385 8.840579
53.390 9.56661
53.395 9.122381
53.400 9.229086
53.405 9.174488
53.410 8.982253
53.415 8.872217
53.420 8.383252
53.425 8.54381
53.430 8.598744
53.435 8.526608
53.440 8.574045
53.445 8.571054
53.450 8.443926
53.455 7.857723
53.460 7.715008
53.465 7.934416
53.470 8.078158
53.475 7.947681
53.480 7.637091
53.485 7.470574
53.490 7.994665
53.495 7.823015
53.500 7.864059
53.505 7.794502
53.510 7.884899
53.515 8.175946
53.520 8.357899
53.525 7.897607
53.530 8.265963
53.535 8.510856
53.540 8.59437
53.545 8.844844
53.550 8.724608
53.555 8.780653
53.560 8.976549
53.565 8.479393
53.570 8.043382
53.575 7.677735
53.580 7.876852
53.585 8.123951
53.590 8.211905
53.595 8.226495
53.600 8.463217
53.605 8.885909
53.610 9.250771
53.615 9.143323
53.620 8.958824
53.625 9.17575
53.630 9.555931
53.635 9.541288
53.640 9.499464
53.645 9.085065
53.650 8.771044
53.655 8.941841
53.660 8.732869
53.665 8.525637
53.670 8.124691
53.675 8.104694
53.680 8.240248
53.685 8.299872
53.690 8.037509
53.695 8.006841
53.700 8.29078
53.705 8.752949
53.710 8.812947
53.715 9.76649
53.720 9.802599
53.725 9.485632
53.730 9.558914
53.735 9.28607
53.740 8.843923
53.745 8.259284
53.750 7.444337
53.755 7.655809
53.760 7.954444
53.765 8.082712
53.770 8.160683
53.775 8.417964
53.780 8.745277
53.785 8.851087
53.790 8.595446
53.795 8.247801
53.800 8.262649
53.805 8.530931
53.810 8.506102
53.815 8.178438
53.820 8.286825
53.825 8.335887
53.830 8.68593
53.835 8.392183
53.840 8.234049
53.845 8.148803
53.850 8.24045
53.855 8.238859
53.860 8.416734
53.865 8.424731
53.870 8.761343
53.875 8.860674
53.880 8.866143
53.885 9.138141
53.890 9.342552
53.895 9.287049
53.900 8.92383
53.905 8.690693
53.910 8.670013
53.915 8.400463
53.920 8.316598
53.925 8.037299
53.930 7.765795
53.935 8.154511
53.940 8.629771
53.945 9.14572
53.950 9.462596
53.955 9.583724
53.960 9.786349
53.965 10.023788
53.970 9.710503
53.975 9.201918
53.980 8.905534
53.985 8.556185
53.990 8.48631
53.995 8.856253
54.000 8.862201
54.005 8.776946
54.010 8.898588
54.015 8.598031
54.020 8.587152
54.025 8.543337
54.030 8.406837
54.035 8.639992
54.040 9.016218
54.045 9.361546
54.050 9.6831
54.055 9.66482
54.060 9.026639
54.065 8.528597
54.070 8.242313
54.075 8.112439
54.080 8.426024
54.085 8.313109
54.090 8.500713
54.095 8.522209
54.100 8.407453
54.105 8.344285
54.110 8.189067
54.115 8.14689
54.120 7.936687
54.125 7.916961
54.130 7.884738
54.135 8.506371
54.140 8.767306
54.145 8.26761
54.150 8.240196
54.155 8.296764
54.160 8.647638
54.165 8.504195
54.170 8.198983
54.175 8.080098
54.180 8.383417
54.185 8.412875
54.190 8.562547
54.195 8.550693
54.200 8.919696
54.205 8.743555
54.210 8.897801
54.215 8.641304
54.220 8.85634
54.225 9.077399
54.230 9.114832
54.235 9.615271
54.240 9.424764
54.245 9.409886
54.250 9.635192
54.255 9.5242
54.260 9.380126
54.265 9.024219
54.270 8.853133
54.275 8.916948
54.280 9.071475
54.285 8.933992
54.290 8.488219
54.295 8.335059
54.300 8.358631
54.305 8.425844
54.310 8.328957
54.315 8.070273
54.320 8.400045
54.325 8.892703
54.330 9.168122
54.335 9.236839
54.340 9.027537
54.345 9.413606
54.350 9.767701
54.355 9.736938
54.360 9.641283
54.365 9.488858
54.370 9.527095
54.375 9.65273
54.380 9.84183
54.385 9.627296
54.390 9.405727
54.395 9.568644
54.400 9.446029
54.405 9.183121
54.410 9.002953
54.415 8.867811
54.420 8.849063
54.425 8.75378
54.430 8.413536
54.435 8.560394
54.440 8.803657
54.445 8.735614
54.450 8.261724
54.455 8.142494
54.460 8.325879
54.465 8.522481
54.470 8.203649
54.475 8.095339
54.480 8.139877
54.485 8.454491
54.490 8.550149
54.495 8.456615
54.500 8.427382
54.505 8.332982
54.510 8.023733
54.515 8.018155
54.520 8.044527
54.525 8.110066
54.530 8.226208
54.535 8.294173
54.540 8.728143
54.545 9.11573
54.550 9.254945
54.555 9.226182
54.560 9.553403
54.565 9.554102
54.570 9.487518
54.575 8.852212
54.580 8.167713
54.585 7.66085
54.590 7.391163
54.595 7.171556
54.600 7.337141
54.605 7.503794
54.610 7.994471
54.615 8.437241
54.620 8.954019
54.625 8.894097
54.630 8.807889
54.635 8.845757
54.640 8.813059
54.645 8.83242
54.650 8.578424
54.655 8.029018
54.660 7.862237
54.665 7.992374
54.670 7.635046
54.675 7.852684
54.680 7.643579
54.685 7.883207
54.690 8.472786
54.695 8.322608
54.700 8.156095
54.705 8.096998
54.710 7.635865
54.715 7.910016
54.720 7.617865
54.725 7.707214
54.730 8.256199
54.735 8.490713
54.740 8.816133
54.745 9.282701
54.750 9.502244
54.755 10.274355
54.760 10.062616
54.765 9.574186
54.770 9.80899
54.775 10.139939
54.780 10.008076
54.785 9.751143
54.790 9.671738
54.795 10.097694
54.800 10.405105
54.805 9.95669
54.810 9.454434
54.815 9.590638
54.820 9.289586
54.825 8.82123
54.830 8.548661
54.835 8.368673
54.840 8.237983
54.845 8.301621
54.850 9.043728
54.855 9.448992
54.860 9.118681
54.865 8.751489
54.870 8.688191
54.875 8.982474
54.880 9.076664
54.885 8.184755
54.890 8.203016
54.895 8.803176
54.900 9.017532
54.905 8.843455
54.910 8.627011
54.915 9.008541
54.920 9.061533
54.925 9.498678
54.930 10.145258
54.935 10.34619
54.940 10.783061
54.945 11.175382
54.950 11.24899
54.955 11.47112
54.960 11.172575
54.965 10.926789
54.970 10.993855
54.975 10.519737
54.980 10.290219
54.985 10.220014
54.990 9.758222
54.995 9.089607
55.000 8.427777
55.005 8.208022
55.010 8.321772
55.015 8.16417
55.020 8.076359
55.025 8.10896
55.030 8.542354
55.035 9.060453
55.040 9.041451
55.045 8.875729
55.050 9.013169
55.055 9.001049
55.060 8.924955
55.065 8.676349
55.070 8.844048
55.075 9.155866
55.080 9.476898
55.085 9.47796
55.090 9.712688
55.095 9.63699
55.100 9.594536
55.105 9.521079
55.110 9.339319
55.115 8.900755
55.120 8.658673
55.125 8.713783
55.130 8.903315
55.135 9.131543
55.140 9.281066
55.145 9.4788
55.150 9.960176
55.155 10.210621
55.160 10.396038
55.165 10.139193
55.170 9.641638
55.175 9.267838
55.180 9.125491
55.185 9.092314
55.190 8.417317
55.195 8.408229
55.200 8.274062
55.205 8.535239
55.210 9.100123
55.215 9.159279
55.220 9.081893
55.225 9.149971
55.230 8.999318
55.235 9.376822
55.240 9.318805
55.245 8.766796
55.250 8.486892
55.255 8.216764
55.260 8.44647
55.265 8.661445
55.270 8.648336
55.275 8.408305
55.280 8.766883
55.285 9.187821
55.290 9.202213
55.295 8.945127
55.300 8.821522
55.305 8.465437
55.310 8.308584
55.315 7.873225
55.320 7.717631
55.325 8.695065
55.330 8.935153
55.335 8.764591
55.340 8.868282
55.345 8.983294
55.350 8.972482
55.355 8.666343
55.360 7.897445
55.365 7.952332
55.370 8.093575
55.375 8.289075
55.380 8.630112
55.385 8.81668
55.390 9.117638
55.395 8.869357
55.400 8.864989
55.405 9.223421
55.410 8.885457
55.415 8.433412
55.420 8.492517
55.425 9.015359
55.430 9.384911
55.435 9.29477
55.440 8.919484
55.445 9.181977
55.450 9.789031
55.455 9.752127
55.460 8.62282
55.465 8.235371
55.470 8.271827
55.475 8.739489
55.480 8.809605
55.485 8.287865
55.490 8.43022
55.495 9.713596
55.500 9.999181
55.505 9.985511
55.510 9.583868
55.515 9.760803
55.520 9.720877
55.525 9.577477
55.530 9.112185
55.535 9.148659
55.540 9.072643
55.545 8.849871
55.550 8.830545
55.555 8.807995
55.560 8.485112
55.565 8.362882
55.570 8.124077
55.575 8.34556
55.580 8.922883
55.585 8.767237
55.590 9.131083
55.595 9.336579
55.600 9.745472
55.605 10.046953
55.610 10.233632
55.615 10.285912
55.620 10.157783
55.625 9.95021
55.630 9.452718
55.635 9.161922
55.640 8.85534
55.645 8.166577
55.650 7.850423
55.655 7.938568
55.660 7.967383
55.665 8.009434
55.670 7.850922
55.675 7.935163
55.680 8.044254
55.685 8.191849
55.690 8.622909
55.695 9.026768
55.700 9.335074
55.705 9.389855
55.710 9.397364
55.715 9.353883
55.720 8.903475
55.725 8.523324
55.730 8.736941
55.735 8.632065
55.740 8.597972
55.745 8.467647
55.750 8.742896
55.755 8.925775
55.760 8.920071
55.765 8.711217
55.770 8.621325
55.775 8.53452
55.780 8.586
55.785 8.84445
55.790 9.055313
55.795 8.860536
55.800 8.864241
55.805 9.129897
55.810 9.347922
55.815 9.271726
55.820 9.051755
55.825 9.056643
55.830 9.325562
55.835 9.151999
55.840 9.223803
55.845 9.158353
55.850 9.233631
55.855 9.137003
55.860 8.987752
55.865 9.116401
55.870 8.98771
55.875 8.980426
55.880 9.097942
55.885 9.054218
55.890 9.126642
55.895 9.168243
55.900 9.260438
55.905 9.340952
55.910 9.092868
55.915 8.794963
55.920 8.843871
55.925 8.71505
55.930 8.436856
55.935 8.210552
55.940 8.325905
55.945 8.752362
55.950 8.847758
55.955 8.82497
55.960 9.065195
55.965 9.293221
55.970 9.340235
55.975 8.853499
55.980 8.317106
55.985 8.588077
55.990 8.784867
55.995 8.868914
56.000 9.338447
56.005 9.567061
56.010 9.503402
56.015 9.625297
56.020 9.907657
56.025 10.081544
56.030 9.836939
56.035 9.355694
56.040 9.108306
56.045 9.132798
56.050 9.373328
56.055 9.822263
56.060 9.689775
56.065 9.541864
56.070 9.702671
56.075 10.377728
56.080 10.817402
56.085 10.605756
56.090 9.666169
56.095 9.741549
56.100 9.614819
56.105 9.485966
56.110 9.395716
56.115 8.985766
56.120 8.399575
56.125 8.168728
56.130 7.735455
56.135 7.703835
56.140 7.806586
56.145 8.095798
56.150 8.473475
56.155 8.965551
56.160 9.095081
56.165 9.397876
56.170 9.320324
56.175 8.85984
56.180 8.405316
56.185 8.434916
56.190 8.613637
56.195 8.784127
56.200 8.975459
56.205 9.388343
56.210 9.828063
56.215 10.219423
56.220 10.082525
56.225 10.342784
56.230 10.388968
56.235 10.181567
56.240 9.921547
56.245 10.109137
56.250 10.356474
56.255 10.365683
56.260 10.023293
56.265 9.904037
56.270 10.193858
56.275 9.859324
56.280 9.443247
56.285 9.239819
56.290 9.579249
56.295 9.958276
56.300 10.054029
56.305 10.335257
56.310 10.736122
56.315 10.919109
56.320 10.7967
56.325 10.127249
56.330 9.652991
56.335 9.69048
56.340 9.257966
56.345 9.082898
56.350 9.044799
56.355 9.451839
56.360 9.986585
56.365 9.842631
56.370 9.567353
56.375 9.524295
56.380 9.422449
56.385 9.32517
56.390 9.352283
56.395 9.595185
56.400 10.113075
56.405 10.356474
56.410 10.548413
56.415 10.358794
56.420 10.262107
56.425 9.929216
56.430 9.856
56.435 9.613415
56.440 9.516191
56.445 9.594604
56.450 9.738325
56.455 9.349769
56.460 9.238618
56.465 9.632007
56.470 9.891278
56.475 10.093372
56.480 10.13292
56.485 10.317121
56.490 10.798036
56.495 10.835032
56.500 10.143112
56.505 9.488405
56.510 9.63289
56.515 9.348029
56.520 9.65488
56.525 10.24297
56.530 10.346617
56.535 10.617203
56.540 10.891984
56.545 10.642474
56.550 11.062336
56.555 10.925758
56.560 10.323301
56.565 10.586418
56.570 10.866662
56.575 10.960844
56.580 10.903275
56.585 10.867937
56.590 10.776047
56.595 11.042799
56.600 10.951588
56.605 10.645068
56.610 10.04422
56.615 9.981261
56.620 9.611354
56.625 9.453822
56.630 9.590337
56.635 9.488065
56.640 9.899163
56.645 10.445867
56.650 10.689877
56.655 10.944616
56.660 11.349964
56.665 10.794776
56.670 10.44224
56.675 10.440034
56.680 10.38381
56.685 10.306183
56.690 10.13798
56.695 9.48909
56.700 9.735708
56.705 10.01789
56.710 9.83079
56.715 9.684937
56.720 9.739897
56.725 9.415304
56.730 9.440925
56.735 9.471019
56.740 9.51615
56.745 9.738121
56.750 9.904186
56.755 9.909873
56.760 10.264375
56.765 10.732544
56.770 10.83899
56.775 10.880897
56.780 10.78803
56.785 10.646836
56.790 10.339883
56.795 9.742021
56.800 9.238333
56.805 9.06938
56.810 8.575145
56.815 8.534933
56.820 8.542359
56.825 8.534465
56.830 8.348734
56.835 8.551872
56.840 8.336719
56.845 8.283769
56.850 8.034761
56.855 7.852302
56.860 8.192478
56.865 8.685422
56.870 8.282747
56.875 8.148414
56.880 8.393147
56.885 8.581064
56.890 9.015544
56.895 8.975677
56.900 8.658252
56.905 8.754074
56.910 9.026798
56.915 8.858259
56.920 9.121587
56.925 9.140632
56.930 9.044603
56.935 8.967034
56.940 9.528898
56.945 9.623622
56.950 9.823915
56.955 9.50015
56.960 9.334201
56.965 9.505354
56.970 9.321816
56.975 9.194228
56.980 8.90111
56.985 8.852332
56.990 8.886167
56.995 8.690077
57.000 8.786358
57.005 9.495906
57.010 9.411844
57.015 9.609143
57.020 9.439743
57.025 9.217838
57.030 9.19194
57.035 9.206717
57.040 8.740292
57.045 8.68721
57.050 8.493442
57.055 8.072806
57.060 8.060379
57.065 8.018199
57.070 7.852596
57.075 8.448936
57.080 8.457128
57.085 8.880444
57.090 9.195462
57.095 9.363579
57.100 9.422565
57.105 9.509946
57.110 9.137666
57.115 9.489692
57.120 9.644858
57.125 9.739635
57.130 9.931915
57.135 10.258343
57.140 10.051264
57.145 10.107235
57.150 10.06164
57.155 9.961657
57.160 9.757242
57.165 9.909026
57.170 9.9229
57.175 9.849682
57.180 9.742913
57.185 9.879346
57.190 9.779372
57.195 10.186089
57.200 9.869496
57.205 9.501098
57.210 9.64188
57.215 9.225022
57.220 9.050221
57.225 9.000857
57.230 8.637814
57.235 8.619045
57.240 8.415571
57.245 8.550226
57.250 8.975486
57.255 8.685502
57.260 8.805723
57.265 9.077582
57.270 8.962159
57.275 9.228018
57.280 9.416287
57.285 9.365617
57.290 9.402979
57.295 9.186917
57.300 9.176483
57.305 9.544389
57.310 9.47342
57.315 8.923038
57.320 8.685106
57.325 8.782508
57.330 8.929346
57.335 8.786955
57.340 8.435472
57.345 8.309503
57.350 8.40383
57.355 8.452453
57.360 8.53108
57.365 8.671477
57.370 9.022933
57.375 9.145458
57.380 9.349829
57.385 9.626508
57.390 9.866144
57.395 9.782713
57.400 9.447583
57.405 9.606721
57.410 10.099823
57.415 10.012178
57.420 10.01081
57.425 9.837796
57.430 9.74027
57.435 9.583939
57.440 9.227454
57.445 9.082299
57.450 8.903448
57.455 9.035518
57.460 9.303235
57.465 9.796653
57.470 9.613386
57.475 9.711183
57.480 9.799529
57.485 9.522348
57.490 8.975249
57.495 8.460268
57.500 8.173689
57.505 8.293086
57.510 8.070315
57.515 7.625223
57.520 7.749673
57.525 8.020225
57.530 8.179662
57.535 8.190819
57.540 8.361557
57.545 8.974752
57.550 9.784675
57.555 10.105393
57.560 10.127817
57.565 10.055071
57.570 10.288813
57.575 10.081
57.580 9.490583
57.585 8.784575
57.590 8.434138
57.595 8.134361
57.600 8.581313
57.605 8.774074
57.610 8.842336
57.615 8.85183
57.620 9.245568
57.625 9.467227
57.630 9.581789
57.635 8.747238
57.640 8.840285
57.645 8.915024
57.650 9.033839
57.655 9.160985
57.660 9.074325
57.665 8.886177
57.670 8.867438
57.675 8.537602
57.680 8.451993
57.685 8.113457
57.690 7.799905
57.695 8.138774
57.700 8.669824
57.705 8.99287
57.710 8.97204
57.715 9.172028
57.720 9.674544
57.725 9.733211
57.730 9.309638
57.735 9.124623
57.740 8.710352
57.745 8.396264
57.750 8.322591
57.755 8.055208
57.760 8.217585
57.765 8.384892
57.770 8.392607
57.775 8.893306
57.780 9.03937
57.785 8.829786
57.790 8.636418
57.795 8.294421
57.800 8.077581
57.805 7.847662
57.810 7.626467
57.815 7.88866
57.820 7.784512
57.825 7.914853
57.830 8.821763
57.835 9.138152
57.840 9.436149
57.845 9.645967
57.850 9.62047
57.855 9.793315
57.860 9.775297
57.865 9.330865
57.870 9.301997
57.875 9.219986
57.880 8.882841
57.885 8.705446
57.890 8.809673
57.895 8.96101
57.900 8.969771
57.905 8.848924
57.910 8.913444
57.915 8.999619
57.920 9.146488
57.925 9.064092
57.930 8.773211
57.935 8.915064
57.940 8.929412
57.945 8.965224
57.950 9.258213
57.955 9.586618
57.960 9.784019
57.965 9.925545
57.970 9.815744
57.975 10.034932
57.980 9.692182
57.985 9.735182
57.990 9.657289
57.995 9.717314
58.000 9.767535
58.005 9.756248
58.010 9.75681
58.015 10.108088
58.020 10.022155
58.025 9.784329
58.030 9.781357
58.035 10.023627
58.040 10.357653
58.045 10.372431
58.050 10.468576
58.055 10.619733
58.060 10.844807
58.065 10.627903
58.070 9.948983
58.075 9.598929
58.080 9.793531
58.085 9.671123
58.090 9.363699
58.095 9.034065
58.100 9.486294
58.105 10.06354
58.110 10.471459
58.115 10.021162
58.120 10.000793
58.125 10.116095
58.130 10.300381
58.135 9.828261
58.140 9.592434
58.145 9.632224
58.150 9.814107
58.155 9.584209
58.160 9.068813
58.165 8.906096
58.170 9.109514
58.175 9.075188
58.180 8.593689
58.185 8.300165
58.190 8.260563
58.195 8.798487
58.200 9.196305
58.205 9.322808
58.210 9.598139
58.215 9.318212
58.220 9.410654
58.225 9.839409
58.230 9.726897
58.235 9.366328
58.240 9.415444
58.245 9.517956
58.250 10.607792
58.255 10.836267
58.260 10.544778
58.265 10.569039
58.270 10.359586
58.275 9.965741
58.280 9.457788
58.285 8.664916
58.290 8.922598
58.295 9.134993
58.300 8.972737
58.305 9.145278
58.310 9.326403
58.315 9.467193
58.320 9.736856
58.325 9.440645
58.330 8.908586
58.335 8.768222
58.340 8.775798
58.345 8.795921
58.350 9.038278
58.355 9.863177
58.360 10.23105
58.365 10.425888
58.370 10.813479
58.375 10.89047
58.380 11.109108
58.385 10.928023
58.390 10.184677
58.395 10.162436
58.400 10.159758
58.405 10.392657
58.410 10.416227
58.415 10.117059
58.420 10.540585
58.425 10.703728
58.430 10.889177
58.435 11.502765
58.440 11.20983
58.445 11.234859
58.450 11.43162
58.455 11.334159
58.460 11.206103
58.465 10.865271
58.470 10.177922
58.475 10.132746
58.480 10.262335
58.485 10.028522
58.490 9.232743
58.495 9.028369
58.500 9.828227
58.505 10.317004
58.510 10.315963
58.515 10.358663
58.520 10.543399
58.525 11.254246
58.530 11.48728
58.535 11.161325
58.540 10.895646
58.545 11.043043
58.550 11.016069
58.555 11.461987
58.560 11.647629
58.565 11.78277
58.570 11.828929
58.575 12.09746
58.580 11.83436
58.585 11.734202
58.590 11.089984
58.595 10.764858
58.600 10.754547
58.605 10.130107
58.610 9.841991
58.615 10.133415
58.620 10.604517
58.625 10.977112
58.630 11.032075
58.635 10.399133
58.640 10.472367
58.645 10.483857
58.650 10.434566
58.655 9.703895
58.660 9.389782
58.665 9.684223
58.670 10.471175
58.675 10.419817
58.680 10.373029
58.685 10.288531
58.690 10.604109
58.695 10.360012
58.700 9.958021
58.705 10.032981
