!@!!GADDS PLOTSO FILE: Chi integration type
!@!!Title/SampleName: map-ae
!@!!Comment: ?
!@!!User: Bruker Instrument Administrator
!@!!Site: University of Illinois Chicago
!@!!Frame: map-ae_01_000.gfrm
!@!!Wavelengths    1.54184   1.54056   1.54439
!@!!Frame angles: 2Theta: 63.000 Omega: 50.000 Phi: 0.000 Chi: 90.000
!@!!Integration range: 2Theta: 53.000 to 73.000  Gamma: -105.000 to -75.000
!@!!Integration method: bin normalized
!@!N
!@!SS
!@!M
!@!L 0.0 0.0 0.0 0.0
!@!XDegrees
!@!YCounts
53.000 7.879485
53.005 8.30395
53.010 8.028057
53.015 7.014458
53.020 6.483405
53.025 6.194923
53.030 5.902856
53.035 5.958973
53.040 5.67974
53.045 6.055281
53.050 6.639822
53.055 6.813494
53.060 6.966025
53.065 7.107053
53.070 6.889662
53.075 6.900986
53.080 7.141803
53.085 6.789166
53.090 6.632452
53.095 6.737439
53.100 6.825395
53.105 7.273108
53.110 6.987243
53.115 6.744304
53.120 7.003672
53.125 7.042129
53.130 7.048606
53.135 7.247724
53.140 7.543474
53.145 8.191951
53.150 8.287148
53.155 8.89456
53.160 8.895002
53.165 8.675252
53.170 8.346172
53.175 7.968738
53.180 7.896124
53.185 7.303409
53.190 6.631679
53.195 6.628497
53.200 6.657525
53.205 6.954225
53.210 6.798427
53.215 6.233621
53.220 6.640279
53.225 7.145411
53.230 7.355277
53.235 7.350945
53.240 7.430133
53.245 7.724027
53.250 8.55312
53.255 9.025579
53.260 8.924642
53.265 9.137228
53.270 9.277113
53.275 9.153003
53.280 9.055012
53.285 8.65795
53.290 8.201203
53.295 8.23334
53.300 8.215259
53.305 7.97328
53.310 7.819005
53.315 7.938346
53.320 7.885018
53.325 8.202274
53.330 8.231815
53.335 8.225234
53.340 8.49956
53.345 8.688483
53.350 8.781834
53.355 8.96345
53.360 8.439184
53.365 8.657288
53.370 8.38302
53.375 7.958696
53.380 7.679205
53.385 7.478249
53.390 7.472535
53.395 7.42683
53.400 7.203853
53.405 7.351694
53.410 7.371876
53.415 7.183316
53.420 7.139835
53.425 7.208891
53.430 7.347027
53.435 7.782076
53.440 7.655271
53.445 7.877541
53.450 8.148565
53.455 8.299332
53.460 8.362568
53.465 8.512364
53.470 8.328673
53.475 8.796947
53.480 8.833709
53.485 8.539267
53.490 8.661176
53.495 8.630272
53.500 8.508594
53.505 8.585032
53.510 8.454518
53.515 8.601683
53.520 8.685806
53.525 8.424726
53.530 8.515487
53.535 8.238165
53.540 7.843381
53.545 7.692436
53.550 7.683004
53.555 7.572068
53.560 7.338923
53.565 6.935557
53.570 7.546307
53.575 7.934865
53.580 8.080998
53.585 8.320492
53.590 8.692511
53.595 9.039284
53.600 9.267223
53.605 9.092399
53.610 8.893533
53.615 8.69889
53.620 8.689198
53.625 9.215715
53.630 9.470718
53.635 9.643726
53.640 9.893686
53.645 9.825463
53.650 9.833982
53.655 9.944501
53.660 9.13288
53.665 8.612414
53.670 7.928267
53.675 7.900594
53.680 7.79173
53.685 7.390031
53.690 6.866246
53.695 7.046366
53.700 7.207417
53.705 7.18983
53.710 7.053402
53.715 7.370405
53.720 7.412329
53.725 7.264195
53.730 7.325473
53.735 7.492421
53.740 8.000372
53.745 8.003483
53.750 8.255749
53.755 8.787695
53.760 9.08008
53.765 9.221092
53.770 9.069399
53.775 8.597524
53.780 8.368053
53.785 7.954669
53.790 7.730269
53.795 7.991644
53.800 8.192004
53.805 8.265751
53.810 8.474873
53.815 8.808288
53.820 9.170819
53.825 9.785323
53.830 10.016109
53.835 9.8778
53.840 9.845183
53.845 9.833372
53.850 10.074722
53.855 9.892752
53.860 9.210267
53.865 8.706301
53.870 9.084592
53.875 9.70232
53.880 10.035938
53.885 10.127562
53.890 10.568639
53.895 11.053898
53.900 10.811073
53.905 10.534681
53.910 10.445725
53.915 10.054092
53.920 9.415698
53.925 8.470417
53.930 8.477778
53.935 8.739861
53.940 8.814668
53.945 8.74315
53.950 8.656233
53.955 9.233982
53.960 9.699706
53.965 9.812968
53.970 9.830111
53.975 9.47876
53.980 9.658327
53.985 9.690331
53.990 9.494727
53.995 9.303894
54.000 9.133584
54.005 8.940217
54.010 9.074172
54.015 8.913415
54.020 9.08132
54.025 9.097247
54.030 9.026472
54.035 8.939362
54.040 9.188295
54.045 8.938284
54.050 9.183424
54.055 9.343389
54.060 9.466184
54.065 9.044553
54.070 9.320135
54.075 9.493709
54.080 9.744522
54.085 9.480274
54.090 9.161463
54.095 9.552031
54.100 10.16496
54.105 10.493717
54.110 9.933102
54.115 9.333984
54.120 9.211665
54.125 9.199109
54.130 8.694486
54.135 8.203852
54.140 8.059415
54.145 8.210097
54.150 8.650245
54.155 8.916185
54.160 8.883911
54.165 9.220531
54.170 9.34762
54.175 9.382216
54.180 9.9007
54.185 9.861519
54.190 9.970864
54.195 10.214576
54.200 10.626637
54.205 10.618301
54.210 10.63214
54.215 9.995339
54.220 9.665747
54.225 9.75231
54.230 9.877156
54.235 9.261239
54.240 8.954984
54.245 9.546317
54.250 10.032254
54.255 9.92267
54.260 9.657953
54.265 9.340178
54.270 9.777818
54.275 9.774295
54.280 10.05066
54.285 9.953093
54.290 10.30395
54.295 10.358961
54.300 10.305215
54.305 10.494622
54.310 10.134336
54.315 9.98997
54.320 10.685063
54.325 10.415222
54.330 10.593864
54.335 10.8338
54.340 10.712441
54.345 10.054331
54.350 9.79846
54.355 9.498705
54.360 9.824028
54.365 10.112258
54.370 9.908724
54.375 10.141616
54.380 10.377831
54.385 10.107038
54.390 10.142644
54.395 10.010045
54.400 9.498122
54.405 9.403425
54.410 9.496404
54.415 9.867496
54.420 9.893783
54.425 9.938837
54.430 9.714361
54.435 9.489472
54.440 9.651476
54.445 9.990355
54.450 9.830968
54.455 9.523991
54.460 9.546972
54.465 9.67299
54.470 9.965692
54.475 9.773411
54.480 9.633269
54.485 9.830437
54.490 10.040757
54.495 10.189656
54.500 10.191479
54.505 10.238354
54.510 10.390832
54.515 10.796501
54.520 10.706612
54.525 10.788071
54.530 10.796907
54.535 10.922773
54.540 10.79515
54.545 10.263642
54.550 10.014006
54.555 10.240812
54.560 10.338349
54.565 9.969706
54.570 10.121334
54.575 10.011112
54.580 10.137856
54.585 10.072044
54.590 9.378876
54.595 8.893134
54.600 8.905611
54.605 8.815063
54.610 8.856968
54.615 8.998858
54.620 8.945502
54.625 9.187816
54.630 9.466104
54.635 9.5686
54.640 9.609316
54.645 9.471243
54.650 9.498136
54.655 10.010402
54.660 10.029987
54.665 10.287501
54.670 10.431072
54.675 10.329185
54.680 10.579039
54.685 10.514583
54.690 10.677978
54.695 10.793507
54.700 10.157779
54.705 10.165528
54.710 10.357782
54.715 10.376927
54.720 10.020347
54.725 9.645222
54.730 10.126999
54.735 10.566831
54.740 10.588528
54.745 10.539919
54.750 10.417552
54.755 10.21533
54.760 10.100324
54.765 9.738514
54.770 9.596175
54.775 9.335507
54.780 8.785705
54.785 8.990711
54.790 9.189897
54.795 9.422761
54.800 9.309234
54.805 9.750022
54.810 10.099976
54.815 10.553987
54.820 10.43256
54.825 10.546616
54.830 10.740336
54.835 11.18051
54.840 10.802952
54.845 10.78746
54.850 10.919076
54.855 10.915292
54.860 10.798365
54.865 10.341802
54.870 9.966998
54.875 10.127391
54.880 10.031885
54.885 10.074771
54.890 10.076237
54.895 9.918508
54.900 10.32093
54.905 10.404516
54.910 10.133421
54.915 9.863799
54.920 10.096435
54.925 10.295242
54.930 10.886719
54.935 10.790462
54.940 10.827016
54.945 11.250935
54.950 11.396317
54.955 10.802238
54.960 10.724294
54.965 10.303516
54.970 10.368505
54.975 10.477074
54.980 10.254801
54.985 10.484589
54.990 10.775819
54.995 11.077232
55.000 11.44283
55.005 11.810547
55.010 11.75264
55.015 11.587108
55.020 11.209377
55.025 11.002314
55.030 10.287717
55.035 10.115298
55.040 9.706321
55.045 9.908021
55.050 10.101948
55.055 10.616871
55.060 11.187
55.065 11.987194
55.070 11.930292
55.075 12.122195
55.080 11.949043
55.085 12.059487
55.090 11.942303
55.095 11.257651
55.100 10.933464
55.105 10.692979
55.110 10.571832
55.115 10.661527
55.120 10.512045
55.125 10.279854
55.130 10.516328
55.135 10.59743
55.140 10.71355
55.145 10.206395
55.150 9.994277
55.155 10.184484
55.160 10.82268
55.165 11.179379
55.170 11.265494
55.175 11.622063
55.180 12.203164
55.185 12.370475
55.190 12.107601
55.195 11.958977
55.200 11.622776
55.205 11.285911
55.210 10.882188
55.215 10.652372
55.220 10.989183
55.225 10.878188
55.230 10.901162
55.235 11.176637
55.240 10.974365
55.245 11.365856
55.250 11.626316
55.255 11.438827
55.260 11.078137
55.265 11.190404
55.270 11.144377
55.275 11.329814
55.280 10.9604
55.285 10.87414
55.290 11.046337
55.295 11.141788
55.300 10.84841
55.305 11.00452
55.310 11.44926
55.315 11.350159
55.320 10.834325
55.325 11.122596
55.330 11.239995
55.335 11.169979
55.340 10.674244
55.345 10.384064
55.350 10.839368
55.355 11.425817
55.360 11.32178
55.365 11.662287
55.370 11.658982
55.375 11.74929
55.380 12.487656
55.385 12.490808
55.390 12.222781
55.395 11.847505
55.400 11.457253
55.405 11.758652
55.410 12.187159
55.415 11.979661
55.420 11.934807
55.425 12.371676
55.430 12.419305
55.435 12.700688
55.440 12.673751
55.445 11.971501
55.450 11.689813
55.455 11.501264
55.460 11.511072
55.465 11.714513
55.470 11.637403
55.475 11.954616
55.480 12.32187
55.485 12.669837
55.490 12.77465
55.495 12.836343
55.500 13.209182
55.505 13.344289
55.510 12.878952
55.515 12.292252
55.520 11.830606
55.525 11.662827
55.530 10.912652
55.535 10.467556
55.540 10.032043
55.545 10.166599
55.550 10.348703
55.555 10.818464
55.560 10.871708
55.565 10.854595
55.570 11.131379
55.575 11.29887
55.580 11.428694
55.585 11.62805
55.590 11.49087
55.595 12.115121
55.600 11.564951
55.605 11.392288
55.610 11.585818
55.615 11.519936
55.620 11.363623
55.625 10.850755
55.630 10.301995
55.635 10.56985
55.640 10.515537
55.645 10.570613
55.650 11.027153
55.655 11.304492
55.660 11.30263
55.665 11.48555
55.670 11.857183
55.675 12.036586
55.680 11.806021
55.685 11.331607
55.690 11.31958
55.695 11.532844
55.700 11.333316
55.705 11.276707
55.710 11.184061
55.715 11.237638
55.720 11.165788
55.725 11.131402
55.730 11.270562
55.735 11.099893
55.740 11.012469
55.745 10.969365
55.750 10.785563
55.755 10.824396
55.760 10.973131
55.765 11.347298
55.770 11.653047
55.775 11.712877
55.780 11.448909
55.785 11.160055
55.790 11.332541
55.795 11.476954
55.800 10.983598
55.805 10.67459
55.810 10.579221
55.815 10.905402
55.820 11.328485
55.825 11.401366
55.830 11.405413
55.835 12.34406
55.840 13.180488
55.845 13.57709
55.850 13.769279
55.855 13.831885
55.860 13.506347
55.865 13.321493
55.870 12.589138
55.875 12.010294
55.880 12.115709
55.885 12.221862
55.890 12.032373
55.895 12.046786
55.900 11.764218
55.905 11.64839
55.910 11.102651
55.915 10.537667
55.920 10.421003
55.925 10.598077
55.930 10.991782
55.935 11.484877
55.940 11.92041
55.945 12.727708
55.950 12.965557
55.955 13.14725
55.960 12.828527
55.965 12.177591
55.970 11.905191
55.975 11.909894
55.980 11.669325
55.985 11.569391
55.990 11.586769
55.995 12.116196
56.000 12.394795
56.005 12.698323
56.010 12.412689
56.015 12.300567
56.020 11.950202
56.025 11.728582
56.030 11.384939
56.035 11.103786
56.040 10.108466
56.045 9.873786
56.050 9.782372
56.055 10.476593
56.060 10.735126
56.065 10.785213
56.070 10.956159
56.075 11.761246
56.080 12.385117
56.085 12.894611
56.090 12.822527
56.095 12.907088
56.100 12.849044
56.105 12.356397
56.110 12.461805
56.115 12.565617
56.120 12.16583
56.125 11.468445
56.130 11.093074
56.135 11.197991
56.140 11.652241
56.145 11.220554
56.150 10.828896
56.155 10.818132
56.160 11.079751
56.165 11.455544
56.170 11.723632
56.175 11.778642
56.180 12.148862
56.185 12.272091
56.190 12.700028
56.195 12.707821
56.200 12.379169
56.205 12.433049
56.210 12.168076
56.215 11.94446
56.220 12.130687
56.225 12.929266
56.230 13.198411
56.235 13.549517
56.240 13.517065
56.245 13.823558
56.250 14.211705
56.255 13.679625
56.260 12.559616
56.265 12.26907
56.270 11.744585
56.275 11.638071
56.280 11.131839
56.285 10.470102
56.290 10.771907
56.295 11.262667
56.300 11.267221
56.305 11.32564
56.310 11.574821
56.315 12.522678
56.320 13.192781
56.325 13.196601
56.330 13.169885
56.335 13.661003
56.340 14.228447
56.345 13.877303
56.350 13.548002
56.355 13.189811
56.360 12.806831
56.365 12.927646
56.370 12.585979
56.375 12.283145
56.380 12.22727
56.385 11.786224
56.390 11.756704
56.395 12.002263
56.400 12.151742
56.405 12.366282
56.410 12.661213
56.415 12.719567
56.420 13.112294
56.425 13.163172
56.430 13.342138
56.435 13.14478
56.440 12.615255
56.445 12.101008
56.450 12.244308
56.455 12.235162
56.460 12.371225
56.465 11.663446
56.470 11.049253
56.475 11.383441
56.480 11.630101
56.485 11.373272
56.490 11.277003
56.495 10.83363
56.500 11.474639
56.505 11.909831
56.510 11.79672
56.515 11.574269
56.520 11.930157
56.525 12.219511
56.530 12.129713
56.535 11.987484
56.540 11.800987
56.545 11.766638
56.550 12.038596
56.555 11.607501
56.560 11.868826
56.565 12.158619
56.570 12.474411
56.575 13.187356
56.580 13.352811
56.585 13.681496
56.590 13.923188
56.595 13.942257
56.600 14.553835
56.605 14.126524
56.610 13.692327
56.615 13.810976
56.620 13.842808
56.625 13.234427
56.630 12.470561
56.635 12.761112
56.640 13.189827
56.645 13.712942
56.650 13.689353
56.655 13.497125
56.660 13.931025
56.665 14.200397
56.670 14.267654
56.675 14.878337
56.680 14.653824
56.685 14.443369
56.690 14.724142
56.695 14.985007
56.700 14.585974
56.705 13.802973
56.710 12.810847
56.715 12.578639
56.720 12.718246
56.725 12.340167
56.730 12.337412
56.735 12.315108
56.740 12.542307
56.745 13.489819
56.750 13.972957
56.755 14.229534
56.760 14.569543
56.765 15.04661
56.770 15.004922
56.775 14.760703
56.780 14.126927
56.785 13.631085
56.790 13.463267
56.795 13.214552
56.800 12.763975
56.805 12.694014
56.810 12.643807
56.815 12.785105
56.820 12.721168
56.825 12.507991
56.830 12.541648
56.835 12.940805
56.840 13.419134
56.845 13.210526
56.850 12.977655
56.855 12.96529
56.860 12.854215
56.865 13.133719
56.870 13.747661
56.875 14.040125
56.880 14.064281
56.885 14.429171
56.890 15.022131
56.895 15.514975
56.900 14.574339
56.905 13.928802
56.910 13.464485
56.915 13.814191
56.920 13.684731
56.925 13.505804
56.930 13.755894
56.935 14.04482
56.940 13.759315
56.945 13.890425
56.950 13.667764
56.955 13.382896
56.960 12.980348
56.965 12.823359
56.970 13.076598
56.975 13.732106
56.980 14.394211
56.985 14.882099
56.990 15.325707
56.995 15.428768
57.000 15.553198
57.005 15.576593
57.010 15.052685
57.015 14.17368
57.020 13.691133
57.025 13.294401
57.030 13.265746
57.035 13.600151
57.040 13.405461
57.045 13.283553
57.050 13.622006
57.055 13.597334
57.060 13.777842
57.065 13.4067
57.070 12.65586
57.075 12.299458
57.080 12.759297
57.085 13.3297
57.090 13.591519
57.095 13.750435
57.100 14.153573
57.105 14.703226
57.110 14.601851
57.115 14.080143
57.120 13.259578
57.125 13.218426
57.130 13.407666
57.135 13.255035
57.140 13.63399
57.145 14.061376
57.150 15.015143
57.155 15.449895
57.160 14.850307
57.165 14.922729
57.170 15.183536
57.175 14.620994
57.180 14.00323
57.185 13.06115
57.190 13.618455
57.195 13.738937
57.200 12.913388
57.205 12.830599
57.210 12.838761
57.215 13.146076
57.220 13.466205
57.225 13.300851
57.230 13.927591
57.235 14.066364
57.240 14.226458
57.245 14.561732
57.250 14.408121
57.255 14.335947
57.260 14.559594
57.265 14.610403
57.270 14.61507
57.275 14.182254
57.280 13.849059
57.285 14.610232
57.290 14.302678
57.295 13.982163
57.300 13.675485
57.305 13.482099
57.310 14.264423
57.315 13.998919
57.320 13.553783
57.325 13.631783
57.330 13.863929
57.335 14.496306
57.340 14.549004
57.345 14.188554
57.350 14.330387
57.355 14.133654
57.360 13.977201
57.365 13.491698
57.370 13.257377
57.375 13.722169
57.380 13.916853
57.385 14.008075
57.390 14.240922
57.395 14.368142
57.400 14.527997
57.405 14.331374
57.410 13.864032
57.415 14.000759
57.420 14.601253
57.425 14.333755
57.430 14.063156
57.435 14.168987
57.440 14.250405
57.445 14.344448
57.450 14.395641
57.455 13.835902
57.460 14.434581
57.465 14.914168
57.470 14.870853
57.475 15.199513
57.480 15.094303
57.485 14.811049
57.490 15.225323
57.495 14.796043
57.500 14.73308
57.505 14.612617
57.510 14.158524
57.515 14.473686
57.520 14.281978
57.525 14.217668
57.530 14.310207
57.535 14.206794
57.540 14.690317
57.545 14.719755
57.550 14.549274
57.555 14.921668
57.560 14.469798
57.565 14.645947
57.570 14.877301
57.575 14.619248
57.580 14.856743
57.585 14.974639
57.590 14.506583
57.595 14.838972
57.600 14.489987
57.605 14.06496
57.610 14.425819
57.615 14.291734
57.620 14.343797
57.625 14.779511
57.630 15.009091
57.635 14.776666
57.640 14.526148
57.645 14.069517
57.650 14.326435
57.655 14.135608
57.660 13.916929
57.665 14.114087
57.670 14.550646
57.675 15.072518
57.680 15.221828
57.685 15.225559
57.690 15.487309
57.695 15.040022
57.700 14.762501
57.705 14.64313
57.710 14.022488
57.715 13.758058
57.720 13.517555
57.725 13.001899
57.730 12.972878
57.735 12.658424
57.740 12.690524
57.745 13.108143
57.750 13.589528
57.755 13.555874
57.760 13.945125
57.765 14.318707
57.770 14.481544
57.775 14.827818
57.780 14.69277
57.785 14.483924
57.790 14.641618
57.795 14.482538
57.800 14.746345
57.805 15.46404
57.810 15.622293
57.815 15.765703
57.820 15.898584
57.825 15.561743
57.830 15.638149
57.835 15.827386
57.840 15.682752
57.845 15.3352
57.850 15.166324
57.855 14.900687
57.860 15.119833
57.865 14.958258
57.870 14.28856
57.875 13.8307
57.880 14.081256
57.885 13.848373
57.890 13.963833
57.895 14.261374
57.900 14.606601
57.905 14.717817
57.910 14.604534
57.915 14.322753
57.920 14.859785
57.925 15.147352
57.930 15.209016
57.935 15.290647
57.940 15.458329
57.945 15.571056
57.950 15.658772
57.955 15.206095
57.960 15.028511
57.965 14.979346
57.970 15.095005
57.975 15.133859
57.980 15.442863
57.985 15.745097
57.990 15.647611
57.995 15.249549
58.000 15.34563
58.005 15.564817
58.010 15.564595
58.015 15.083015
58.020 14.851772
58.025 15.598584
58.030 15.852035
58.035 15.585215
58.040 15.511583
58.045 15.416823
58.050 15.908299
58.055 16.367243
58.060 15.941684
58.065 15.524781
58.070 15.513434
58.075 15.867796
58.080 15.913851
58.085 15.562529
58.090 15.368229
58.095 15.798083
58.100 16.541723
58.105 17.07461
58.110 16.20989
58.115 16.535221
58.120 17.094784
58.125 17.003414
58.130 16.775866
58.135 16.733519
58.140 16.667456
58.145 17.267849
58.150 16.837999
58.155 16.67732
58.160 16.752375
58.165 16.696211
58.170 16.462614
58.175 16.262611
58.180 15.794532
58.185 15.62746
58.190 14.918049
58.195 14.78637
58.200 15.11147
58.205 15.464437
58.210 16.203167
58.215 16.772703
58.220 17.32259
58.225 18.19997
58.230 18.822178
58.235 18.441326
58.240 17.975422
58.245 17.531487
58.250 17.72497
58.255 17.599491
58.260 17.377239
58.265 17.163351
58.270 17.183329
58.275 17.059299
58.280 17.585705
58.285 17.209438
58.290 16.688391
58.295 16.478037
58.300 16.398081
58.305 17.094913
58.310 17.383333
58.315 17.063194
58.320 17.110432
58.325 17.162788
58.330 16.946884
58.335 17.040756
58.340 16.9786
58.345 16.982206
58.350 17.325991
58.355 17.666552
58.360 17.927654
58.365 18.208477
58.370 17.851881
58.375 17.547791
58.380 17.324909
58.385 17.243402
58.390 17.656422
58.395 18.068583
58.400 18.224236
58.405 18.273088
58.410 18.120295
58.415 18.159451
58.420 18.458815
58.425 18.327278
58.430 18.621227
58.435 18.976831
58.440 19.249077
58.445 19.660475
58.450 19.598532
58.455 18.886311
58.460 18.699444
58.465 18.669994
58.470 18.221579
58.475 18.4191
58.480 18.579197
58.485 19.266737
58.490 19.357809
58.495 19.262516
58.500 19.415913
58.505 19.831944
58.510 20.1719
58.515 20.524893
58.520 20.483633
58.525 21.153957
