!@!!GADDS PLOTSO FILE: Chi integration type
!@!!Title/SampleName: map-d1
!@!!Comment: ?
!@!!User: Bruker Instrument Administrator
!@!!Site: University of Illinois Chicago
!@!!Frame: map-d1_01_000.gfrm
!@!!Wavelengths    1.54184   1.54056   1.54439
!@!!Frame angles: 2Theta: 63.000 Omega: 50.000 Phi: 0.000 Chi: 90.000
!@!!Integration range: 2Theta: 53.000 to 73.000  Gamma: -105.000 to -75.000
!@!!Integration method: bin normalized
!@!N
!@!SS
!@!M
!@!L 0.0 0.0 0.0 0.0
!@!XDegrees
!@!YCounts
53.000 9.68591
53.005 9.384828
53.010 9.450212
53.015 9.859553
53.020 9.844481
53.025 9.395978
53.030 8.8968
53.035 9.063498
53.040 9.271301
53.045 9.37327
53.050 8.897706
53.055 8.431221
53.060 8.389384
53.065 8.552012
53.070 8.335679
53.075 8.329305
53.080 8.28057
53.085 8.723964
53.090 9.610185
53.095 10.119445
53.100 10.294442
53.105 10.64524
53.110 11.044345
53.115 10.461606
53.120 10.028613
53.125 10.134718
53.130 10.167152
53.135 10.178534
53.140 10.007682
53.145 9.904827
53.150 10.59234
53.155 10.534225
53.160 10.319807
53.165 10.424613
53.170 10.223629
53.175 10.48895
53.180 10.188806
53.185 10.256284
53.190 9.978263
53.195 9.842059
53.200 10.117746
53.205 10.360335
53.210 10.360361
53.215 10.492982
53.220 10.42367
53.225 10.736141
53.230 10.634737
53.235 10.54453
53.240 10.342949
53.245 10.434811
53.250 10.768719
53.255 10.85937
53.260 10.463082
53.265 10.175243
53.270 10.134529
53.275 10.422544
53.280 10.268757
53.285 10.490535
53.290 10.442591
53.295 10.191699
53.300 10.057445
53.305 9.561668
53.310 9.518215
53.315 9.32641
53.320 8.855115
53.325 9.116893
53.330 9.840865
53.335 10.628949
53.340 10.720184
53.345 10.608792
53.350 10.924135
53.355 11.604626
53.360 11.535065
53.365 10.946181
53.370 10.33825
53.375 10.652535
53.380 10.843777
53.385 10.8268
53.390 10.602163
53.395 10.662681
53.400 10.798932
53.405 10.856498
53.410 10.529746
53.415 10.089682
53.420 9.749532
53.425 9.600268
53.430 9.524382
53.435 9.912994
53.440 10.059147
53.445 10.472173
53.450 10.68679
53.455 10.653331
53.460 10.409565
53.465 10.141767
53.470 9.91961
53.475 9.978982
53.480 9.834105
53.485 9.621402
53.490 9.693955
53.495 10.121563
53.500 10.654696
53.505 10.204638
53.510 10.022577
53.515 10.277619
53.520 10.923071
53.525 11.187097
53.530 11.208102
53.535 10.895029
53.540 11.084124
53.545 10.868849
53.550 10.842267
53.555 10.506384
53.560 10.34041
53.565 10.071264
53.570 10.567379
53.575 10.873562
53.580 11.221337
53.585 11.537984
53.590 11.584267
53.595 11.667498
53.600 11.994705
53.605 12.22589
53.610 11.91357
53.615 11.557442
53.620 11.268896
53.625 10.832087
53.630 10.12751
53.635 9.44598
53.640 9.524897
53.645 10.229141
53.650 10.437125
53.655 10.152692
53.660 10.457671
53.665 11.130221
53.670 11.224273
53.675 10.607604
53.680 10.187802
53.685 10.477341
53.690 10.999236
53.695 10.721357
53.700 10.884804
53.705 11.210887
53.710 11.408651
53.715 10.796492
53.720 10.325976
53.725 10.319055
53.730 10.280769
53.735 9.974371
53.740 9.965918
53.745 10.026142
53.750 10.63306
53.755 10.781846
53.760 11.117699
53.765 11.025541
53.770 10.984861
53.775 11.052359
53.780 11.429184
53.785 11.637312
53.790 11.728388
53.795 11.83236
53.800 12.393897
53.805 12.348921
53.810 12.350601
53.815 12.411733
53.820 12.201026
53.825 11.831629
53.830 11.730805
53.835 11.351431
53.840 11.010372
53.845 10.471151
53.850 10.31728
53.855 10.512589
53.860 10.894929
53.865 11.137399
53.870 11.549093
53.875 11.81984
53.880 12.046945
53.885 11.707747
53.890 11.330456
53.895 10.745925
53.900 10.47077
53.905 10.367894
53.910 9.992361
53.915 9.972948
53.920 10.57032
53.925 10.732918
53.930 10.839702
53.935 11.327067
53.940 11.802438
53.945 11.832561
53.950 11.299026
53.955 10.508248
53.960 10.608515
53.965 10.544312
53.970 10.136813
53.975 9.787865
53.980 9.920839
53.985 10.305195
53.990 10.434791
53.995 10.64793
54.000 10.807926
54.005 11.264218
54.010 11.477602
54.015 11.257437
54.020 11.515458
54.025 11.709846
54.030 11.517477
54.035 11.116047
54.040 10.821839
54.045 11.388884
54.050 11.855518
54.055 11.696228
54.060 11.686188
54.065 11.22232
54.070 11.381104
54.075 11.27859
54.080 10.822707
54.085 11.075511
54.090 11.094222
54.095 10.893139
54.100 11.348678
54.105 11.371989
54.110 11.434099
54.115 11.228017
54.120 10.888863
54.125 11.124114
54.130 11.418511
54.135 11.336062
54.140 10.959626
54.145 10.88478
54.150 11.07914
54.155 10.897992
54.160 10.900504
54.165 11.220882
54.170 11.396797
54.175 11.267847
54.180 11.136195
54.185 10.755074
54.190 11.05636
54.195 10.854618
54.200 10.78239
54.205 10.74131
54.210 10.838723
54.215 10.908655
54.220 11.022041
54.225 11.389853
54.230 11.560979
54.235 11.059683
54.240 11.373977
54.245 11.364303
54.250 11.838316
54.255 12.030722
54.260 11.832455
54.265 11.666013
54.270 11.29045
54.275 10.956214
54.280 11.393812
54.285 11.143678
54.290 11.286335
54.295 11.694262
54.300 12.338945
54.305 13.212687
54.310 13.507188
54.315 13.545348
54.320 13.272439
54.325 12.985067
54.330 12.705107
54.335 12.49488
54.340 12.270719
54.345 11.745245
54.350 11.59919
54.355 12.046766
54.360 11.710268
54.365 11.938616
54.370 12.050025
54.375 12.144362
54.380 12.433963
54.385 12.622827
54.390 12.542074
54.395 12.725471
54.400 12.421779
54.405 12.443739
54.410 12.540849
54.415 12.06811
54.420 11.598843
54.425 11.292823
54.430 10.929751
54.435 10.564791
54.440 10.414353
54.445 10.259953
54.450 10.681771
54.455 10.715877
54.460 10.676458
54.465 10.767811
54.470 10.828185
54.475 10.70062
54.480 10.856041
54.485 10.128407
54.490 9.963428
54.495 9.733056
54.500 10.005907
54.505 10.101277
54.510 10.22602
54.515 10.378795
54.520 11.011751
54.525 11.472215
54.530 11.944395
54.535 12.249377
54.540 12.293106
54.545 11.891802
54.550 11.776768
54.555 11.808224
54.560 11.945738
54.565 11.859236
54.570 11.246156
54.575 11.638762
54.580 12.281215
54.585 12.307408
54.590 11.917359
54.595 11.360649
54.600 11.233607
54.605 11.812553
54.610 11.39616
54.615 10.665235
54.620 10.948249
54.625 11.241364
54.630 11.103759
54.635 10.748962
54.640 9.971474
54.645 10.31815
54.650 10.451503
54.655 10.074704
54.660 10.316085
54.665 10.651258
54.670 10.753181
54.675 10.661725
54.680 11.007373
54.685 11.447537
54.690 11.696717
54.695 11.428102
54.700 11.286382
54.705 11.531174
54.710 11.627012
54.715 11.304318
54.720 11.19418
54.725 11.041411
54.730 11.259728
54.735 11.206826
54.740 11.229819
54.745 11.5594
54.750 11.461872
54.755 11.845144
54.760 11.640895
54.765 11.863389
54.770 12.038404
54.775 11.917754
54.780 11.711062
54.785 11.971972
54.790 12.374755
54.795 12.35754
54.800 12.092898
54.805 12.132102
54.810 11.974659
54.815 11.772031
54.820 11.25141
54.825 10.989902
54.830 11.045091
54.835 11.199205
54.840 11.274757
54.845 11.597579
54.850 11.982254
54.855 12.033537
54.860 11.712276
54.865 11.900841
54.870 11.445467
54.875 11.511438
54.880 11.923225
54.885 12.10406
54.890 12.509054
54.895 12.68304
54.900 13.110079
54.905 13.789241
54.910 13.810122
54.915 13.661192
54.920 13.322599
54.925 12.814294
54.930 12.302184
54.935 11.991474
54.940 11.4826
54.945 11.359076
54.950 10.983961
54.955 11.445498
54.960 11.961726
54.965 12.127599
54.970 12.041045
54.975 12.05102
54.980 12.196712
54.985 12.389268
54.990 12.091364
54.995 11.793207
55.000 11.475652
55.005 11.894521
55.010 12.281747
55.015 12.088651
55.020 12.040625
55.025 12.16575
55.030 12.39944
55.035 12.736622
55.040 12.093825
55.045 12.287862
55.050 12.868797
55.055 12.527609
55.060 12.183527
55.065 12.061811
55.070 12.192012
55.075 12.06825
55.080 11.577416
55.085 11.06167
55.090 10.92163
55.095 11.579503
55.100 12.042562
55.105 12.254149
55.110 12.538316
55.115 12.76511
55.120 12.701093
55.125 12.956327
55.130 12.779326
55.135 12.736878
55.140 12.685448
55.145 12.614738
55.150 12.453094
55.155 12.6058
55.160 12.685822
55.165 12.307213
55.170 11.603294
55.175 11.255155
55.180 11.546585
55.185 12.154904
55.190 12.04295
55.195 11.273306
55.200 11.380419
55.205 11.894025
55.210 12.12161
55.215 11.739211
55.220 11.139461
55.225 10.732727
55.230 11.073393
55.235 10.68505
55.240 10.502283
55.245 10.286313
55.250 10.391998
55.255 10.786458
55.260 10.935899
55.265 11.088721
55.270 11.596783
55.275 11.672344
55.280 11.934134
55.285 11.64873
55.290 11.990562
55.295 12.215521
55.300 12.359136
55.305 12.071945
55.310 11.997771
55.315 11.848543
55.320 12.148753
55.325 12.557746
55.330 12.816861
55.335 13.114501
55.340 13.698823
55.345 14.114929
55.350 13.978044
55.355 13.801896
55.360 13.879079
55.365 13.332922
55.370 12.524968
55.375 12.285177
55.380 12.310932
55.385 12.950118
55.390 12.58259
55.395 12.216476
55.400 12.694481
55.405 13.219405
55.410 13.058467
55.415 12.767771
55.420 12.689718
55.425 12.753867
55.430 12.776658
55.435 13.005256
55.440 12.649658
55.445 12.381971
55.450 12.195642
55.455 12.018946
55.460 12.259029
55.465 12.415034
55.470 12.133017
55.475 12.511411
55.480 12.667852
55.485 12.649112
55.490 12.899008
55.495 12.570574
55.500 12.560448
55.505 12.506195
55.510 12.479897
55.515 12.915709
55.520 13.163337
55.525 13.366241
55.530 13.681114
55.535 13.771624
55.540 13.500862
55.545 13.091315
55.550 12.953035
55.555 13.254398
55.560 13.136034
55.565 12.933153
55.570 12.867958
55.575 13.049358
55.580 13.353759
55.585 13.308078
55.590 13.278082
55.595 13.38569
55.600 13.273247
55.605 13.102937
55.610 12.785113
55.615 12.5917
55.620 12.471151
55.625 12.388638
55.630 12.490751
55.635 12.698356
55.640 12.808748
55.645 12.99763
55.650 13.446965
55.655 13.233189
55.660 12.717894
55.665 12.539953
55.670 12.133687
55.675 12.054866
55.680 12.308878
55.685 12.167613
55.690 12.410286
55.695 12.390754
55.700 12.398178
55.705 12.865737
55.710 13.264743
55.715 13.198182
55.720 13.300185
55.725 13.297832
55.730 13.746327
55.735 13.603046
55.740 13.699744
55.745 14.006931
55.750 13.972145
55.755 13.874387
55.760 13.758741
55.765 13.672917
55.770 13.49616
55.775 13.65584
55.780 13.794648
55.785 13.383187
55.790 12.686785
55.795 12.43162
55.800 12.204538
55.805 12.201105
55.810 11.773187
55.815 12.016128
55.820 13.267763
55.825 14.009409
55.830 14.216827
55.835 14.658858
55.840 14.948634
55.845 14.756252
55.850 14.115664
55.855 13.532771
55.860 13.625923
55.865 13.20689
55.870 13.172371
55.875 13.150105
55.880 13.119473
55.885 13.002641
55.890 12.685822
55.895 12.841108
55.900 12.894018
55.905 12.095329
55.910 11.742929
55.915 11.805762
55.920 12.045604
55.925 11.827562
55.930 11.923038
55.935 12.386535
55.940 13.529967
55.945 14.112597
55.950 14.024293
55.955 13.893971
55.960 13.876873
55.965 13.621191
55.970 13.415574
55.975 12.50567
55.980 12.458779
55.985 12.721793
55.990 12.887936
55.995 13.442005
56.000 13.389167
56.005 13.467337
56.010 13.634212
56.015 13.267303
56.020 13.602454
56.025 13.571565
56.030 13.145267
56.035 13.420919
56.040 13.530306
56.045 14.077576
56.050 13.780252
56.055 13.499092
56.060 13.523982
56.065 13.564464
56.070 13.397856
56.075 13.320783
56.080 13.351101
56.085 13.526048
56.090 13.640327
56.095 13.754673
56.100 13.866071
56.105 14.010427
56.110 14.382703
56.115 14.044436
56.120 13.862514
56.125 13.606638
56.130 13.347919
56.135 13.232636
56.140 13.546538
56.145 12.777566
56.150 12.605278
56.155 12.482909
56.160 12.351887
56.165 12.521552
56.170 12.681765
56.175 12.512796
56.180 12.268312
56.185 12.475247
56.190 12.927661
56.195 13.029089
56.200 13.138007
56.205 13.148835
56.210 13.468145
56.215 14.1146
56.220 14.121255
56.225 13.834953
56.230 13.794667
56.235 13.897051
56.240 14.074663
56.245 14.395683
56.250 14.26298
56.255 14.146619
56.260 14.289548
56.265 13.860223
56.270 13.570436
56.275 13.362765
56.280 12.931652
56.285 13.007161
56.290 13.309638
56.295 13.405979
56.300 13.637636
56.305 13.691276
56.310 13.437352
56.315 13.266488
56.320 13.509667
56.325 13.702532
56.330 14.448023
56.335 15.210783
56.340 15.241408
56.345 15.567015
56.350 15.438154
56.355 15.309785
56.360 15.466782
56.365 15.11599
56.370 14.525845
56.375 13.99556
56.380 13.702205
56.385 14.234745
56.390 13.610915
56.395 12.964585
56.400 12.576406
56.405 12.446338
56.410 12.399315
56.415 12.059994
56.420 11.360723
56.425 11.49832
56.430 11.996565
56.435 12.184312
56.440 12.548843
56.445 12.91731
56.450 13.292836
56.455 14.139277
56.460 14.587695
56.465 14.03836
56.470 13.736157
56.475 13.598492
56.480 13.425128
56.485 13.499034
56.490 13.620876
56.495 13.311279
56.500 13.329218
56.505 13.715834
56.510 13.910052
56.515 13.853848
56.520 13.321547
56.525 12.369672
56.530 12.283134
56.535 12.672713
56.540 12.937237
56.545 12.771408
56.550 12.756495
56.555 13.341301
56.560 14.507875
56.565 14.682903
56.570 14.592759
56.575 14.231473
56.580 14.675189
56.585 14.913561
56.590 14.325171
56.595 13.742287
56.600 13.90294
56.605 13.883039
56.610 13.507317
56.615 13.313298
56.620 13.363401
56.625 13.30391
56.630 13.301393
56.635 13.281926
56.640 13.306656
56.645 13.367512
56.650 13.226596
56.655 13.466403
56.660 13.596102
56.665 13.657666
56.670 13.642896
56.675 13.762137
56.680 14.018706
56.685 14.293151
56.690 14.492005
56.695 15.157661
56.700 15.404991
56.705 15.550055
56.710 15.779466
56.715 16.193102
56.720 16.35022
56.725 16.136326
56.730 15.535912
56.735 15.377587
56.740 15.194622
56.745 14.513715
56.750 13.794208
56.755 13.765679
56.760 14.168935
56.765 14.116598
56.770 14.327089
56.775 13.84673
56.780 14.122856
56.785 14.247134
56.790 14.212386
56.795 14.064412
56.800 14.234256
56.805 14.725829
56.810 15.614326
56.815 15.813463
56.820 15.45304
56.825 15.401969
56.830 15.208136
56.835 14.470592
56.840 13.263593
56.845 12.796581
56.850 12.652343
56.855 13.089251
56.860 12.880331
56.865 13.243756
56.870 14.131209
56.875 14.346934
56.880 14.513026
56.885 14.561931
56.890 14.513433
56.895 14.558357
56.900 14.377497
56.905 14.041132
56.910 13.905163
56.915 13.607983
56.920 13.903274
56.925 14.02934
56.930 13.851762
56.935 13.329404
56.940 13.038424
56.945 13.519219
56.950 13.559311
56.955 12.726177
56.960 12.661274
56.965 12.571536
56.970 12.836527
56.975 13.481402
56.980 13.212477
56.985 13.657416
56.990 14.281785
56.995 14.399454
57.000 15.022745
57.005 14.883465
57.010 14.191571
57.015 14.162573
57.020 13.604253
57.025 13.169277
57.030 13.209372
57.035 13.204406
57.040 13.164919
57.045 13.585494
57.050 13.536077
57.055 13.862486
57.060 13.584973
57.065 13.236624
57.070 13.377817
57.075 14.034856
57.080 13.964462
57.085 14.061971
57.090 14.059957
57.095 14.822514
57.100 15.380313
57.105 15.024685
57.110 15.083857
57.115 15.512594
57.120 15.413717
57.125 15.741127
57.130 15.383063
57.135 15.558304
57.140 16.262348
57.145 16.33795
57.150 16.298536
57.155 16.533627
57.160 16.957708
57.165 16.930292
57.170 16.269264
57.175 15.652887
57.180 14.67219
57.185 14.421447
57.190 14.052026
57.195 13.428837
57.200 13.305019
57.205 13.715773
57.210 13.921517
57.215 14.503862
57.220 15.064024
57.225 15.069965
57.230 15.040979
57.235 15.509062
57.240 15.251867
57.245 14.96355
57.250 14.317373
57.255 13.927899
57.260 14.136563
57.265 14.05677
57.270 13.765694
57.275 13.995983
57.280 14.665588
57.285 15.512067
57.290 16.028311
57.295 16.1429
57.300 16.511816
57.305 16.615803
57.310 16.014469
57.315 15.914771
57.320 15.743153
57.325 15.398876
57.330 14.94379
57.335 14.169308
57.340 14.089741
57.345 14.143895
57.350 13.592512
57.355 13.280114
57.360 13.566835
57.365 13.603742
57.370 14.479722
57.375 14.460972
57.380 15.371593
57.385 15.606279
57.390 15.875417
57.395 15.822019
57.400 15.869467
57.405 15.305154
57.410 14.839996
57.415 13.912425
57.420 13.844471
57.425 13.865675
57.430 13.996144
57.435 14.62853
57.440 14.748866
57.445 15.108289
57.450 15.603574
57.455 15.014061
57.460 14.666347
57.465 14.616188
57.470 14.472974
57.475 14.416191
57.480 14.747477
57.485 14.536019
57.490 15.333512
57.495 14.939425
57.500 14.453095
57.505 14.038131
57.510 13.880554
57.515 14.083384
57.520 14.153214
57.525 14.261853
57.530 14.211993
57.535 14.156986
57.540 14.214849
57.545 14.605776
57.550 14.308129
57.555 14.14633
57.560 14.061853
57.565 14.339106
57.570 14.683025
57.575 15.294472
57.580 15.450025
57.585 15.207368
57.590 15.517853
57.595 15.753034
57.600 16.375792
57.605 16.337168
57.610 15.864985
57.615 15.473061
57.620 15.458288
57.625 15.391778
57.630 15.098248
57.635 14.528467
57.640 14.246273
57.645 14.248746
57.650 14.117042
57.655 13.91491
57.660 13.171373
57.665 12.982731
57.670 13.281246
57.675 13.938492
57.680 14.193519
57.685 14.275174
57.690 14.467842
57.695 15.031736
57.700 15.557947
57.705 15.51434
57.710 14.943409
57.715 14.629798
57.720 14.601395
57.725 14.764006
57.730 14.763936
57.735 14.068853
57.740 13.715656
57.745 13.885013
57.750 14.204123
57.755 14.515916
57.760 14.387058
57.765 15.043468
57.770 15.36999
57.775 15.337653
57.780 15.121194
57.785 15.47801
57.790 15.586659
57.795 15.662638
57.800 15.366164
57.805 15.437247
57.810 15.482893
57.815 15.156775
57.820 14.936417
57.825 14.670212
57.830 14.68917
57.835 14.493434
57.840 14.34547
57.845 14.565015
57.850 14.644534
57.855 14.18513
57.860 14.312356
57.865 14.711293
57.870 15.185137
57.875 15.501235
57.880 15.893305
57.885 16.426785
57.890 17.144121
57.895 17.167147
57.900 16.366463
57.905 15.717888
57.910 15.370562
57.915 14.968491
57.920 14.816566
57.925 14.530989
57.930 14.800873
57.935 15.315264
57.940 15.522767
57.945 15.645562
57.950 16.032442
57.955 16.139837
57.960 15.823891
57.965 15.262774
57.970 14.754936
57.975 14.590078
57.980 14.493207
57.985 13.914539
57.990 13.413631
57.995 13.715013
58.000 14.27914
58.005 14.776902
58.010 15.53616
58.015 15.8371
58.020 16.095247
58.025 16.66921
58.030 16.846376
58.035 16.903084
58.040 16.619459
58.045 16.616745
58.050 16.521961
58.055 16.36665
58.060 16.044586
58.065 15.659247
58.070 15.646873
58.075 15.273823
58.080 14.795604
58.085 15.16598
58.090 15.28903
58.095 15.356196
58.100 15.585133
58.105 15.519308
58.110 15.217551
58.115 14.949151
58.120 14.595297
58.125 14.802866
58.130 14.742833
58.135 14.620492
58.140 14.431323
58.145 14.489523
58.150 14.608529
58.155 15.075172
58.160 15.09521
58.165 15.563112
58.170 15.830195
58.175 16.233601
58.180 16.661612
58.185 16.941015
58.190 17.114866
58.195 16.775728
58.200 16.39991
58.205 16.042519
58.210 15.784505
58.215 15.889567
58.220 15.934307
58.225 15.11992
58.230 15.033096
58.235 14.630871
58.240 14.683681
58.245 14.764458
58.250 14.654546
58.255 14.933784
58.260 15.402727
58.265 15.708317
58.270 16.232384
58.275 16.636599
58.280 16.931585
58.285 16.908384
58.290 16.691763
58.295 16.708462
58.300 16.929676
58.305 16.865911
58.310 16.472916
58.315 16.108593
58.320 15.644406
58.325 15.35914
58.330 15.215837
58.335 14.817725
58.340 14.808802
58.345 14.746811
58.350 15.147103
58.355 15.468595
58.360 16.215282
58.365 15.961579
58.370 15.737156
58.375 15.673944
58.380 15.705279
58.385 15.493673
58.390 15.467164
58.395 14.84369
58.400 15.253531
58.405 15.120722
58.410 15.176636
58.415 15.754643
58.420 16.132223
58.425 16.039597
58.430 16.11762
58.435 16.165268
58.440 16.750597
58.445 16.469374
58.450 16.057409
58.455 15.714755
