!@!!GADDS PLOTSO FILE: Chi integration type
!@!!Title/SampleName: map-124
!@!!Comment: ?
!@!!User: Bruker Instrument Administrator
!@!!Site: University of Illinois Chicago
!@!!Frame: map-124_01_000.gfrm
!@!!Wavelengths    1.54184   1.54056   1.54439
!@!!Frame angles: 2Theta: 63.000 Omega: 50.000 Phi: 0.000 Chi: 90.000
!@!!Integration range: 2Theta: 53.000 to 73.000  Gamma: -105.000 to -75.000
!@!!Integration method: bin normalized
!@!N
!@!SS
!@!M
!@!L 0.0 0.0 0.0 0.0
!@!XDegrees
!@!YCounts
53.000 4.221321
53.005 3.960157
53.010 3.712863
53.015 3.438214
53.020 3.646099
53.025 3.656667
53.030 4.013536
53.035 4.537572
53.040 4.649442
53.045 4.627612
53.050 4.850583
53.055 4.707434
53.060 4.839311
53.065 4.801735
53.070 4.604883
53.075 4.746274
53.080 4.93211
53.085 4.791263
53.090 4.704369
53.095 4.522754
53.100 4.5509
53.105 4.461644
53.110 4.258698
53.115 4.062882
53.120 4.365782
53.125 4.567575
53.130 4.523548
53.135 4.572799
53.140 4.947273
53.145 5.462974
53.150 5.59481
53.155 5.481584
53.160 5.40272
53.165 5.010501
53.170 4.92205
53.175 4.852169
53.180 4.34454
53.185 4.313242
53.190 4.551472
53.195 4.782244
53.200 4.930243
53.205 4.825798
53.210 4.721254
53.215 5.127604
53.220 5.170179
53.225 5.085608
53.230 5.268359
53.235 5.579517
53.240 5.761071
53.245 5.755092
53.250 5.358549
53.255 5.173825
53.260 4.941253
53.265 4.552791
53.270 4.356565
53.275 4.434659
53.280 4.458173
53.285 4.48204
53.290 4.535203
53.295 4.743449
53.300 4.930805
53.305 4.819691
53.310 4.581326
53.315 4.491713
53.320 4.461811
53.325 4.453454
53.330 4.535289
53.335 4.539059
53.340 4.561606
53.345 4.502851
53.350 4.597211
53.355 4.67616
53.360 4.839729
53.365 4.95386
53.370 5.020319
53.375 5.319839
53.380 5.343091
53.385 4.980545
53.390 4.835232
53.395 4.748496
53.400 4.87149
53.405 4.606542
53.410 4.239913
53.415 4.089087
53.420 4.080589
53.425 3.951614
53.430 3.651332
53.435 3.353585
53.440 3.492237
53.445 3.872177
53.450 4.168398
53.455 4.49705
53.460 4.739002
53.465 4.871707
53.470 5.112304
53.475 4.944865
53.480 4.665202
53.485 4.751103
53.490 4.907275
53.495 5.074321
53.500 5.134724
53.505 5.209102
53.510 5.438179
53.515 5.589615
53.520 5.641326
53.525 5.329447
53.530 5.373568
53.535 5.260057
53.540 5.314255
53.545 5.202864
53.550 5.032398
53.555 5.198533
53.560 5.277814
53.565 5.249379
53.570 5.332511
53.575 5.114376
53.580 5.33688
53.585 5.360079
53.590 5.31246
53.595 5.27859
53.600 5.227839
53.605 5.057079
53.610 5.239053
53.615 5.242408
53.620 5.109477
53.625 4.908313
53.630 4.526228
53.635 4.367226
53.640 4.315726
53.645 4.001862
53.650 3.676851
53.655 3.599335
53.660 3.7422
53.665 3.780931
53.670 4.062696
53.675 4.3197
53.680 4.510034
53.685 4.617188
53.690 4.510418
53.695 4.13965
53.700 4.241624
53.705 3.849729
53.710 3.895166
53.715 4.066111
53.720 4.076244
53.725 4.360038
53.730 4.458186
53.735 4.536415
53.740 4.698679
53.745 4.433069
53.750 4.400872
53.755 4.589352
53.760 4.722635
53.765 4.744285
53.770 4.856087
53.775 5.026926
53.780 5.142598
53.785 4.880172
53.790 4.897631
53.795 4.957975
53.800 5.133714
53.805 5.001282
53.810 4.767904
53.815 4.828296
53.820 4.898251
53.825 4.798479
53.830 4.776889
53.835 4.857154
53.840 4.886054
53.845 4.908681
53.850 5.029347
53.855 4.995939
53.860 4.654927
53.865 4.801418
53.870 4.715881
53.875 4.740733
53.880 4.809761
53.885 5.018087
53.890 5.315838
53.895 5.766009
53.900 5.589591
53.905 5.900803
53.910 6.049118
53.915 5.765084
53.920 5.494025
53.925 5.36035
53.930 5.098786
53.935 5.24913
53.940 4.822591
53.945 4.747789
53.950 4.738845
53.955 4.63458
53.960 4.626159
53.965 4.678302
53.970 4.636457
53.975 4.552244
53.980 4.539721
53.985 4.818246
53.990 4.915042
53.995 4.533193
54.000 4.214018
54.005 4.517876
54.010 4.862411
54.015 4.841583
54.020 4.939314
54.025 4.875388
54.030 4.913037
54.035 4.869601
54.040 4.330732
54.045 4.275148
54.050 4.290803
54.055 4.340853
54.060 4.621025
54.065 4.665878
54.070 4.665198
54.075 4.783578
54.080 5.039653
54.085 5.365946
54.090 5.559489
54.095 5.461182
54.100 5.33065
54.105 5.402514
54.110 5.336359
54.115 5.062869
54.120 4.522268
54.125 4.361054
54.130 4.373203
54.135 4.676473
54.140 4.79274
54.145 5.039059
54.150 5.195743
54.155 5.580827
54.160 5.662374
54.165 6.144506
54.170 6.428776
54.175 6.320488
54.180 5.775238
54.185 5.602774
54.190 5.328431
54.195 5.481938
54.200 5.104359
54.205 5.089567
54.210 5.58265
54.215 5.887092
54.220 5.968643
54.225 5.83035
54.230 5.602479
54.235 5.65063
54.240 5.251846
54.245 4.822426
54.250 4.745862
54.255 4.811641
54.260 4.873242
54.265 4.853539
54.270 4.591046
54.275 5.021235
54.280 5.07806
54.285 4.886442
54.290 4.800601
54.295 4.9953
54.300 5.395448
54.305 5.393092
54.310 5.350749
54.315 5.493258
54.320 5.693056
54.325 5.36966
54.330 5.004957
54.335 4.805264
54.340 4.688057
54.345 4.705959
54.350 4.788269
54.355 4.837357
54.360 5.114714
54.365 5.227962
54.370 5.433953
54.375 5.643559
54.380 5.490932
54.385 5.573417
54.390 5.7217
54.395 5.725695
54.400 5.616718
54.405 5.223726
54.410 5.162921
54.415 5.365107
54.420 5.064113
54.425 4.789509
54.430 4.827997
54.435 4.974825
54.440 4.874156
54.445 4.880524
54.450 4.958934
54.455 5.014009
54.460 5.352286
54.465 5.25649
54.470 5.097431
54.475 5.01864
54.480 4.814558
54.485 4.37945
54.490 4.207594
54.495 4.220912
54.500 4.304536
54.505 4.416736
54.510 4.435174
54.515 4.533434
54.520 4.807852
54.525 4.745803
54.530 4.533238
54.535 4.362859
54.540 4.605019
54.545 4.963504
54.550 5.155469
54.555 5.409585
54.560 5.482531
54.565 5.568929
54.570 5.691552
54.575 5.469379
54.580 5.216244
54.585 5.348304
54.590 5.460589
54.595 5.479672
54.600 5.527795
54.605 5.554925
54.610 5.593107
54.615 5.43028
54.620 5.045358
54.625 5.05546
54.630 5.086949
54.635 5.305459
54.640 5.278463
54.645 5.313011
54.650 5.185182
54.655 4.99247
54.660 4.931571
54.665 4.72483
54.670 4.363215
54.675 4.275058
54.680 4.325221
54.685 4.438152
54.690 4.562995
54.695 4.263378
54.700 4.370907
54.705 4.716521
54.710 5.002625
54.715 5.012662
54.720 4.88663
54.725 4.745261
54.730 4.874151
54.735 4.72494
54.740 4.522656
54.745 4.617628
54.750 4.537811
54.755 4.791749
54.760 5.052797
54.765 4.919374
54.770 4.947377
54.775 4.870229
54.780 4.641109
54.785 4.82808
54.790 4.658391
54.795 4.615201
54.800 4.618941
54.805 4.722353
54.810 4.588022
54.815 4.976944
54.820 4.917455
54.825 5.121975
54.830 5.55513
54.835 6.157938
54.840 6.273789
54.845 6.475339
54.850 6.234651
54.855 6.173537
54.860 5.860762
54.865 5.173951
54.870 4.697301
54.875 4.631352
54.880 4.348446
54.885 4.258745
54.890 4.059185
54.895 4.070892
54.900 4.163839
54.905 4.227318
54.910 4.300467
54.915 4.705941
54.920 4.999122
54.925 5.056051
54.930 5.337831
54.935 5.449947
54.940 5.565454
54.945 5.446975
54.950 5.350646
54.955 5.273666
54.960 5.409555
54.965 5.369802
54.970 5.5552
54.975 5.505213
54.980 5.53233
54.985 5.348391
54.990 5.203
54.995 5.284266
55.000 5.598596
55.005 5.923333
55.010 5.997478
55.015 5.800527
55.020 6.054655
55.025 6.018262
55.030 5.690033
55.035 5.083535
55.040 4.699096
55.045 4.510873
55.050 4.546495
55.055 4.75463
55.060 4.815139
55.065 5.079281
55.070 5.208393
55.075 5.404989
55.080 5.420061
55.085 5.115524
55.090 5.067509
55.095 5.450106
55.100 5.284641
55.105 5.035324
55.110 4.987312
55.115 5.353705
55.120 5.642878
55.125 5.538452
55.130 5.319622
55.135 5.300054
55.140 5.311345
55.145 5.184232
55.150 5.03763
55.155 4.835521
55.160 4.595515
55.165 4.585845
55.170 5.083424
55.175 5.6209
55.180 5.736787
55.185 5.920205
55.190 5.922273
55.195 6.207129
55.200 6.406518
55.205 6.050164
55.210 5.897649
55.215 6.057688
55.220 6.095429
55.225 6.193954
55.230 6.081558
55.235 5.81206
55.240 5.896233
55.245 5.887544
55.250 5.288141
55.255 5.081154
55.260 4.891985
55.265 4.992254
55.270 4.934556
55.275 4.706289
55.280 4.652352
55.285 4.915878
55.290 5.028044
55.295 4.917058
55.300 4.677786
55.305 4.661482
55.310 4.559937
55.315 4.579296
55.320 4.503302
55.325 4.839769
55.330 5.089998
55.335 5.319652
55.340 5.505123
55.345 5.686529
55.350 5.902024
55.355 6.146328
55.360 5.821681
55.365 5.921468
55.370 6.10116
55.375 6.299595
55.380 6.232342
55.385 6.157523
55.390 5.839296
55.395 5.938528
55.400 5.788076
55.405 5.510947
55.410 5.188846
55.415 5.333843
55.420 5.152832
55.425 5.338718
55.430 5.074598
55.435 4.844082
55.440 4.795347
55.445 5.023603
55.450 4.991588
55.455 5.093672
55.460 5.406499
55.465 5.308685
55.470 5.26032
55.475 5.279227
55.480 5.228085
55.485 5.197456
55.490 5.159173
55.495 5.084671
55.500 5.254646
55.505 5.67706
55.510 5.434044
55.515 5.246153
55.520 5.15631
55.525 4.952013
55.530 4.903369
55.535 5.189463
55.540 4.89078
55.545 4.88303
55.550 4.965417
55.555 5.309839
55.560 5.62382
55.565 5.759511
55.570 5.598413
55.575 5.681268
55.580 5.648655
55.585 5.619261
55.590 5.194611
55.595 5.02971
55.600 4.915189
55.605 4.699979
55.610 4.719341
55.615 4.853193
55.620 4.910432
55.625 4.965964
55.630 4.981764
55.635 4.839683
55.640 5.086452
55.645 5.079943
55.650 5.113554
55.655 5.24868
55.660 5.559799
55.665 5.594302
55.670 5.552916
55.675 5.468861
55.680 5.619697
55.685 5.524089
55.690 5.199859
55.695 4.984023
55.700 4.835602
55.705 5.044303
55.710 5.346632
55.715 5.441203
55.720 5.789585
55.725 5.715308
55.730 5.709259
55.735 5.953706
55.740 5.859073
55.745 5.586507
55.750 5.27704
55.755 5.170577
55.760 5.652109
55.765 6.036844
55.770 6.308626
55.775 6.076099
55.780 6.232202
55.785 6.456126
55.790 6.363564
55.795 6.307525
55.800 6.083202
55.805 5.791029
55.810 6.149037
55.815 6.19523
55.820 6.117087
55.825 6.032256
55.830 5.711635
55.835 5.626482
55.840 5.598481
55.845 5.537334
55.850 5.736394
55.855 5.418309
55.860 5.284272
55.865 5.307021
55.870 5.582768
55.875 5.516048
55.880 5.363394
55.885 5.120982
55.890 5.55215
55.895 5.764455
55.900 5.818914
55.905 5.567026
55.910 6.265588
55.915 6.747326
55.920 6.726477
55.925 6.444505
55.930 6.241208
55.935 6.219064
55.940 6.270833
55.945 6.07579
55.950 6.161118
55.955 6.299736
55.960 6.515898
55.965 6.738268
55.970 7.14849
55.975 7.279622
55.980 6.892241
55.985 6.397705
55.990 6.190363
55.995 6.221025
56.000 6.281751
56.005 5.943323
56.010 5.697562
56.015 5.570332
56.020 5.620404
56.025 5.696844
56.030 5.641841
56.035 5.512013
56.040 5.883457
56.045 5.947421
56.050 5.948501
56.055 5.896543
56.060 6.024187
56.065 6.22843
56.070 5.990926
56.075 5.725399
56.080 5.80879
56.085 6.42713
56.090 6.559881
56.095 6.434484
56.100 5.99832
56.105 5.979079
56.110 6.062613
56.115 6.004134
56.120 5.13213
56.125 5.240805
56.130 5.517975
56.135 5.764917
56.140 5.461867
56.145 5.062675
56.150 4.901272
56.155 5.304286
56.160 4.949444
56.165 4.875757
56.170 5.036814
56.175 5.401583
56.180 5.29983
56.185 5.524344
56.190 5.605965
56.195 5.435568
56.200 5.187136
56.205 5.204869
56.210 5.152525
56.215 5.099513
56.220 5.112157
56.225 5.073607
56.230 5.538163
56.235 5.933312
56.240 6.142064
56.245 6.634613
56.250 6.947317
56.255 7.003767
56.260 7.131517
56.265 6.842784
56.270 6.681828
56.275 6.18455
56.280 5.939931
56.285 5.900513
56.290 5.955523
56.295 5.8152
56.300 5.951079
56.305 5.557693
56.310 5.827682
56.315 5.818884
56.320 5.60233
56.325 5.478286
56.330 5.724686
56.335 5.577308
56.340 5.681883
56.345 5.665488
56.350 5.957768
56.355 5.775818
56.360 5.534688
56.365 5.44207
56.370 5.465196
56.375 5.707506
56.380 5.691298
56.385 5.554228
56.390 5.485062
56.395 5.603373
56.400 5.767733
56.405 5.965895
56.410 5.749222
56.415 5.490372
56.420 5.610796
56.425 5.844369
56.430 6.017457
56.435 5.922305
56.440 5.733949
56.445 5.850266
56.450 5.813191
56.455 5.828202
56.460 5.907558
56.465 5.701544
56.470 5.749032
56.475 5.890186
56.480 5.93424
56.485 5.763247
56.490 6.025248
56.495 6.165326
56.500 6.442744
56.505 6.674282
56.510 6.653172
56.515 6.864522
56.520 7.005939
56.525 6.465739
56.530 5.981747
56.535 5.638571
56.540 5.604946
56.545 5.63947
56.550 5.588764
56.555 5.742188
56.560 5.788921
56.565 6.358325
56.570 6.25926
56.575 6.14128
56.580 6.193003
56.585 6.210415
56.590 6.288607
56.595 6.513535
56.600 6.394722
56.605 6.802094
56.610 6.757475
56.615 6.73343
56.620 6.491362
56.625 6.361973
56.630 6.266653
56.635 6.335393
56.640 6.531672
56.645 6.480393
56.650 6.51364
56.655 6.520802
56.660 6.589484
56.665 6.701909
56.670 6.250822
56.675 5.653156
56.680 5.671391
56.685 5.797166
56.690 5.765179
56.695 5.45211
56.700 5.636984
56.705 5.905412
56.710 6.090429
56.715 5.861532
56.720 5.81317
56.725 5.996695
56.730 6.173722
56.735 6.044584
56.740 5.953804
56.745 5.926197
56.750 5.714479
56.755 5.928297
56.760 6.036969
56.765 5.933989
56.770 5.972888
56.775 6.082372
56.780 6.18412
56.785 6.380486
56.790 6.163892
56.795 5.966659
56.800 5.979575
56.805 6.115993
56.810 6.059201
56.815 5.850356
56.820 5.785901
56.825 6.101921
56.830 6.324919
56.835 6.295309
56.840 5.918864
56.845 6.279183
56.850 6.630086
56.855 6.693598
56.860 6.429912
56.865 6.25498
56.870 6.350635
56.875 6.516497
56.880 6.328417
56.885 6.220418
56.890 6.056893
56.895 5.975664
56.900 5.955602
56.905 5.956766
56.910 5.789771
56.915 5.79781
56.920 5.823992
56.925 5.917078
56.930 5.813992
56.935 6.033891
56.940 6.11573
56.945 6.047773
56.950 6.053503
56.955 6.284579
56.960 6.393823
56.965 6.439715
56.970 6.304367
56.975 6.124208
56.980 6.099931
56.985 5.78837
56.990 5.458121
56.995 5.146208
57.000 4.940802
57.005 5.173249
57.010 5.519925
57.015 5.716121
57.020 5.845763
57.025 6.25888
57.030 6.665641
57.035 6.688358
57.040 6.469314
57.045 6.247431
57.050 5.967464
57.055 5.989945
57.060 5.769381
57.065 5.643856
57.070 5.95384
57.075 6.330083
57.080 6.795696
57.085 7.11118
57.090 7.298076
57.095 7.331706
57.100 7.489744
57.105 6.962348
57.110 6.479502
57.115 6.356374
57.120 6.382351
57.125 6.239545
57.130 6.04972
57.135 6.188667
57.140 6.404043
57.145 6.418737
57.150 6.120978
57.155 5.894774
57.160 6.109207
57.165 6.531642
57.170 6.475023
57.175 6.300343
57.180 6.231523
57.185 6.293017
57.190 6.265514
57.195 5.970815
57.200 5.848914
57.205 6.093169
57.210 6.366125
57.215 6.389304
57.220 6.47124
57.225 6.350624
57.230 6.134719
57.235 5.875339
57.240 5.461422
57.245 6.130702
57.250 6.148957
57.255 6.355487
57.260 6.833295
57.265 7.031447
57.270 7.051458
57.275 7.467199
57.280 7.36258
57.285 7.296046
57.290 7.005156
57.295 6.68201
57.300 7.124243
57.305 7.343131
57.310 6.612513
57.315 6.297549
57.320 6.2978
57.325 6.327543
57.330 6.263236
57.335 5.865089
57.340 5.88389
57.345 6.160089
57.350 6.122908
57.355 6.239984
57.360 6.221102
57.365 6.670784
57.370 7.06702
57.375 7.367832
57.380 7.27364
57.385 7.458477
57.390 7.526054
57.395 7.748719
57.400 7.213982
57.405 6.802457
57.410 6.766561
57.415 6.872478
57.420 6.684581
57.425 6.445907
57.430 6.128229
57.435 6.219849
57.440 6.27054
57.445 6.16832
57.450 6.202543
57.455 6.104654
57.460 6.012408
57.465 6.297915
57.470 6.445509
57.475 6.335164
57.480 6.623932
57.485 6.710161
57.490 7.033717
57.495 7.39423
57.500 7.279495
57.505 7.154342
57.510 6.963238
57.515 6.386311
57.520 5.995964
57.525 5.72858
57.530 5.667401
57.535 5.840759
57.540 6.038367
57.545 6.010202
57.550 6.152377
57.555 6.576866
57.560 6.789693
57.565 6.856003
57.570 6.821771
57.575 6.710078
57.580 6.998355
57.585 7.116428
57.590 7.070282
57.595 6.966843
57.600 6.812472
57.605 6.308637
57.610 6.053837
57.615 5.994006
57.620 6.12821
57.625 6.000682
57.630 6.343631
57.635 6.298838
57.640 6.499673
57.645 6.604677
57.650 6.48275
57.655 6.209121
57.660 6.127301
57.665 5.863005
57.670 5.895048
57.675 6.184271
57.680 6.207428
57.685 6.251716
57.690 6.715315
57.695 7.134271
57.700 7.189664
57.705 7.131365
57.710 7.07486
57.715 7.179193
57.720 7.360035
57.725 6.940924
57.730 7.172605
57.735 7.100743
57.740 7.343244
57.745 7.149263
57.750 7.120328
57.755 6.833131
57.760 6.65802
57.765 6.571969
57.770 6.765687
57.775 6.930096
57.780 7.149448
57.785 7.480338
57.790 7.624243
57.795 7.577296
57.800 7.661382
57.805 7.701759
57.810 7.456182
57.815 7.298323
57.820 6.933961
57.825 7.028551
57.830 7.029657
57.835 6.565081
57.840 6.318102
57.845 6.363359
57.850 6.741276
57.855 7.050086
57.860 6.915078
57.865 6.973218
57.870 7.188795
57.875 7.203347
57.880 6.917712
57.885 6.327823
57.890 6.079896
57.895 5.876838
57.900 5.929417
57.905 5.906106
57.910 6.235862
57.915 6.33954
57.920 6.322226
57.925 6.590697
57.930 6.849556
57.935 6.640115
57.940 6.762269
57.945 6.815297
57.950 7.243197
57.955 7.540006
57.960 7.271433
57.965 7.128974
57.970 6.858409
57.975 6.487745
57.980 6.246871
57.985 6.112173
57.990 6.040046
57.995 6.327064
58.000 6.240517
58.005 6.249557
58.010 6.06614
58.015 6.091383
58.020 6.03977
58.025 5.722991
58.030 5.69234
58.035 6.019788
58.040 6.50667
58.045 6.658066
58.050 6.671941
58.055 6.717354
58.060 6.992403
58.065 7.136214
58.070 6.862461
58.075 6.602593
58.080 6.380902
58.085 6.573173
58.090 6.955029
58.095 7.358551
58.100 7.246548
58.105 7.055522
58.110 7.261703
58.115 7.845189
58.120 7.888042
58.125 7.735486
58.130 7.42279
58.135 7.344407
58.140 7.303731
58.145 6.934958
58.150 6.523913
58.155 6.132789
58.160 6.056576
58.165 6.155968
58.170 6.46388
58.175 6.704399
58.180 6.698679
58.185 6.641865
58.190 6.40868
58.195 6.045392
58.200 6.032758
58.205 5.914929
58.210 6.14229
58.215 6.298878
58.220 6.457042
58.225 6.525601
58.230 6.487623
58.235 6.487469
58.240 6.837961
58.245 6.922611
58.250 6.940147
58.255 7.075533
58.260 7.494068
58.265 7.887141
58.270 8.369965
58.275 8.321689
58.280 8.643966
58.285 9.044922
58.290 9.125213
58.295 9.382782
58.300 9.218436
58.305 8.525366
58.310 8.503707
58.315 8.370831
58.320 8.044374
58.325 7.835444
58.330 7.296684
58.335 7.235137
58.340 7.329947
58.345 7.317575
58.350 7.35092
58.355 7.729114
58.360 7.893935
58.365 8.24887
58.370 8.247854
58.375 8.337951
58.380 8.116828
58.385 7.900679
58.390 7.790911
58.395 7.662466
58.400 7.689855
58.405 7.609476
58.410 7.729056
58.415 7.891184
58.420 8.358721
58.425 8.305803
58.430 8.48348
58.435 8.525137
58.440 8.604616
58.445 8.516714
58.450 8.393282
58.455 7.827057
58.460 8.166177
58.465 8.310802
58.470 8.417326
58.475 8.716868
58.480 9.119419
58.485 9.609112
58.490 9.862034
58.495 10.15268
58.500 10.219728
58.505 10.108717
58.510 10.132147
58.515 10.122505
58.520 9.904552
58.525 9.668983
58.530 9.222135
58.535 9.17813
58.540 9.519696
58.545 9.546333
58.550 9.54742
58.555 10.176558
58.560 10.576124
58.565 10.866639
58.570 11.512245
58.575 11.762367
58.580 11.736204
58.585 11.813901
58.590 11.124965
58.595 10.934088
58.600 10.874029
58.605 10.332129
58.610 10.319595
58.615 10.504791
58.620 10.840882
58.625 10.945688
58.630 10.715622
58.635 10.299422
58.640 10.548467
58.645 10.005592
58.650 9.829353
58.655 9.709737
58.660 10.626587
58.665 11.27838
58.670 11.509012
58.675 11.679732
58.680 11.918651
58.685 11.797963
58.690 11.813203
58.695 11.775181
58.700 11.966982
58.705 11.939828
58.710 11.679137
58.715 11.829517
58.720 11.916
58.725 12.030221
58.730 11.837425
58.735 11.493634
58.740 11.640079
58.745 11.693978
58.750 11.559137
