!@!!GADDS PLOTSO FILE: Chi integration type
!@!!Title/SampleName: map-e8
!@!!Comment: ?
!@!!User: Bruker Instrument Administrator
!@!!Site: University of Illinois Chicago
!@!!Frame: map-e8_01_000.gfrm
!@!!Wavelengths    1.54184   1.54056   1.54439
!@!!Frame angles: 2Theta: 63.000 Omega: 50.000 Phi: 0.000 Chi: 90.000
!@!!Integration range: 2Theta: 53.000 to 73.000  Gamma: -105.000 to -75.000
!@!!Integration method: bin normalized
!@!N
!@!SS
!@!M
!@!L 0.0 0.0 0.0 0.0
!@!XDegrees
!@!YCounts
53.000 5.441827
53.005 5.141794
53.010 5.016881
53.015 4.784967
53.020 5.113361
53.025 5.250183
53.030 5.245942
53.035 5.455068
53.040 5.629138
53.045 5.991073
53.050 6.498173
53.055 6.462182
53.060 6.465802
53.065 6.698529
53.070 6.836251
53.075 6.819763
53.080 6.671848
53.085 6.962711
53.090 7.324684
53.095 7.336411
53.100 7.45612
53.105 7.948321
53.110 8.292057
53.115 7.995219
53.120 7.824758
53.125 8.168357
53.130 8.070802
53.135 7.821726
53.140 7.346104
53.145 7.159087
53.150 7.213653
53.155 6.76599
53.160 6.684956
53.165 7.240928
53.170 7.359915
53.175 7.495921
53.180 7.43549
53.185 7.037859
53.190 7.089854
53.195 7.128622
53.200 6.64071
53.205 6.244305
53.210 6.08518
53.215 6.034134
53.220 6.27386
53.225 6.000239
53.230 5.631246
53.235 5.93926
53.240 6.137416
53.245 6.265539
53.250 6.667107
53.255 6.967819
53.260 7.110949
53.265 7.201261
53.270 7.12682
53.275 7.056787
53.280 6.812366
53.285 6.435518
53.290 6.278419
53.295 6.067477
53.300 6.1578
53.305 6.414933
53.310 6.465652
53.315 6.799559
53.320 7.129895
53.325 7.130108
53.330 7.940527
53.335 7.662266
53.340 7.639173
53.345 7.304926
53.350 7.269979
53.355 7.481364
53.360 7.336839
53.365 6.658578
53.370 6.975343
53.375 7.223761
53.380 7.082556
53.385 6.597161
53.390 6.133578
53.395 6.114106
53.400 6.108833
53.405 5.914392
53.410 5.779698
53.415 5.678145
53.420 5.91628
53.425 6.459801
53.430 6.73212
53.435 6.988237
53.440 6.924774
53.445 6.830754
53.450 7.131338
53.455 7.452904
53.460 7.447338
53.465 7.474227
53.470 7.619625
53.475 7.96826
53.480 8.390119
53.485 8.230774
53.490 8.040358
53.495 8.085799
53.500 7.778164
53.505 7.732711
53.510 7.65674
53.515 7.914606
53.520 8.174584
53.525 7.616131
53.530 7.263901
53.535 7.283682
53.540 7.113538
53.545 6.85062
53.550 6.133826
53.555 6.064557
53.560 6.566699
53.565 6.8399
53.570 6.72764
53.575 6.877279
53.580 6.933387
53.585 7.148926
53.590 7.194642
53.595 7.169983
53.600 7.294215
53.605 7.231049
53.610 7.375832
53.615 7.660128
53.620 7.650977
53.625 7.178424
53.630 6.727415
53.635 6.548429
53.640 6.523245
53.645 6.487047
53.650 6.738899
53.655 6.738352
53.660 7.256557
53.665 7.667349
53.670 7.950004
53.675 8.007291
53.680 8.169731
53.685 7.984688
53.690 8.350424
53.695 8.295128
53.700 8.067322
53.705 8.318004
53.710 8.094582
53.715 7.935233
53.720 7.929772
53.725 8.333575
53.730 8.431747
53.735 8.271008
53.740 8.00771
53.745 7.647257
53.750 7.921217
53.755 7.704558
53.760 7.088063
53.765 6.914646
53.770 6.928966
53.775 7.169323
53.780 7.431935
53.785 7.427254
53.790 7.821749
53.795 8.548055
53.800 9.339547
53.805 9.586102
53.810 9.505772
53.815 8.862069
53.820 8.7954
53.825 8.356134
53.830 7.651158
53.835 7.374298
53.840 7.387455
53.845 7.919841
53.850 8.247244
53.855 7.970388
53.860 8.027967
53.865 8.233706
53.870 8.469517
53.875 8.291144
53.880 7.861049
53.885 7.940292
53.890 8.025581
53.895 7.979712
53.900 7.53428
53.905 7.25336
53.910 7.421591
53.915 7.812208
53.920 8.012169
53.925 8.306015
53.930 8.646752
53.935 8.7162
53.940 8.837398
53.945 8.292661
53.950 7.851836
53.955 7.581211
53.960 7.119992
53.965 6.819364
53.970 7.120337
53.975 7.410294
53.980 7.656646
53.985 7.775739
53.990 7.975049
53.995 8.179624
54.000 8.060814
54.005 7.648231
54.010 7.395184
54.015 7.362873
54.020 7.322766
54.025 7.061159
54.030 7.284743
54.035 7.521256
54.040 7.551734
54.045 7.420123
54.050 7.373388
54.055 7.492051
54.060 7.01071
54.065 6.841132
54.070 6.881837
54.075 6.742404
54.080 7.277214
54.085 7.56641
54.090 7.913909
54.095 8.416665
54.100 8.369203
54.105 8.52049
54.110 8.845138
54.115 8.553315
54.120 8.406924
54.125 8.153061
54.130 8.077362
54.135 8.242917
54.140 8.280293
54.145 8.195905
54.150 7.933354
54.155 7.796944
54.160 7.975734
54.165 7.737769
54.170 7.564206
54.175 7.634334
54.180 7.914951
54.185 8.230438
54.190 8.410965
54.195 8.86033
54.200 8.905723
54.205 8.694337
54.210 8.097495
54.215 7.810432
54.220 7.596229
54.225 7.080425
54.230 7.202706
54.235 7.445096
54.240 7.700436
54.245 8.122709
54.250 8.395456
54.255 8.883585
54.260 9.224415
54.265 9.042221
54.270 9.11141
54.275 9.409155
54.280 9.576334
54.285 9.409791
54.290 9.098891
54.295 8.824595
54.300 8.891614
54.305 8.842907
54.310 8.653325
54.315 8.807692
54.320 8.947227
54.325 9.379178
54.330 9.614063
54.335 9.892013
54.340 10.006287
54.345 9.694407
54.350 9.549857
54.355 9.1508
54.360 8.856975
54.365 8.52247
54.370 8.166644
54.375 7.928747
54.380 7.849321
54.385 8.003093
54.390 8.254877
54.395 8.257065
54.400 8.600558
54.405 9.109321
54.410 9.385108
54.415 9.618329
54.420 9.156927
54.425 8.794148
54.430 8.796402
54.435 8.563162
54.440 8.513192
54.445 8.294956
54.450 8.290178
54.455 8.514931
54.460 8.555063
54.465 8.310241
54.470 8.165178
54.475 8.063388
54.480 8.01254
54.485 7.91171
54.490 7.893159
54.495 7.761502
54.500 7.815584
54.505 7.900257
54.510 8.072344
54.515 7.9203
54.520 7.952234
54.525 8.143441
54.530 8.739909
54.535 8.772954
54.540 8.918155
54.545 8.945689
54.550 9.254871
54.555 9.424777
54.560 9.380337
54.565 8.939502
54.570 8.85609
54.575 8.774102
54.580 8.757103
54.585 8.547399
54.590 8.210947
54.595 8.472251
54.600 8.49965
54.605 8.259135
54.610 7.792233
54.615 7.960329
54.620 7.898439
54.625 8.022071
54.630 8.018266
54.635 7.846509
54.640 8.277741
54.645 8.696686
54.650 8.930074
54.655 9.321243
54.660 8.925353
54.665 8.961533
54.670 9.097371
54.675 8.514572
54.680 8.113248
54.685 7.738646
54.690 7.739381
54.695 7.734457
54.700 7.771997
54.705 7.893427
54.710 8.274471
54.715 8.522759
54.720 8.619205
54.725 8.428502
54.730 8.899518
54.735 9.030149
54.740 9.349888
54.745 9.593879
54.750 9.696351
54.755 9.984744
54.760 10.079899
54.765 9.939346
54.770 9.754212
54.775 9.522185
54.780 9.096922
54.785 8.659698
54.790 8.670425
54.795 8.426338
54.800 7.985796
54.805 7.914341
54.810 7.788042
54.815 7.942166
54.820 8.074436
54.825 8.106133
54.830 8.257866
54.835 8.667595
54.840 8.647496
54.845 8.225849
54.850 8.315977
54.855 7.898742
54.860 8.083823
54.865 8.425035
54.870 8.689849
54.875 8.815105
54.880 9.06078
54.885 8.98107
54.890 9.239878
54.895 8.696197
54.900 8.357031
54.905 8.072859
54.910 8.461396
54.915 8.818509
54.920 8.738605
54.925 8.035145
54.930 7.824767
54.935 7.412609
54.940 7.476004
54.945 7.362948
54.950 7.849406
54.955 8.404324
54.960 9.162424
54.965 9.333448
54.970 9.528513
54.975 9.746457
54.980 9.894388
54.985 9.548729
54.990 9.850095
54.995 9.935833
55.000 9.682548
55.005 9.389388
55.010 9.047313
55.015 8.776174
55.020 8.984611
55.025 8.794248
55.030 9.143703
55.035 9.916092
55.040 10.082298
55.045 10.017744
55.050 9.689738
55.055 9.211034
55.060 8.753484
55.065 8.790175
55.070 8.690579
55.075 8.85209
55.080 9.176788
55.085 9.323674
55.090 9.286678
55.095 9.2805
55.100 8.808504
55.105 8.440865
55.110 8.336572
55.115 8.444717
55.120 8.65771
55.125 8.624876
55.130 8.54869
55.135 9.066793
55.140 9.324498
55.145 9.279048
55.150 9.004848
55.155 8.193532
55.160 8.311313
55.165 8.295054
55.170 8.334555
55.175 8.483681
55.180 8.541841
55.185 9.089966
55.190 9.469168
55.195 9.386188
55.200 9.740513
55.205 9.492018
55.210 9.437641
55.215 9.1491
55.220 8.606468
55.225 8.925866
55.230 8.950124
55.235 8.773076
55.240 9.185964
55.245 8.786108
55.250 8.577739
55.255 9.236143
55.260 8.976789
55.265 8.936689
55.270 8.674788
55.275 8.451525
55.280 8.933117
55.285 8.769813
55.290 8.281029
55.295 8.553787
55.300 8.758514
55.305 8.545115
55.310 8.957945
55.315 9.025468
55.320 9.580313
55.325 9.871106
55.330 9.650643
55.335 9.578516
55.340 9.659109
55.345 9.319261
55.350 9.320694
55.355 9.070889
55.360 9.160299
55.365 9.496682
55.370 9.432876
55.375 9.499762
55.380 9.208699
55.385 9.522186
55.390 9.933663
55.395 10.123383
55.400 10.085391
55.405 10.186533
55.410 10.313511
55.415 10.49985
55.420 10.449027
55.425 10.266508
55.430 9.69311
55.435 9.537003
55.440 9.717701
55.445 9.904892
55.450 10.157337
55.455 9.863716
55.460 10.164469
55.465 10.848952
55.470 11.690111
55.475 11.235848
55.480 10.372646
55.485 9.981416
55.490 10.186635
55.495 10.032875
55.500 9.604068
55.505 9.402968
55.510 9.928209
55.515 10.462275
55.520 10.595791
55.525 10.539981
55.530 10.512252
55.535 11.102162
55.540 11.040827
55.545 10.840465
55.550 10.715281
55.555 10.570033
55.560 10.324585
55.565 10.088223
55.570 9.463779
55.575 9.312306
55.580 9.524125
55.585 9.33677
55.590 9.271705
55.595 9.394477
55.600 9.235474
55.605 9.08097
55.610 9.069046
55.615 9.207028
55.620 9.815545
55.625 10.008836
55.630 10.638174
55.635 10.975745
55.640 10.875624
55.645 10.753089
55.650 10.324752
55.655 10.158016
55.660 9.921916
55.665 9.476109
55.670 9.20546
55.675 8.924696
55.680 8.944137
55.685 9.001313
55.690 8.843458
55.695 8.56991
55.700 8.074159
55.705 8.413101
55.710 8.903231
55.715 9.212369
55.720 9.615222
55.725 9.886847
55.730 9.917394
55.735 9.937679
55.740 9.68207
55.745 9.273103
55.750 8.956573
55.755 9.118896
55.760 8.935969
55.765 9.167734
55.770 9.54743
55.775 9.942693
55.780 10.271667
55.785 10.881571
55.790 10.901994
55.795 11.223009
55.800 10.978183
55.805 11.033028
55.810 11.268797
55.815 11.513263
55.820 10.919829
55.825 10.865262
55.830 10.973045
55.835 11.613472
55.840 11.347195
55.845 10.930068
55.850 10.506146
55.855 10.235306
55.860 10.258948
55.865 10.104791
55.870 9.565248
55.875 9.738802
55.880 9.877853
55.885 10.079109
55.890 9.703161
55.895 9.304899
55.900 9.287422
55.905 9.341364
55.910 9.006269
55.915 9.003532
55.920 9.038161
55.925 9.481814
55.930 9.86224
55.935 10.783069
55.940 11.182371
55.945 11.59305
55.950 11.698257
55.955 11.63613
55.960 11.619562
55.965 11.230205
55.970 11.046294
55.975 10.744037
55.980 10.357376
55.985 10.014488
55.990 10.193521
55.995 9.746805
56.000 9.692046
56.005 9.335194
56.010 9.274081
56.015 9.488213
56.020 9.659389
56.025 9.862932
56.030 10.023925
56.035 10.193576
56.040 10.234358
56.045 9.937057
56.050 9.984384
56.055 9.827194
56.060 9.635568
56.065 9.752142
56.070 9.617102
56.075 9.273274
56.080 9.777935
56.085 10.195239
56.090 10.48078
56.095 10.634992
56.100 10.574221
56.105 10.391175
56.110 10.692084
56.115 10.441398
56.120 9.874092
56.125 9.709907
56.130 9.824544
56.135 9.782413
56.140 10.251547
56.145 10.254825
56.150 10.455619
56.155 11.143074
56.160 11.353155
56.165 11.470766
56.170 11.697709
56.175 11.636779
56.180 11.27885
56.185 10.848113
56.190 10.337998
56.195 10.445522
56.200 10.620692
56.205 10.258221
56.210 9.999832
56.215 9.853712
56.220 9.685691
56.225 9.588677
56.230 9.536165
56.235 9.3638
56.240 9.755898
56.245 10.203705
56.250 10.50253
56.255 10.858655
56.260 11.33728
56.265 11.389581
56.270 11.426744
56.275 11.297165
56.280 11.503158
56.285 11.647086
56.290 11.859982
56.295 11.506248
56.300 11.521013
56.305 11.488254
56.310 11.355541
56.315 11.340828
56.320 11.343248
56.325 11.037247
56.330 11.397222
56.335 11.76713
56.340 11.483795
56.345 11.318308
56.350 11.331472
56.355 11.006487
56.360 10.839633
56.365 10.454261
56.370 10.198953
56.375 10.087651
56.380 9.931156
56.385 9.620904
56.390 10.075049
56.395 10.619145
56.400 10.215752
56.405 10.125723
56.410 10.400862
56.415 10.356601
56.420 10.460938
56.425 10.402636
56.430 9.954694
56.435 10.256168
56.440 10.639771
56.445 10.805976
56.450 11.185888
56.455 11.229611
56.460 10.969389
56.465 10.853597
56.470 10.462682
56.475 9.833176
56.480 9.661019
56.485 10.056722
56.490 10.327307
56.495 10.614611
56.500 10.769548
56.505 11.159277
56.510 11.290785
56.515 10.886342
56.520 10.423897
56.525 10.441097
56.530 10.635687
56.535 10.671398
56.540 10.563498
56.545 10.423538
56.550 10.692892
56.555 10.484522
56.560 10.163874
56.565 10.051975
56.570 10.537951
56.575 10.724339
56.580 11.026943
56.585 11.216739
56.590 11.316144
56.595 11.161261
56.600 10.554276
56.605 10.399414
56.610 10.387681
56.615 10.475767
56.620 10.46363
56.625 10.797404
56.630 11.300365
56.635 11.426257
56.640 11.001552
56.645 10.952336
56.650 10.947181
56.655 11.297965
56.660 11.095599
56.665 10.869744
56.670 11.094037
56.675 11.469197
56.680 11.370389
56.685 11.468464
56.690 10.853102
56.695 10.69169
56.700 11.339172
56.705 11.136713
56.710 11.126503
56.715 11.280149
56.720 11.380898
56.725 11.96162
56.730 12.224157
56.735 11.845764
56.740 12.093878
56.745 12.197103
56.750 12.372113
56.755 12.383147
56.760 12.333093
56.765 12.740727
56.770 12.88409
56.775 13.202601
56.780 13.454937
56.785 13.740104
56.790 13.661378
56.795 13.409953
56.800 13.452753
56.805 13.985777
56.810 13.458486
56.815 13.382109
56.820 13.070445
56.825 12.975773
56.830 12.731503
56.835 12.124844
56.840 11.103431
56.845 11.354576
56.850 10.96344
56.855 10.944574
56.860 11.281998
56.865 11.364712
56.870 11.567044
56.875 12.098039
56.880 12.259159
56.885 12.354457
56.890 12.275502
56.895 12.001852
56.900 12.02492
56.905 11.927485
56.910 11.276801
56.915 10.738128
56.920 10.382812
56.925 10.634607
56.930 10.946095
56.935 10.912997
56.940 11.11638
56.945 11.178298
56.950 11.215527
56.955 11.002522
56.960 10.680914
56.965 10.691002
56.970 11.082039
56.975 11.118525
56.980 11.352081
56.985 11.347283
56.990 11.163618
56.995 11.206369
57.000 10.758262
57.005 10.947986
57.010 10.870041
57.015 11.07736
57.020 11.346384
57.025 11.881175
57.030 12.1302
57.035 12.424676
57.040 12.058978
57.045 12.236944
57.050 12.214398
57.055 12.403428
57.060 12.153375
57.065 12.02624
57.070 11.93918
57.075 11.960422
57.080 11.744992
57.085 11.436162
57.090 11.364362
57.095 11.598011
57.100 11.246382
57.105 10.939991
57.110 10.566304
57.115 10.69481
57.120 11.158779
57.125 11.610159
57.130 11.662614
57.135 12.029763
57.140 12.038086
57.145 11.99073
57.150 11.715948
57.155 11.084131
57.160 10.766235
57.165 10.869032
57.170 11.128137
57.175 11.506879
57.180 11.703663
57.185 11.961885
57.190 12.07026
57.195 11.683679
57.200 11.381861
57.205 11.296339
57.210 11.265183
57.215 11.460859
57.220 11.418605
57.225 11.573693
57.230 11.664809
57.235 11.977503
57.240 12.329917
57.245 12.278626
57.250 12.468738
57.255 12.571935
57.260 12.411491
57.265 12.755656
57.270 12.138829
57.275 11.281395
57.280 11.547451
57.285 11.876761
57.290 11.802964
57.295 12.071008
57.300 12.060607
57.305 12.317577
57.310 12.752765
57.315 12.253453
57.320 12.51937
57.325 12.905615
57.330 13.327465
57.335 13.120942
57.340 12.978309
57.345 12.90759
57.350 12.978342
57.355 12.012019
57.360 11.312256
57.365 11.022188
57.370 11.619167
57.375 11.998149
57.380 12.364803
57.385 13.038791
57.390 13.527554
57.395 13.611941
57.400 13.370049
57.405 13.350048
57.410 12.612487
57.415 12.187859
57.420 11.913819
57.425 11.664589
57.430 11.784682
57.435 11.544236
57.440 11.338633
57.445 11.993807
57.450 12.14899
57.455 12.221444
57.460 12.517395
57.465 12.986787
57.470 12.94517
57.475 12.974845
57.480 13.348338
57.485 12.914174
57.490 12.750734
57.495 12.921295
57.500 12.923779
57.505 13.599608
57.510 13.599962
57.515 13.325923
57.520 13.084352
57.525 12.866471
57.530 12.580873
57.535 12.722413
57.540 12.451719
57.545 12.120098
57.550 12.165229
57.555 12.649616
57.560 12.715618
57.565 12.883037
57.570 12.853583
57.575 12.987135
57.580 13.356833
57.585 13.580129
57.590 13.791181
57.595 13.798338
57.600 13.280138
57.605 12.756926
57.610 12.871015
57.615 12.950596
57.620 12.74404
57.625 12.812479
57.630 12.797143
57.635 12.521347
57.640 12.352272
57.645 11.828967
57.650 11.647223
57.655 11.97095
57.660 11.873828
57.665 11.893634
57.670 12.352529
57.675 12.664224
57.680 13.371328
57.685 13.340364
57.690 13.22303
57.695 13.934593
57.700 14.072716
57.705 14.026567
57.710 14.124919
57.715 14.236573
57.720 14.378361
57.725 14.378402
57.730 13.628325
57.735 13.684731
57.740 13.661427
57.745 13.307868
57.750 12.861655
57.755 12.912525
57.760 13.172379
57.765 13.74333
57.770 14.043154
57.775 14.475276
57.780 14.726015
57.785 14.714837
57.790 14.599768
57.795 14.234702
57.800 14.14451
57.805 14.259101
57.810 14.407883
57.815 14.387253
57.820 14.422298
57.825 14.194715
57.830 14.442024
57.835 14.097569
57.840 13.608408
57.845 13.639433
57.850 13.612082
57.855 13.907151
57.860 13.89403
57.865 13.288425
57.870 13.402925
57.875 13.552054
57.880 13.751908
57.885 13.911993
57.890 14.138661
57.895 14.353754
57.900 14.990482
57.905 15.062989
57.910 14.611959
57.915 14.478835
57.920 14.315593
57.925 14.132302
57.930 14.358311
57.935 14.361206
57.940 14.266681
57.945 14.679551
57.950 14.535555
57.955 14.502081
57.960 14.337666
57.965 14.086774
57.970 13.639782
57.975 13.518308
57.980 13.100774
57.985 12.911661
57.990 12.655046
57.995 12.323341
58.000 12.351471
58.005 13.528379
58.010 14.163966
58.015 14.897085
58.020 15.484226
58.025 15.648505
58.030 16.220556
58.035 16.119616
58.040 15.801379
58.045 15.159792
58.050 14.10789
58.055 13.637583
58.060 13.716423
58.065 13.857336
58.070 13.830841
58.075 12.980651
58.080 13.767307
58.085 14.331886
58.090 13.97051
58.095 13.906653
58.100 13.904015
58.105 14.217292
58.110 14.703727
58.115 14.467823
58.120 14.160692
58.125 14.596225
58.130 14.28046
58.135 13.863557
58.140 13.67745
58.145 13.586394
58.150 13.351602
58.155 13.578928
58.160 13.277261
58.165 13.324841
58.170 13.457347
58.175 13.583266
58.180 13.546183
58.185 13.842405
58.190 14.088534
58.195 14.739667
58.200 14.782322
58.205 14.578769
58.210 14.295965
58.215 14.341846
58.220 14.418401
58.225 14.140291
58.230 13.887792
58.235 14.544389
58.240 14.929677
58.245 15.189667
58.250 15.580008
58.255 15.401328
58.260 15.623851
58.265 15.651169
58.270 15.450321
58.275 15.962905
58.280 16.670956
58.285 16.750977
58.290 16.963833
58.295 17.45067
58.300 17.831789
58.305 17.628231
58.310 17.209505
58.315 17.10589
58.320 17.219898
58.325 17.608736
58.330 17.57061
58.335 17.877468
58.340 18.359587
58.345 18.727255
58.350 18.39473
58.355 18.64889
58.360 19.421333
58.365 19.838024
58.370 20.080748
58.375 20.806076
58.380 20.730806
58.385 21.587498
58.390 22.368805
58.395 22.546083
58.400 22.551397
58.405 22.319511
58.410 22.287468
58.415 23.233063
58.420 24.259666
58.425 24.26137
58.430 24.330376
58.435 24.488327
58.440 24.763546
58.445 25.009848
58.450 25.26343
58.455 25.170078
58.460 26.198978
58.465 26.16334
58.470 26.006479
58.475 26.380655
58.480 26.903013
58.485 26.939375
58.490 27.310656
58.495 27.59565
58.500 28.162979
58.505 28.849258
58.510 28.805672
58.515 28.640701
58.520 28.394722
58.525 27.407995
58.530 26.922508
58.535 26.942526
58.540 27.193087
58.545 27.391621
58.550 26.62513
58.555 27.131445
58.560 27.472218
58.565 27.726864
58.570 28.188059
58.575 27.890472
58.580 27.770838
58.585 28.345215
58.590 28.663811
