!@!!GADDS PLOTSO FILE: Chi integration type
!@!!Title/SampleName: map-97
!@!!Comment: ?
!@!!User: Bruker Instrument Administrator
!@!!Site: University of Illinois Chicago
!@!!Frame: map-97_01_000.gfrm
!@!!Wavelengths    1.54184   1.54056   1.54439
!@!!Frame angles: 2Theta: 63.000 Omega: 50.000 Phi: 0.000 Chi: 90.000
!@!!Integration range: 2Theta: 53.000 to 73.000  Gamma: -105.000 to -75.000
!@!!Integration method: bin normalized
!@!N
!@!SS
!@!M
!@!L 0.0 0.0 0.0 0.0
!@!XDegrees
!@!YCounts
53.000 8.862848
53.005 8.9778
53.010 9.413749
53.015 9.851507
53.020 9.978292
53.025 9.761285
53.030 10.167528
53.035 10.818251
53.040 10.607572
53.045 10.074903
53.050 10.107138
53.055 10.222461
53.060 10.248912
53.065 9.974563
53.070 9.675888
53.075 9.963815
53.080 10.388306
53.085 10.23122
53.090 9.718457
53.095 9.73244
53.100 9.81309
53.105 9.958595
53.110 9.708168
53.115 9.781777
53.120 9.419209
53.125 9.311552
53.130 9.28008
53.135 8.976333
53.140 8.588401
53.145 8.581044
53.150 9.115251
53.155 9.982193
53.160 10.627649
53.165 10.928805
53.170 10.945721
53.175 10.810816
53.180 10.481841
53.185 9.976793
53.190 9.586202
53.195 9.191879
53.200 8.9875
53.205 9.302351
53.210 9.408305
53.215 9.510947
53.220 9.581141
53.225 9.448925
53.230 9.827507
53.235 10.308717
53.240 10.802521
53.245 11.048011
53.250 11.127146
53.255 11.192036
53.260 11.173441
53.265 10.859848
53.270 10.351929
53.275 10.478317
53.280 10.46726
53.285 10.637243
53.290 10.215112
53.295 9.93237
53.300 10.028399
53.305 9.863062
53.310 9.640945
53.315 9.245405
53.320 9.213924
53.325 9.26386
53.330 9.510773
53.335 9.881088
53.340 10.346116
53.345 10.588788
53.350 10.502689
53.355 10.321051
53.360 10.61011
53.365 10.576718
53.370 10.196557
53.375 10.01067
53.380 9.720038
53.385 10.334022
53.390 10.566129
53.395 10.299688
53.400 10.182097
53.405 10.476789
53.410 11.007177
53.415 10.909953
53.420 10.612444
53.425 10.669978
53.430 10.817615
53.435 10.621016
53.440 10.328254
53.445 10.073099
53.450 10.507082
53.455 10.343497
53.460 10.886617
53.465 11.090948
53.470 11.210954
53.475 10.901779
53.480 10.63921
53.485 10.368394
53.490 10.183483
53.495 9.424897
53.500 9.44963
53.505 9.360625
53.510 9.464658
53.515 9.447599
53.520 9.855083
53.525 10.357924
53.530 10.920477
53.535 11.163131
53.540 11.65202
53.545 11.957256
53.550 12.231359
53.555 11.796123
53.560 11.758698
53.565 11.995685
53.570 11.429306
53.575 11.206042
53.580 11.485202
53.585 11.160751
53.590 11.453049
53.595 10.877206
53.600 10.945752
53.605 11.662438
53.610 11.541169
53.615 11.334148
53.620 11.555005
53.625 11.733787
53.630 11.808736
53.635 11.61449
53.640 11.415076
53.645 11.469976
53.650 11.445525
53.655 11.346457
53.660 11.395048
53.665 11.585768
53.670 11.464623
53.675 11.088955
53.680 11.206235
53.685 10.8144
53.690 10.650023
53.695 10.120956
53.700 9.777383
53.705 9.770459
53.710 10.009491
53.715 9.75719
53.720 10.398983
53.725 10.691032
53.730 10.632879
53.735 10.869369
53.740 11.021095
53.745 10.794736
53.750 10.626932
53.755 10.024856
53.760 10.047635
53.765 10.193979
53.770 10.131313
53.775 9.7293
53.780 10.151937
53.785 11.079596
53.790 11.78428
53.795 11.465591
53.800 11.469936
53.805 11.594954
53.810 11.920056
53.815 11.680609
53.820 11.158704
53.825 10.840318
53.830 10.962806
53.835 10.649957
53.840 10.283669
53.845 10.136316
53.850 9.807296
53.855 9.434711
53.860 9.089686
53.865 9.693534
53.870 10.19317
53.875 10.227848
53.880 10.353339
53.885 10.719684
53.890 11.129425
53.895 11.532875
53.900 11.344196
53.905 11.424621
53.910 11.468173
53.915 11.605483
53.920 11.412699
53.925 11.148307
53.930 10.604113
53.935 10.341188
53.940 10.560496
53.945 10.406492
53.950 10.498349
53.955 10.940953
53.960 11.351736
53.965 11.716434
53.970 11.628385
53.975 11.743851
53.980 11.965629
53.985 11.742049
53.990 11.556702
53.995 11.782869
54.000 12.008167
54.005 12.225345
54.010 12.04774
54.015 12.165012
54.020 12.014875
54.025 12.209929
54.030 11.745167
54.035 11.80505
54.040 11.634854
54.045 11.761215
54.050 12.060239
54.055 12.142219
54.060 11.512867
54.065 11.664419
54.070 11.476608
54.075 11.540709
54.080 12.018929
54.085 11.623119
54.090 11.382196
54.095 11.4161
54.100 11.151583
54.105 11.304922
54.110 11.043194
54.115 10.378701
54.120 10.693261
54.125 11.24853
54.130 11.986597
54.135 12.11035
54.140 12.169644
54.145 12.411594
54.150 12.086752
54.155 12.085428
54.160 11.746108
54.165 11.066342
54.170 10.588091
54.175 10.37506
54.180 10.573015
54.185 10.644172
54.190 10.697581
54.195 11.096264
54.200 11.415044
54.205 11.539514
54.210 11.13216
54.215 11.071404
54.220 11.076489
54.225 10.983699
54.230 10.878718
54.235 11.620573
54.240 12.219477
54.245 12.590289
54.250 13.014023
54.255 13.809794
54.260 13.706225
54.265 13.436965
54.270 12.952343
54.275 12.669527
54.280 12.368505
54.285 12.016054
54.290 11.645777
54.295 11.823043
54.300 11.709244
54.305 12.267807
54.310 12.313258
54.315 12.124125
54.320 11.869627
54.325 11.760286
54.330 11.486689
54.335 11.604563
54.340 11.088762
54.345 11.503478
54.350 11.703357
54.355 11.802958
54.360 11.453673
54.365 11.179696
54.370 11.206594
54.375 11.150685
54.380 10.997941
54.385 10.562818
54.390 10.596911
54.395 11.042806
54.400 11.337276
54.405 11.547771
54.410 11.436669
54.415 11.366284
54.420 11.481771
54.425 11.404736
54.430 11.455509
54.435 11.025204
54.440 10.649335
54.445 10.995018
54.450 11.373167
54.455 11.535941
54.460 11.207138
54.465 10.993702
54.470 11.319448
54.475 11.78643
54.480 11.328415
54.485 11.070564
54.490 11.376027
54.495 11.555767
54.500 11.549557
54.505 11.449506
54.510 11.238809
54.515 11.387908
54.520 11.247359
54.525 10.853942
54.530 10.914075
54.535 10.709637
54.540 9.954878
54.545 9.547522
54.550 9.780105
54.555 9.831229
54.560 9.952237
54.565 10.231481
54.570 10.842846
54.575 11.447256
54.580 11.470472
54.585 11.153818
54.590 11.3086
54.595 11.623528
54.600 11.496241
54.605 11.194679
54.610 11.513102
54.615 11.90415
54.620 12.132236
54.625 11.914948
54.630 11.624501
54.635 11.773927
54.640 11.951254
54.645 12.232009
54.650 12.095691
54.655 12.076326
54.660 12.21033
54.665 12.418777
54.670 11.880735
54.675 11.424086
54.680 11.068288
54.685 11.037869
54.690 10.764633
54.695 10.278797
54.700 10.044135
54.705 10.689548
54.710 10.871428
54.715 10.527075
54.720 10.467768
54.725 11.000196
54.730 11.459465
54.735 11.466033
54.740 11.642377
54.745 11.918006
54.750 12.297671
54.755 12.45401
54.760 12.439769
54.765 12.332646
54.770 12.850879
54.775 12.222007
54.780 11.694695
54.785 11.675683
54.790 11.570942
54.795 11.441351
54.800 11.280256
54.805 11.055386
54.810 11.864573
54.815 12.467503
54.820 12.413795
54.825 12.805791
54.830 12.713535
54.835 12.141239
54.840 12.102908
54.845 11.612296
54.850 11.044525
54.855 10.788465
54.860 10.414664
54.865 10.792277
54.870 10.907667
54.875 11.006259
54.880 11.617699
54.885 12.274485
54.890 12.714555
54.895 13.068429
54.900 13.064453
54.905 12.863914
54.910 12.581679
54.915 12.503009
54.920 12.454949
54.925 11.742447
54.930 11.648616
54.935 12.092913
54.940 12.285305
54.945 12.08534
54.950 11.766686
54.955 11.615651
54.960 11.875637
54.965 11.648173
54.970 11.202083
54.975 11.405377
54.980 11.69528
54.985 11.54982
54.990 11.804811
54.995 11.907796
55.000 11.872249
55.005 12.6226
55.010 12.584266
55.015 12.249681
55.020 12.183987
55.025 12.408838
55.030 12.368116
55.035 12.278976
55.040 11.985398
55.045 12.076912
55.050 12.257574
55.055 12.375609
55.060 12.268085
55.065 12.056113
55.070 11.72237
55.075 11.851443
55.080 12.462307
55.085 12.455505
55.090 11.969122
55.095 11.776848
55.100 12.153429
55.105 12.825323
55.110 12.440883
55.115 12.246624
55.120 12.439056
55.125 13.191075
55.130 13.329337
55.135 13.104944
55.140 12.849088
55.145 12.63469
55.150 12.661446
55.155 12.556973
55.160 12.412237
55.165 12.431494
55.170 12.28901
55.175 12.127843
55.180 12.06085
55.185 11.859747
55.190 12.129324
55.195 11.686466
55.200 11.441579
55.205 11.367515
55.210 11.152002
55.215 10.777307
55.220 11.02908
55.225 10.972452
55.230 11.019482
55.235 10.859468
55.240 11.122296
55.245 11.533185
55.250 11.997145
55.255 11.66392
55.260 11.289528
55.265 11.4412
55.270 11.285322
55.275 10.641082
55.280 10.549109
55.285 10.069317
55.290 10.069799
55.295 10.658826
55.300 10.681433
55.305 11.021948
55.310 11.984357
55.315 12.440978
55.320 12.829428
55.325 13.038151
55.330 13.086219
55.335 13.549939
55.340 13.301829
55.345 12.277685
55.350 11.866165
55.355 11.835279
55.360 11.344022
55.365 10.753798
55.370 10.77289
55.375 11.348619
55.380 11.996316
55.385 12.218882
55.390 12.306796
55.395 12.939075
55.400 12.945827
55.405 12.724517
55.410 12.429971
55.415 12.524932
55.420 12.833567
55.425 12.596001
55.430 12.389628
55.435 12.752571
55.440 12.806231
55.445 13.034429
55.450 12.59343
55.455 12.056213
55.460 12.272334
55.465 12.141467
55.470 12.195086
55.475 12.13156
55.480 12.104076
55.485 12.385002
55.490 12.587561
55.495 12.707532
55.500 12.782063
55.505 12.662029
55.510 12.771155
55.515 12.286596
55.520 12.226856
55.525 12.131929
55.530 11.827706
55.535 12.03639
55.540 11.752426
55.545 11.719599
55.550 12.415514
55.555 12.440296
55.560 12.613787
55.565 12.49456
55.570 12.678324
55.575 13.01206
55.580 13.246311
55.585 13.057615
55.590 13.319661
55.595 13.87138
55.600 14.285561
55.605 14.129676
55.610 14.054513
55.615 13.717397
55.620 13.539331
55.625 13.459364
55.630 13.277878
55.635 13.361546
55.640 13.169441
55.645 13.000039
55.650 13.223719
55.655 13.539465
55.660 13.124279
55.665 12.683526
55.670 12.139368
55.675 12.264894
55.680 12.617124
55.685 12.659548
55.690 12.360223
55.695 12.714304
55.700 12.921066
55.705 12.980615
55.710 12.633808
55.715 12.4202
55.720 12.534544
55.725 12.454765
55.730 12.071678
55.735 11.99052
55.740 11.895197
55.745 12.249373
55.750 12.584437
55.755 12.417773
55.760 12.540907
55.765 12.387047
55.770 12.199848
55.775 12.415307
55.780 12.398434
55.785 12.525951
55.790 12.351407
55.795 12.394308
55.800 12.789904
55.805 13.17146
55.810 13.571707
55.815 13.31064
55.820 13.357409
55.825 14.005505
55.830 14.622463
55.835 14.916674
55.840 14.723852
55.845 14.512281
55.850 14.68259
55.855 14.336815
55.860 13.648283
55.865 13.576278
55.870 13.527609
55.875 14.049737
55.880 14.135741
55.885 14.197377
55.890 14.323264
55.895 14.254263
55.900 14.076533
55.905 13.692559
55.910 12.909924
55.915 12.835663
55.920 13.090619
55.925 13.782752
55.930 13.959913
55.935 13.836792
55.940 14.155978
55.945 14.129251
55.950 14.067479
55.955 13.445869
55.960 12.903162
55.965 12.917666
55.970 12.720373
55.975 13.01886
55.980 13.174101
55.985 13.163533
55.990 13.007809
55.995 12.982637
56.000 13.176089
56.005 13.534389
56.010 13.041192
56.015 12.875576
56.020 12.657443
56.025 12.731551
56.030 13.21853
56.035 13.275798
56.040 12.901858
56.045 13.041516
56.050 12.949083
56.055 12.853208
56.060 12.672949
56.065 12.453468
56.070 11.772885
56.075 11.802437
56.080 12.125102
56.085 12.455756
56.090 13.222299
56.095 13.276283
56.100 13.131056
56.105 13.68767
56.110 13.714691
56.115 13.796043
56.120 13.858842
56.125 13.608903
56.130 13.413778
56.135 13.696279
56.140 13.688885
56.145 13.496505
56.150 13.181814
56.155 12.816905
56.160 12.47542
56.165 13.076985
56.170 13.41864
56.175 13.238629
56.180 13.116748
56.185 13.302356
56.190 13.260586
56.195 12.859514
56.200 12.348205
56.205 11.881777
56.210 12.089467
56.215 12.672487
56.220 12.248804
56.225 12.668179
56.230 13.361447
56.235 13.801667
56.240 13.922599
56.245 14.02284
56.250 13.885637
56.255 14.347024
56.260 14.326396
56.265 13.773346
56.270 13.286122
56.275 13.226071
56.280 13.395515
56.285 13.428672
56.290 13.406658
56.295 13.729832
56.300 13.815025
56.305 14.005534
56.310 14.007778
56.315 13.654829
56.320 13.869175
56.325 13.596985
56.330 13.317979
56.335 13.466812
56.340 13.228362
56.345 13.16712
56.350 12.449925
56.355 12.176298
56.360 12.642174
56.365 12.749663
56.370 12.445077
56.375 13.108351
56.380 13.043268
56.385 13.288835
56.390 12.924702
56.395 12.299747
56.400 12.571186
56.405 12.70538
56.410 12.540607
56.415 12.684649
56.420 12.465491
56.425 12.567899
56.430 12.909988
56.435 12.502135
56.440 12.4501
56.445 12.400088
56.450 12.578733
56.455 12.968454
56.460 13.426422
56.465 13.41519
56.470 13.420126
56.475 13.762673
56.480 13.880211
56.485 13.91533
56.490 14.47816
56.495 14.706078
56.500 14.719163
56.505 14.860976
56.510 14.263982
56.515 13.896787
56.520 14.287948
56.525 14.553638
56.530 14.53581
56.535 14.98576
56.540 15.28031
56.545 15.579098
56.550 15.72242
56.555 15.524122
56.560 14.794563
56.565 14.249445
56.570 13.626036
56.575 13.444979
56.580 13.31227
56.585 13.305307
56.590 13.133553
56.595 13.486819
56.600 14.254607
56.605 14.754148
56.610 15.142273
56.615 15.077127
56.620 15.21002
56.625 15.007576
56.630 15.092223
56.635 14.900959
56.640 14.090502
56.645 13.560469
56.650 13.613618
56.655 13.417138
56.660 13.518097
56.665 13.231553
56.670 13.012585
56.675 13.916621
56.680 14.290199
56.685 14.489762
56.690 14.337192
56.695 14.645298
56.700 14.329582
56.705 13.959003
56.710 13.422893
56.715 13.430762
56.720 13.778838
56.725 14.28499
56.730 14.310034
56.735 14.748861
56.740 15.150985
56.745 15.24429
56.750 15.510561
56.755 15.415998
56.760 15.27334
56.765 14.714949
56.770 14.379662
56.775 14.460684
56.780 14.34187
56.785 13.935964
56.790 13.552108
56.795 13.238585
56.800 13.545704
56.805 13.555547
56.810 13.4613
56.815 13.384158
56.820 13.425968
56.825 13.518563
56.830 13.249154
56.835 12.91112
56.840 13.38164
56.845 13.626835
56.850 13.23279
56.855 12.76097
56.860 13.009235
56.865 13.342096
56.870 13.951303
56.875 13.871843
56.880 13.528085
56.885 13.847237
56.890 14.125121
56.895 14.042204
56.900 13.987968
56.905 13.444601
56.910 13.079403
56.915 13.45292
56.920 13.850104
56.925 14.461658
56.930 14.810577
56.935 14.87909
56.940 14.762381
56.945 14.706876
56.950 14.884863
56.955 14.46455
56.960 14.432866
56.965 14.255235
56.970 14.307614
56.975 15.303722
56.980 15.525613
56.985 14.716547
56.990 14.565809
56.995 14.229851
57.000 14.569861
57.005 14.66867
57.010 14.068554
57.015 14.373207
57.020 15.001915
57.025 15.173248
57.030 15.256117
57.035 14.818568
57.040 14.469006
57.045 14.230371
57.050 13.964128
57.055 13.800469
57.060 13.744719
57.065 13.380511
57.070 12.999557
57.075 12.630385
57.080 12.899241
57.085 12.847882
57.090 12.647085
57.095 12.559056
57.100 13.038013
57.105 13.691237
57.110 14.342031
57.115 14.031135
57.120 14.128182
57.125 13.890786
57.130 13.532718
57.135 13.575725
57.140 13.314344
57.145 13.462861
57.150 13.784236
57.155 13.829723
57.160 14.564729
57.165 14.868
57.170 14.75618
57.175 14.611897
57.180 14.193044
57.185 14.056719
57.190 13.641926
57.195 13.172651
57.200 13.675652
57.205 13.846161
57.210 13.903498
57.215 14.052215
57.220 14.110353
57.225 14.039647
57.230 13.84601
57.235 13.244974
57.240 13.238115
57.245 13.407226
57.250 13.431822
57.255 13.800553
57.260 14.223403
57.265 14.562411
57.270 14.630858
57.275 14.835386
57.280 14.980281
57.285 15.202191
57.290 14.931035
57.295 15.243227
57.300 14.95478
57.305 14.720181
57.310 14.55973
57.315 14.664246
57.320 14.019516
57.325 13.743375
57.330 13.55073
57.335 13.746946
57.340 14.062478
57.345 14.024423
57.350 13.692944
57.355 13.59968
57.360 13.518618
57.365 13.275495
57.370 13.42155
57.375 13.329031
57.380 13.275011
57.385 13.206974
57.390 14.255211
57.395 14.161663
57.400 14.353758
57.405 13.985642
57.410 13.936189
57.415 13.706633
57.420 13.958312
57.425 13.559807
57.430 13.765982
57.435 13.706885
57.440 13.881262
57.445 13.502765
57.450 13.64697
57.455 13.527929
57.460 13.615738
57.465 14.003066
57.470 13.969875
57.475 13.964637
57.480 14.587907
57.485 14.306764
57.490 14.070168
57.495 13.805335
57.500 13.82961
57.505 13.819467
57.510 13.936306
57.515 13.891768
57.520 14.72998
57.525 15.070413
57.530 15.11028
57.535 15.093417
57.540 15.659959
57.545 15.940254
57.550 16.056793
57.555 16.021883
57.560 16.282354
57.565 15.769492
57.570 15.456565
57.575 15.105752
57.580 14.908738
57.585 15.075475
57.590 14.774156
57.595 15.13816
57.600 15.451555
57.605 15.093307
57.610 14.467082
57.615 14.367015
57.620 14.302232
57.625 14.418117
57.630 13.821805
57.635 14.12569
57.640 14.607774
57.645 14.870451
57.650 14.638649
57.655 14.487004
57.660 14.134532
57.665 13.966902
57.670 14.009899
57.675 13.719529
57.680 13.78773
57.685 13.757867
57.690 14.129399
57.695 14.567073
57.700 14.454291
57.705 14.258663
57.710 14.711958
57.715 14.828483
57.720 14.365331
57.725 13.961285
57.730 14.382867
57.735 15.001943
57.740 15.657886
57.745 16.170738
57.750 16.641045
57.755 17.039783
57.760 17.094284
57.765 16.671555
57.770 16.723022
57.775 16.614014
57.780 16.779482
57.785 16.881994
57.790 17.10681
57.795 16.928268
57.800 16.97385
57.805 16.962454
57.810 16.990364
57.815 16.581886
57.820 16.113575
57.825 16.088655
57.830 15.853055
57.835 16.040766
57.840 16.04225
57.845 15.721385
57.850 15.631886
57.855 16.030231
57.860 16.193876
57.865 16.713749
57.870 16.44261
57.875 15.912464
57.880 15.75392
57.885 15.391392
57.890 14.856435
57.895 14.904616
57.900 14.915682
57.905 15.610173
57.910 15.618644
57.915 15.555233
57.920 15.822205
57.925 16.225765
57.930 15.671391
57.935 15.849344
57.940 16.067162
57.945 16.439152
57.950 16.522409
57.955 16.780005
57.960 16.471241
57.965 16.947495
57.970 16.376173
57.975 16.026672
57.980 16.563873
57.985 16.587339
57.990 15.793078
57.995 15.630271
58.000 15.355597
58.005 15.574272
58.010 15.78609
58.015 15.751766
58.020 16.362936
58.025 17.160494
58.030 17.972246
58.035 18.258623
58.040 18.420134
58.045 18.559507
58.050 18.477888
58.055 18.588142
58.060 18.716835
58.065 18.441381
58.070 18.337416
58.075 18.270433
58.080 17.982492
58.085 17.697893
58.090 17.168777
58.095 17.059572
58.100 17.154894
58.105 17.231964
58.110 17.263145
58.115 17.075022
58.120 16.976936
58.125 17.384716
58.130 17.284863
58.135 17.373932
58.140 17.242865
58.145 17.641083
58.150 18.407711
58.155 18.77787
58.160 18.961182
58.165 19.577103
58.170 19.755884
58.175 20.344286
58.180 20.074684
58.185 19.800573
58.190 19.754978
58.195 19.513378
58.200 18.938505
58.205 18.821505
58.210 18.906712
58.215 18.425478
58.220 18.404705
58.225 18.004826
58.230 17.61484
58.235 17.398693
58.240 16.671
58.245 16.411318
58.250 17.146736
58.255 17.096062
58.260 17.319099
58.265 17.749485
58.270 18.155643
58.275 18.760086
58.280 19.026785
58.285 18.696857
58.290 18.458105
58.295 18.021784
58.300 18.187296
58.305 17.867319
58.310 18.024746
58.315 18.556313
58.320 18.666143
58.325 18.866274
58.330 19.392006
58.335 19.463091
58.340 19.88497
58.345 20.056688
58.350 19.086647
58.355 19.721294
58.360 19.985905
58.365 20.379799
58.370 20.787838
58.375 21.172131
58.380 21.382542
58.385 22.778669
58.390 23.394974
58.395 23.78002
58.400 23.411299
58.405 23.235313
58.410 22.770269
58.415 22.48704
58.420 21.822412
58.425 21.311394
58.430 22.070898
58.435 22.428915
58.440 22.687971
58.445 22.959352
58.450 23.406185
58.455 24.36237
58.460 25.474556
