!@!!GADDS PLOTSO FILE: Chi integration type
!@!!Title/SampleName: map-d7
!@!!Comment: ?
!@!!User: Bruker Instrument Administrator
!@!!Site: University of Illinois Chicago
!@!!Frame: map-d7_01_000.gfrm
!@!!Wavelengths    1.54184   1.54056   1.54439
!@!!Frame angles: 2Theta: 63.000 Omega: 50.000 Phi: 0.000 Chi: 90.000
!@!!Integration range: 2Theta: 53.000 to 73.000  Gamma: -105.000 to -75.000
!@!!Integration method: bin normalized
!@!N
!@!SS
!@!M
!@!L 0.0 0.0 0.0 0.0
!@!XDegrees
!@!YCounts
53.000 11.484974
53.005 11.052563
53.010 10.681415
53.015 10.596043
53.020 10.3106
53.025 9.954628
53.030 9.901927
53.035 10.154774
53.040 9.809499
53.045 9.524214
53.050 9.427123
53.055 9.49399
53.060 9.87866
53.065 9.551552
53.070 9.809044
53.075 10.292047
53.080 10.712223
53.085 11.082184
53.090 11.042332
53.095 10.920043
53.100 10.711508
53.105 10.54488
53.110 11.115182
53.115 11.652195
53.120 11.75015
53.125 11.583222
53.130 11.470111
53.135 11.821406
53.140 12.00401
53.145 11.417238
53.150 11.348156
53.155 11.405924
53.160 11.283511
53.165 11.177418
53.170 10.58285
53.175 9.97226
53.180 9.527773
53.185 8.927912
53.190 9.207712
53.195 9.078008
53.200 8.954771
53.205 9.253786
53.210 9.123289
53.215 8.860872
53.220 9.119112
53.225 8.718383
53.230 8.670735
53.235 8.853086
53.240 8.89198
53.245 9.259939
53.250 9.62723
53.255 9.717856
53.260 10.524979
53.265 10.631376
53.270 10.617121
53.275 10.510116
53.280 10.627378
53.285 10.955041
53.290 10.602036
53.295 10.161798
53.300 9.859879
53.305 9.579293
53.310 10.052129
53.315 9.858899
53.320 9.584354
53.325 9.74961
53.330 10.041803
53.335 10.5626
53.340 10.662222
53.345 10.458689
53.350 10.600344
53.355 10.55273
53.360 10.212428
53.365 10.188307
53.370 10.401465
53.375 10.459595
53.380 10.012914
53.385 10.040919
53.390 9.858824
53.395 9.882732
53.400 9.512667
53.405 9.327004
53.410 9.46055
53.415 9.583934
53.420 9.450944
53.425 9.979756
53.430 9.912242
53.435 9.569127
53.440 9.477604
53.445 9.209485
53.450 9.377098
53.455 9.40061
53.460 9.14968
53.465 9.513193
53.470 10.365533
53.475 10.645362
53.480 11.065424
53.485 11.079853
53.490 11.148882
53.495 10.908051
53.500 10.862448
53.505 10.589653
53.510 10.267735
53.515 9.745291
53.520 9.790335
53.525 9.718988
53.530 9.879297
53.535 9.713719
53.540 9.909133
53.545 9.864214
53.550 9.78932
53.555 9.792508
53.560 10.13627
53.565 10.006778
53.570 9.527084
53.575 9.722622
53.580 10.125524
53.585 10.039124
53.590 10.516443
53.595 10.727581
53.600 11.16687
53.605 11.496923
53.610 11.062589
53.615 11.256007
53.620 11.316279
53.625 10.35025
53.630 10.055937
53.635 10.50655
53.640 11.099201
53.645 11.461224
53.650 11.307775
53.655 11.607976
53.660 12.453347
53.665 12.17485
53.670 11.462633
53.675 10.845567
53.680 11.005384
53.685 11.311485
53.690 11.367054
53.695 10.72223
53.700 10.730487
53.705 11.073543
53.710 11.57269
53.715 11.209929
53.720 10.949463
53.725 10.795989
53.730 10.899943
53.735 10.892339
53.740 10.887371
53.745 10.538333
53.750 10.925137
53.755 11.397408
53.760 11.85178
53.765 12.404291
53.770 12.539285
53.775 12.239148
53.780 12.186349
53.785 12.07346
53.790 11.848166
53.795 11.940413
53.800 12.317314
53.805 12.516759
53.810 12.735928
53.815 12.781359
53.820 12.345933
53.825 12.036929
53.830 11.287214
53.835 10.727469
53.840 10.363124
53.845 10.364844
53.850 10.356229
53.855 10.831603
53.860 10.655654
53.865 11.022861
53.870 11.389745
53.875 11.4203
53.880 11.309907
53.885 11.366991
53.890 11.075276
53.895 10.8446
53.900 10.773121
53.905 10.881815
53.910 11.036159
53.915 11.257205
53.920 11.558295
53.925 12.116214
53.930 12.889709
53.935 13.083765
53.940 12.639524
53.945 12.512564
53.950 12.004919
53.955 11.660767
53.960 11.782913
53.965 11.851029
53.970 11.383537
53.975 11.207937
53.980 11.270992
53.985 11.823753
53.990 11.844478
53.995 11.648294
54.000 11.298189
54.005 11.431061
54.010 11.78775
54.015 11.906862
54.020 11.535937
54.025 11.392399
54.030 11.40733
54.035 11.814893
54.040 12.272881
54.045 12.167167
54.050 12.254167
54.055 12.186002
54.060 12.082353
54.065 12.186646
54.070 12.043077
54.075 11.962052
54.080 12.35331
54.085 12.436071
54.090 12.495327
54.095 12.343192
54.100 12.324298
54.105 12.168867
54.110 12.045299
54.115 12.125096
54.120 12.043878
54.125 12.22446
54.130 11.965556
54.135 12.010866
54.140 12.549152
54.145 12.835221
54.150 12.572027
54.155 12.96346
54.160 12.897071
54.165 12.773055
54.170 12.078735
54.175 11.816817
54.180 11.438177
54.185 11.395892
54.190 11.170065
54.195 11.018413
54.200 11.113129
54.205 11.357081
54.210 11.331081
54.215 11.722159
54.220 12.21738
54.225 12.461947
54.230 12.73712
54.235 13.324215
54.240 12.950865
54.245 12.822326
54.250 11.982153
54.255 11.181784
54.260 10.897084
54.265 10.548388
54.270 10.89896
54.275 11.110927
54.280 10.762847
54.285 10.718099
54.290 11.187582
54.295 11.726619
54.300 11.854535
54.305 11.379403
54.310 11.542487
54.315 11.671474
54.320 11.742591
54.325 11.650686
54.330 11.059228
54.335 10.998158
54.340 10.989902
54.345 11.134048
54.350 11.292106
54.355 11.480973
54.360 11.807454
54.365 12.193096
54.370 12.263018
54.375 12.218509
54.380 12.299389
54.385 12.101018
54.390 11.661979
54.395 11.422544
54.400 11.44272
54.405 11.226049
54.410 10.876238
54.415 10.902873
54.420 11.366247
54.425 11.454325
54.430 10.801019
54.435 10.601614
54.440 11.345957
54.445 11.462668
54.450 10.965182
54.455 10.656895
54.460 10.991394
54.465 11.354818
54.470 11.461206
54.475 11.435333
54.480 11.37594
54.485 11.306551
54.490 11.372089
54.495 11.698607
54.500 11.347601
54.505 10.487432
54.510 10.695929
54.515 11.074888
54.520 11.420047
54.525 11.145611
54.530 10.67359
54.535 10.868696
54.540 10.985675
54.545 10.421193
54.550 10.397544
54.555 10.190999
54.560 10.365704
54.565 10.768782
54.570 11.241528
54.575 11.712939
54.580 11.933604
54.585 11.620162
54.590 11.467968
54.595 11.522542
54.600 11.445154
54.605 10.97823
54.610 10.492193
54.615 10.597767
54.620 10.972425
54.625 11.209681
54.630 11.451222
54.635 11.704771
54.640 12.133769
54.645 12.232412
54.650 12.706886
54.655 13.013904
54.660 13.088295
54.665 12.703382
54.670 12.762761
54.675 13.134686
54.680 13.130072
54.685 12.602158
54.690 12.616289
54.695 12.27971
54.700 12.363327
54.705 11.681518
54.710 11.381353
54.715 11.897965
54.720 11.423462
54.725 11.148985
54.730 11.320835
54.735 11.353231
54.740 12.021341
54.745 12.59992
54.750 12.707847
54.755 13.665252
54.760 14.563703
54.765 15.066907
54.770 15.110819
54.775 14.430636
54.780 13.493803
54.785 12.718995
54.790 12.025346
54.795 11.939042
54.800 12.142485
54.805 12.313055
54.810 12.354491
54.815 12.508403
54.820 12.383723
54.825 12.128075
54.830 11.632231
54.835 11.519605
54.840 11.503724
54.845 11.787667
54.850 12.657549
54.855 13.545576
54.860 13.683866
54.865 13.726369
54.870 13.789158
54.875 13.726535
54.880 13.597537
54.885 13.243819
54.890 12.920022
54.895 13.220616
54.900 13.244871
54.905 13.030905
54.910 13.100809
54.915 12.887733
54.920 12.751478
54.925 12.817034
54.930 12.458787
54.935 12.335094
54.940 12.883279
54.945 13.244795
54.950 13.693741
54.955 13.692065
54.960 13.769977
54.965 13.347938
54.970 12.837198
54.975 12.237991
54.980 11.910541
54.985 11.705857
54.990 11.912941
54.995 12.071517
55.000 12.54495
55.005 12.803358
55.010 12.884383
55.015 13.621489
55.020 13.970812
55.025 13.620733
55.030 13.614374
55.035 13.787216
55.040 13.997168
55.045 14.019631
55.050 12.921357
55.055 12.768983
55.060 13.407478
55.065 12.980503
55.070 13.076899
55.075 13.095301
55.080 13.016056
55.085 13.06236
55.090 12.404102
55.095 11.877557
55.100 12.107116
55.105 11.985445
55.110 11.837108
55.115 11.77984
55.120 11.955266
55.125 12.272632
55.130 12.048289
55.135 12.009357
55.140 11.994726
55.145 12.278202
55.150 12.459354
55.155 12.028595
55.160 11.966341
55.165 12.098042
55.170 11.79824
55.175 11.426648
55.180 10.775934
55.185 10.808206
55.190 11.863195
55.195 11.863086
55.200 12.093626
55.205 12.923238
55.210 13.385025
55.215 13.739715
55.220 13.859751
55.225 13.542035
55.230 13.912627
55.235 13.966452
55.240 13.51897
55.245 13.84917
55.250 14.007831
55.255 14.449383
55.260 14.766792
55.265 14.993938
55.270 15.405011
55.275 15.688155
55.280 15.494426
55.285 14.952385
55.290 13.943129
55.295 13.502497
55.300 13.090691
55.305 12.34997
55.310 11.960921
55.315 11.836035
55.320 11.442133
55.325 11.520582
55.330 11.427267
55.335 11.263929
55.340 11.300389
55.345 11.648851
55.350 11.707745
55.355 12.691372
55.360 13.180165
55.365 12.749637
55.370 12.674347
55.375 12.254751
55.380 12.069799
55.385 11.95741
55.390 11.978074
55.395 12.193981
55.400 12.601034
55.405 12.935043
55.410 13.153376
55.415 13.407579
55.420 13.446393
55.425 12.668172
55.430 13.113437
55.435 13.440007
55.440 13.5874
55.445 13.667567
55.450 13.862473
55.455 14.005223
55.460 13.741935
55.465 13.251211
55.470 13.825799
55.475 13.378648
55.480 13.34611
55.485 13.61864
55.490 14.020163
55.495 13.937531
55.500 13.767725
55.505 13.285277
55.510 13.827818
55.515 13.740396
55.520 13.015364
55.525 13.000268
55.530 13.20216
55.535 12.77824
55.540 12.530812
55.545 11.948528
55.550 11.640212
55.555 11.980558
55.560 11.783324
55.565 11.842986
55.570 12.115407
55.575 12.025953
55.580 12.438316
55.585 12.737915
55.590 12.358715
55.595 12.581105
55.600 12.523964
55.605 12.765506
55.610 13.2328
55.615 13.461544
55.620 13.428628
55.625 13.479207
55.630 14.070593
55.635 14.014706
55.640 14.037695
55.645 13.928213
55.650 14.223722
55.655 14.478877
55.660 14.352628
55.665 14.266992
55.670 14.92082
55.675 15.14687
55.680 14.766652
55.685 14.474484
55.690 14.474044
55.695 14.35964
55.700 13.656286
55.705 13.175365
55.710 13.199608
55.715 13.524873
55.720 13.434834
55.725 13.797766
55.730 14.23499
55.735 13.993113
55.740 13.593053
55.745 12.896557
55.750 12.203604
55.755 11.824877
55.760 11.038884
55.765 11.125062
55.770 11.711811
55.775 12.132203
55.780 12.9223
55.785 12.986393
55.790 13.239765
55.795 13.273017
55.800 12.835998
55.805 12.592229
55.810 12.144835
55.815 12.515701
55.820 13.414077
55.825 13.337344
55.830 13.682442
55.835 14.34208
55.840 14.535607
55.845 14.955497
55.850 14.468049
55.855 14.492649
55.860 14.707912
55.865 14.322525
55.870 13.790994
55.875 13.735415
55.880 13.300204
55.885 13.582262
55.890 13.012599
55.895 12.917967
55.900 12.849282
55.905 12.706617
55.910 12.839842
55.915 12.871877
55.920 12.552307
55.925 12.950058
55.930 13.29224
55.935 13.390926
55.940 13.560042
55.945 13.597512
55.950 13.408222
55.955 13.323818
55.960 13.488701
55.965 13.421987
55.970 13.492645
55.975 13.444206
55.980 13.294635
55.985 13.313206
55.990 12.808159
55.995 12.480172
56.000 12.119783
56.005 12.134233
56.010 12.524347
56.015 12.638735
56.020 12.946804
56.025 14.10354
56.030 14.115814
56.035 14.033289
56.040 13.660345
56.045 12.951429
56.050 12.670024
56.055 12.364381
56.060 11.702659
56.065 11.459036
56.070 11.903289
56.075 12.049012
56.080 12.116721
56.085 11.820124
56.090 11.889092
56.095 12.141828
56.100 12.367658
56.105 12.854073
56.110 12.945462
56.115 12.879889
56.120 13.063855
56.125 12.815393
56.130 12.792925
56.135 12.468984
56.140 11.966393
56.145 12.201041
56.150 12.204967
56.155 12.227346
56.160 11.931815
56.165 12.252743
56.170 13.431129
56.175 13.440364
56.180 12.988729
56.185 13.75642
56.190 13.953819
56.195 14.933311
56.200 15.214815
56.205 15.043102
56.210 15.450368
56.215 16.452875
56.220 16.01259
56.225 16.380667
56.230 16.362394
56.235 15.999929
56.240 15.8237
56.245 15.637462
56.250 14.940465
56.255 14.61885
56.260 13.620969
56.265 12.921532
56.270 13.125184
56.275 13.219846
56.280 13.009664
56.285 13.206753
56.290 13.903991
56.295 14.528852
56.300 14.399158
56.305 13.959276
56.310 13.530268
56.315 13.697379
56.320 13.848861
56.325 13.735085
56.330 13.752151
56.335 14.159863
56.340 13.61917
56.345 13.658342
56.350 13.422201
56.355 13.209874
56.360 12.963844
56.365 12.588183
56.370 12.757005
56.375 13.443116
56.380 13.806557
56.385 13.878178
56.390 13.63956
56.395 13.67384
56.400 13.983524
56.405 13.576322
56.410 13.659276
56.415 13.712653
56.420 14.21903
56.425 14.453135
56.430 14.84117
56.435 14.85189
56.440 15.102913
56.445 15.201822
56.450 15.225757
56.455 14.766239
56.460 15.049899
56.465 14.633665
56.470 14.672403
56.475 14.475336
56.480 14.253628
56.485 14.09835
56.490 14.94324
56.495 14.901205
56.500 15.088563
56.505 14.923741
56.510 14.49836
56.515 14.363587
56.520 14.81992
56.525 14.305519
56.530 13.915018
56.535 13.774477
56.540 13.871708
56.545 13.685066
56.550 13.808903
56.555 13.450993
56.560 13.17969
56.565 13.268349
56.570 13.310667
56.575 13.39537
56.580 13.686647
56.585 13.482316
56.590 13.581214
56.595 13.554536
56.600 13.955973
56.605 13.799748
56.610 13.957509
56.615 14.119206
56.620 13.834589
56.625 13.446319
56.630 13.165171
56.635 12.491953
56.640 12.433676
56.645 12.42914
56.650 12.412528
56.655 12.445432
56.660 13.089568
56.665 13.956044
56.670 14.25817
56.675 14.50038
56.680 14.729651
56.685 14.537313
56.690 14.515954
56.695 14.07678
56.700 14.034997
56.705 14.637931
56.710 14.870516
56.715 14.67673
56.720 15.562294
56.725 16.032413
56.730 16.507021
56.735 16.892851
56.740 16.638363
56.745 16.599033
56.750 16.589911
56.755 16.058197
56.760 16.073486
56.765 15.341947
56.770 14.757903
56.775 14.738738
56.780 15.185812
56.785 15.13798
56.790 14.367136
56.795 14.216279
56.800 14.775032
56.805 14.787204
56.810 14.860207
56.815 14.870995
56.820 15.201528
56.825 15.428219
56.830 14.988285
56.835 14.954268
56.840 15.156074
56.845 14.921545
56.850 14.33195
56.855 14.329449
56.860 14.460213
56.865 14.528122
56.870 14.444462
56.875 13.826121
56.880 13.577205
56.885 13.797567
56.890 13.683882
56.895 14.003889
56.900 14.127505
56.905 14.32951
56.910 14.404693
56.915 14.196354
56.920 14.049113
56.925 13.995926
56.930 13.536507
56.935 12.929913
56.940 12.344215
56.945 12.507027
56.950 12.96839
56.955 13.449265
56.960 13.788867
56.965 14.179702
56.970 14.599024
56.975 15.299293
56.980 15.406646
56.985 14.870037
56.990 14.615515
56.995 14.801478
57.000 14.758219
57.005 14.840212
57.010 14.263413
57.015 14.484953
57.020 14.627234
57.025 15.126386
57.030 14.903091
57.035 15.050852
57.040 14.916204
57.045 14.832658
57.050 14.805346
57.055 14.245666
57.060 14.228493
57.065 14.251134
57.070 14.632397
57.075 14.802497
57.080 15.557762
57.085 15.873795
57.090 16.387691
57.095 15.528683
57.100 15.087532
57.105 15.023363
57.110 14.665462
57.115 14.105818
57.120 13.904829
57.125 13.458398
57.130 13.65082
57.135 13.871794
57.140 13.568487
57.145 13.845375
57.150 14.114675
57.155 14.419897
57.160 14.747969
57.165 15.059558
57.170 15.186069
57.175 15.273871
57.180 14.905437
57.185 14.241172
57.190 13.862542
57.195 13.970098
57.200 13.996362
57.205 14.088878
57.210 14.527539
57.215 14.837994
57.220 15.133614
57.225 15.05225
57.230 14.548016
57.235 14.352555
57.240 14.185312
57.245 14.017694
57.250 14.595722
57.255 15.161737
57.260 15.787513
57.265 16.108099
57.270 16.095697
57.275 15.955816
57.280 15.593956
57.285 15.506245
57.290 14.749759
57.295 14.432295
57.300 15.148301
57.305 15.380989
57.310 15.855662
57.315 16.921854
57.320 17.20326
57.325 17.841505
57.330 17.742634
57.335 17.157051
57.340 16.9181
57.345 16.689421
57.350 15.504986
57.355 14.643946
57.360 14.497682
57.365 14.687964
57.370 14.694343
57.375 14.854073
57.380 15.062075
57.385 15.564495
57.390 15.885274
57.395 15.78091
57.400 15.5907
57.405 15.644237
57.410 15.610924
57.415 15.271979
57.420 15.020281
57.425 15.011987
57.430 14.451066
57.435 14.590645
57.440 15.056196
57.445 15.156276
57.450 15.473951
57.455 15.349643
57.460 15.041484
57.465 15.322048
57.470 14.864682
57.475 14.52895
57.480 14.421676
57.485 14.274691
57.490 14.6097
57.495 14.818504
57.500 14.56452
57.505 13.970082
57.510 13.718191
57.515 13.841018
57.520 13.82481
57.525 13.79195
57.530 13.726135
57.535 14.283473
57.540 15.129916
57.545 15.41223
57.550 15.406581
57.555 15.475261
57.560 15.698566
57.565 15.844127
57.570 16.109838
57.575 16.104237
57.580 15.943962
57.585 15.810954
57.590 15.821633
57.595 16.030416
57.600 16.341408
57.605 16.386049
57.610 16.424492
57.615 16.695486
57.620 16.921728
57.625 17.152586
57.630 16.985912
57.635 17.141277
57.640 16.871195
57.645 16.275209
57.650 15.678098
57.655 15.408455
57.660 15.24186
57.665 14.937399
57.670 14.478085
57.675 14.779255
57.680 15.253186
57.685 15.768932
57.690 16.088943
57.695 15.784124
57.700 15.443555
57.705 15.207586
57.710 14.50647
57.715 14.434308
57.720 14.086563
57.725 13.933573
57.730 14.385835
57.735 14.556279
57.740 14.355009
57.745 14.236334
57.750 14.135109
57.755 14.148396
57.760 13.827864
57.765 13.312199
57.770 13.580181
57.775 14.034005
57.780 14.217785
57.785 14.466514
57.790 14.421749
57.795 14.332743
57.800 14.225805
57.805 14.091644
57.810 14.566466
57.815 14.764817
57.820 14.648708
57.825 14.319657
57.830 14.456118
57.835 14.544866
57.840 14.078247
57.845 13.703825
57.850 13.889018
57.855 13.963931
57.860 13.994636
57.865 13.803176
57.870 14.147992
57.875 14.539708
57.880 14.297097
57.885 14.276206
57.890 13.926246
57.895 14.479696
57.900 14.665705
57.905 14.398931
57.910 14.34371
57.915 14.720278
57.920 15.222925
57.925 15.77187
57.930 15.680138
57.935 16.318977
57.940 16.896801
57.945 17.179798
57.950 16.594671
57.955 16.106737
57.960 15.916908
57.965 15.550508
57.970 15.763085
57.975 15.77707
57.980 15.407948
57.985 15.55083
57.990 15.473165
57.995 16.076378
58.000 16.407143
58.005 15.733088
58.010 15.57031
58.015 15.899735
58.020 15.838212
58.025 15.869421
58.030 15.86672
58.035 16.539669
58.040 16.72443
58.045 17.196125
58.050 17.648119
58.055 18.079605
58.060 18.348747
58.065 17.725388
58.070 17.294758
58.075 17.785704
58.080 17.649845
58.085 17.411386
58.090 17.27943
58.095 16.629044
58.100 16.757715
58.105 16.457775
58.110 16.315943
58.115 16.307451
58.120 16.440214
58.125 16.082096
58.130 16.205894
58.135 16.264765
58.140 16.64381
58.145 16.15489
58.150 15.528435
58.155 15.157875
58.160 15.261018
58.165 15.39653
58.170 15.628674
58.175 15.291875
58.180 14.845587
58.185 15.207541
58.190 15.92021
58.195 16.839149
58.200 17.152493
58.205 16.985092
58.210 16.96385
58.215 16.906162
58.220 16.64637
58.225 16.106901
58.230 15.839286
58.235 15.659912
58.240 15.633574
58.245 15.39975
58.250 15.417102
58.255 15.494505
58.260 15.161412
58.265 14.993546
58.270 14.820315
58.275 14.55666
58.280 14.865712
58.285 14.90653
58.290 14.618009
58.295 15.166816
58.300 15.457631
58.305 15.783462
58.310 16.100016
58.315 16.030226
58.320 16.33231
58.325 16.689922
58.330 16.582861
58.335 16.254223
58.340 15.745416
58.345 15.617887
58.350 15.996822
58.355 16.153252
58.360 16.366346
58.365 16.044863
58.370 15.569484
58.375 15.586579
58.380 15.314966
58.385 15.082598
58.390 15.57806
58.395 15.576562
58.400 15.232968
58.405 16.036995
58.410 16.250853
58.415 16.324472
58.420 16.004786
58.425 15.898116
58.430 15.835982
58.435 16.668325
58.440 17.091196
58.445 17.041592
58.450 17.136454
58.455 16.851133
58.460 16.873495
