!@!!GADDS PLOTSO FILE: Chi integration type
!@!!Title/SampleName: map-9a
!@!!Comment: ?
!@!!User: Bruker Instrument Administrator
!@!!Site: University of Illinois Chicago
!@!!Frame: map-9a_01_000.gfrm
!@!!Wavelengths    1.54184   1.54056   1.54439
!@!!Frame angles: 2Theta: 63.000 Omega: 50.000 Phi: 0.000 Chi: 90.000
!@!!Integration range: 2Theta: 53.000 to 73.000  Gamma: -105.000 to -75.000
!@!!Integration method: bin normalized
!@!N
!@!SS
!@!M
!@!L 0.0 0.0 0.0 0.0
!@!XDegrees
!@!YCounts
53.000 7.211305
53.005 7.409792
53.010 7.653326
53.015 7.804206
53.020 8.007145
53.025 7.842491
53.030 7.908333
53.035 7.738019
53.040 8.047059
53.045 8.448324
53.050 8.802911
53.055 8.719983
53.060 8.726638
53.065 8.477241
53.070 8.447743
53.075 8.1755
53.080 8.233241
53.085 8.118634
53.090 8.290896
53.095 8.644284
53.100 8.99517
53.105 8.817423
53.110 8.367527
53.115 7.637419
53.120 7.646103
53.125 7.715327
53.130 7.70308
53.135 7.775799
53.140 8.233607
53.145 8.728349
53.150 9.358521
53.155 9.320301
53.160 9.349446
53.165 9.41624
53.170 9.33942
53.175 8.77804
53.180 8.609085
53.185 8.3546
53.190 8.33351
53.195 7.937202
53.200 7.766087
53.205 7.940806
53.210 8.311687
53.215 8.197363
53.220 8.378934
53.225 8.587564
53.230 8.914215
53.235 8.913034
53.240 8.605742
53.245 8.494957
53.250 8.534448
53.255 8.138885
53.260 8.078509
53.265 8.136003
53.270 8.293229
53.275 8.534321
53.280 8.886443
53.285 9.073876
53.290 9.233351
53.295 8.470493
53.300 8.402568
53.305 8.495971
53.310 8.493272
53.315 7.978203
53.320 7.368738
53.325 7.384729
53.330 8.055794
53.335 8.08205
53.340 7.917505
53.345 7.891887
53.350 8.370715
53.355 8.716692
53.360 8.470411
53.365 8.102255
53.370 8.215632
53.375 8.157465
53.380 8.208019
53.385 8.123556
53.390 8.305846
53.395 8.474396
53.400 8.350887
53.405 8.419697
53.410 8.484452
53.415 8.721077
53.420 8.978936
53.425 8.979711
53.430 9.459305
53.435 9.517748
53.440 9.48576
53.445 9.803566
53.450 9.460768
53.455 9.890486
53.460 9.732399
53.465 9.170684
53.470 9.233154
53.475 9.091495
53.480 8.605578
53.485 8.329995
53.490 7.961195
53.495 8.138574
53.500 8.239738
53.505 8.290195
53.510 8.667289
53.515 9.053447
53.520 9.332648
53.525 9.585263
53.530 9.774704
53.535 10.21175
53.540 10.29863
53.545 10.200213
53.550 10.32275
53.555 10.056648
53.560 10.256805
53.565 10.65855
53.570 10.386696
53.575 10.096948
53.580 10.238873
53.585 10.425355
53.590 10.773065
53.595 10.540905
53.600 10.131145
53.605 9.842458
53.610 9.717834
53.615 9.137233
53.620 8.933784
53.625 8.366128
53.630 8.374516
53.635 8.427796
53.640 8.739609
53.645 8.831988
53.650 8.671135
53.655 8.662441
53.660 8.898396
53.665 8.820012
53.670 8.930011
53.675 8.67336
53.680 9.199709
53.685 9.497092
53.690 9.333947
53.695 9.474287
53.700 9.562328
53.705 9.388547
53.710 9.409037
53.715 9.160048
53.720 9.213081
53.725 9.410351
53.730 9.023675
53.735 9.150567
53.740 9.347716
53.745 9.357123
53.750 9.585407
53.755 9.532558
53.760 9.44671
53.765 9.147466
53.770 9.140885
53.775 9.020265
53.780 8.909494
53.785 8.572862
53.790 8.431968
53.795 8.707299
53.800 9.067913
53.805 9.414298
53.810 9.613708
53.815 9.922076
53.820 10.130983
53.825 10.09384
53.830 9.893917
53.835 10.244803
53.840 10.158872
53.845 10.309039
53.850 9.963345
53.855 9.86649
53.860 10.310551
53.865 10.332842
53.870 10.077673
53.875 10.432338
53.880 10.568656
53.885 10.701345
53.890 10.80371
53.895 10.634831
53.900 10.417354
53.905 10.087364
53.910 9.548491
53.915 9.412042
53.920 9.572318
53.925 9.590022
53.930 9.691826
53.935 9.866959
53.940 9.993882
53.945 9.981622
53.950 9.744325
53.955 9.453329
53.960 9.318527
53.965 8.976261
53.970 8.881222
53.975 8.803717
53.980 8.595974
53.985 8.774992
53.990 8.843274
53.995 8.608623
54.000 8.645921
54.005 8.192168
54.010 8.149044
54.015 8.221797
54.020 8.213806
54.025 8.711419
54.030 9.064906
54.035 9.038787
54.040 8.98801
54.045 8.908046
54.050 9.092707
54.055 8.95771
54.060 8.561951
54.065 8.821782
54.070 8.687386
54.075 9.013326
54.080 9.220863
54.085 9.07865
54.090 8.857931
54.095 8.418522
54.100 9.11171
54.105 9.341879
54.110 9.512907
54.115 9.584396
54.120 9.855506
54.125 10.313125
54.130 10.406545
54.135 9.945037
54.140 9.995252
54.145 9.81678
54.150 9.562389
54.155 9.444536
54.160 9.119833
54.165 8.956696
54.170 8.615563
54.175 8.923332
54.180 9.03439
54.185 9.469665
54.190 9.566759
54.195 10.152882
54.200 10.672359
54.205 10.826048
54.210 10.872367
54.215 11.167501
54.220 10.724998
54.225 10.951818
54.230 10.826249
54.235 10.728985
54.240 10.386677
54.245 10.105912
54.250 9.865358
54.255 9.872225
54.260 9.419361
54.265 8.823653
54.270 8.707657
54.275 8.942635
54.280 8.98609
54.285 8.970543
54.290 9.393287
54.295 9.494058
54.300 9.806458
54.305 9.736048
54.310 9.938815
54.315 9.66909
54.320 9.822843
54.325 9.48842
54.330 9.757832
54.335 9.816856
54.340 10.502385
54.345 10.863729
54.350 11.446685
54.355 11.256548
54.360 11.354743
54.365 11.325661
54.370 11.458042
54.375 11.000206
54.380 10.554625
54.385 10.000593
54.390 9.994893
54.395 10.054608
54.400 9.655657
54.405 9.712282
54.410 10.164199
54.415 9.899265
54.420 10.08759
54.425 10.040899
54.430 10.17552
54.435 10.046692
54.440 9.819646
54.445 9.588335
54.450 9.737329
54.455 9.591523
54.460 9.594812
54.465 9.651307
54.470 10.435416
54.475 9.963921
54.480 10.045985
54.485 10.584006
54.490 10.941526
54.495 10.93116
54.500 10.247601
54.505 10.490456
54.510 10.737756
54.515 10.647694
54.520 9.976494
54.525 9.641564
54.530 10.177835
54.535 10.19743
54.540 9.632863
54.545 9.664096
54.550 9.758766
54.555 10.335491
54.560 10.226227
54.565 10.152755
54.570 10.299192
54.575 10.629786
54.580 10.910203
54.585 10.937845
54.590 10.817759
54.595 11.388171
54.600 11.219863
54.605 11.382751
54.610 11.37494
54.615 11.495631
54.620 12.003346
54.625 11.606865
54.630 11.202363
54.635 11.216391
54.640 10.682261
54.645 10.357616
54.650 9.818919
54.655 9.434883
54.660 9.83028
54.665 9.670046
54.670 9.783179
54.675 9.65558
54.680 9.63476
54.685 9.7103
54.690 9.424214
54.695 9.228215
54.700 9.663567
54.705 10.123511
54.710 10.259684
54.715 10.496646
54.720 10.721908
54.725 11.225234
54.730 11.076908
54.735 10.728448
54.740 10.427352
54.745 10.36193
54.750 10.358944
54.755 10.307194
54.760 9.907072
54.765 9.909968
54.770 10.197145
54.775 10.523914
54.780 10.744952
54.785 10.207126
54.790 10.278364
54.795 10.570869
54.800 10.581993
54.805 10.385997
54.810 9.970812
54.815 9.702768
54.820 9.699571
54.825 9.390453
54.830 9.357273
54.835 9.589069
54.840 9.701074
54.845 10.21876
54.850 11.020913
54.855 11.187867
54.860 11.387343
54.865 11.332488
54.870 11.065899
54.875 10.929666
54.880 10.711386
54.885 10.400308
54.890 10.606012
54.895 10.650572
54.900 10.905766
54.905 11.461585
54.910 11.911823
54.915 12.13811
54.920 11.978126
54.925 11.604236
54.930 11.622746
54.935 11.515871
54.940 10.989375
54.945 10.645075
54.950 10.603574
54.955 10.619445
54.960 10.932646
54.965 10.756523
54.970 10.610709
54.975 10.814932
54.980 10.858393
54.985 10.597489
54.990 10.414892
54.995 10.335736
55.000 10.01042
55.005 10.406446
55.010 10.186711
55.015 9.740478
55.020 9.631679
55.025 9.839252
55.030 10.213869
55.035 10.060162
55.040 9.765476
55.045 10.446288
55.050 10.890202
55.055 11.112798
55.060 11.171675
55.065 11.097544
55.070 11.225148
55.075 11.447112
55.080 11.130253
55.085 11.199956
55.090 11.040246
55.095 10.252254
55.100 10.175997
55.105 10.078038
55.110 9.88658
55.115 9.546796
55.120 9.656328
55.125 9.480275
55.130 10.344451
55.135 10.80069
55.140 10.904323
55.145 10.807366
55.150 11.201575
55.155 11.412606
55.160 11.542407
55.165 11.208784
55.170 11.346828
55.175 11.1804
55.180 11.538506
55.185 11.502243
55.190 11.481757
55.195 11.899466
55.200 12.006911
55.205 12.121286
55.210 12.370882
55.215 12.299286
55.220 12.081421
55.225 11.67733
55.230 11.074648
55.235 10.888331
55.240 10.615505
55.245 10.528822
55.250 10.529181
55.255 10.371945
55.260 10.199132
55.265 10.153726
55.270 10.342818
55.275 10.437117
55.280 10.083728
55.285 10.009553
55.290 10.044475
55.295 10.147964
55.300 10.37296
55.305 10.64542
55.310 10.572727
55.315 10.745984
55.320 11.066983
55.325 11.737891
55.330 11.950402
55.335 11.504808
55.340 11.136976
55.345 10.831353
55.350 10.60357
55.355 10.373155
55.360 9.919989
55.365 9.907116
55.370 9.506045
55.375 9.841817
55.380 10.554299
55.385 10.481945
55.390 10.083156
55.395 10.474368
55.400 10.595986
55.405 10.768914
55.410 10.428527
55.415 10.709526
55.420 10.939061
55.425 11.404056
55.430 11.260775
55.435 11.412025
55.440 11.33113
55.445 11.575878
55.450 11.601733
55.455 11.531677
55.460 11.405573
55.465 11.08001
55.470 10.965765
55.475 11.063375
55.480 10.803194
55.485 10.290741
55.490 10.495219
55.495 10.793367
55.500 11.566002
55.505 12.009425
55.510 11.953739
55.515 12.492884
55.520 12.767633
55.525 12.861815
55.530 12.904708
55.535 12.272812
55.540 11.932722
55.545 11.665865
55.550 11.389997
55.555 11.393332
55.560 11.044662
55.565 10.889016
55.570 11.064712
55.575 10.977757
55.580 11.46013
55.585 11.359583
55.590 11.17072
55.595 10.885902
55.600 10.564563
55.605 10.422264
55.610 10.519887
55.615 10.136804
55.620 10.206164
55.625 10.443688
55.630 11.033014
55.635 11.416394
55.640 11.632698
55.645 11.492524
55.650 12.05485
55.655 11.873746
55.660 11.693848
55.665 11.275907
55.670 11.112331
55.675 11.219655
55.680 10.836507
55.685 10.322482
55.690 10.711578
55.695 10.934499
55.700 10.726771
55.705 10.264899
55.710 10.022438
55.715 10.059929
55.720 10.218939
55.725 9.880318
55.730 9.679835
55.735 10.033117
55.740 10.037272
55.745 9.983336
55.750 10.406151
55.755 10.153214
55.760 10.138073
55.765 10.178347
55.770 10.595307
55.775 10.644245
55.780 11.142588
55.785 10.964983
55.790 11.041166
55.795 10.759071
55.800 10.875652
55.805 11.009928
55.810 10.949195
55.815 10.839272
55.820 10.899175
55.825 11.280738
55.830 11.727519
55.835 11.666258
55.840 11.751911
55.845 12.311827
55.850 12.713374
55.855 12.56146
55.860 12.506577
55.865 12.398305
55.870 12.751352
55.875 12.389208
55.880 11.898161
55.885 11.382628
55.890 11.700497
55.895 11.630773
55.900 11.568162
55.905 11.628867
55.910 12.244507
55.915 12.473001
55.920 12.788417
55.925 12.480806
55.930 12.370474
55.935 12.23632
55.940 12.10351
55.945 12.184093
55.950 12.075123
55.955 11.723432
55.960 12.076509
55.965 12.074975
55.970 11.851758
55.975 11.323488
55.980 11.395278
55.985 11.611729
55.990 11.420943
55.995 10.881117
56.000 10.739785
56.005 10.706108
56.010 10.379338
56.015 9.943917
56.020 9.711041
56.025 9.965065
56.030 10.516733
56.035 10.395268
56.040 10.394373
56.045 10.350005
56.050 10.274466
56.055 10.615638
56.060 10.524033
56.065 10.279029
56.070 10.222202
56.075 10.125101
56.080 10.699457
56.085 10.398729
56.090 9.95623
56.095 10.424828
56.100 10.459249
56.105 10.601799
56.110 10.671311
56.115 10.517292
56.120 11.074328
56.125 11.381716
56.130 11.1436
56.135 11.411088
56.140 12.089787
56.145 12.497123
56.150 12.455802
56.155 12.418341
56.160 12.503359
56.165 12.684384
56.170 12.486052
56.175 12.29371
56.180 11.968476
56.185 12.10909
56.190 11.988781
56.195 11.591904
56.200 11.85429
56.205 11.894172
56.210 12.178432
56.215 12.388823
56.220 12.497693
56.225 12.929342
56.230 12.876646
56.235 12.974545
56.240 13.311436
56.245 13.373507
56.250 13.288424
56.255 12.70013
56.260 12.636828
56.265 12.622107
56.270 12.209442
56.275 12.114923
56.280 11.634031
56.285 11.441953
56.290 11.631138
56.295 11.729435
56.300 11.677444
56.305 11.931738
56.310 12.132868
56.315 12.699866
56.320 12.571856
56.325 12.465482
56.330 12.23703
56.335 12.541148
56.340 12.694856
56.345 12.163226
56.350 11.731675
56.355 11.914631
56.360 11.75934
56.365 11.527233
56.370 11.403038
56.375 11.219949
56.380 11.733412
56.385 12.081154
56.390 12.086265
56.395 12.384627
56.400 12.220485
56.405 12.3615
56.410 12.344878
56.415 12.005868
56.420 12.162949
56.425 11.848376
56.430 12.306352
56.435 12.355412
56.440 11.673301
56.445 11.29589
56.450 11.073141
56.455 11.01248
56.460 11.286996
56.465 11.00841
56.470 11.292309
56.475 11.824725
56.480 12.172413
56.485 12.516612
56.490 13.084238
56.495 13.366399
56.500 13.218572
56.505 13.021275
56.510 12.895943
56.515 12.639934
56.520 12.766777
56.525 12.133584
56.530 12.016596
56.535 12.389208
56.540 12.187477
56.545 11.951709
56.550 12.211738
56.555 12.054946
56.560 12.072396
56.565 11.707362
56.570 11.402918
56.575 11.476405
56.580 11.288527
56.585 10.714857
56.590 11.010747
56.595 11.058046
56.600 11.342052
56.605 11.363269
56.610 11.664411
56.615 12.143859
56.620 12.367473
56.625 11.953411
56.630 12.123211
56.635 11.985398
56.640 12.015801
56.645 11.785152
56.650 11.822472
56.655 11.876185
56.660 11.950104
56.665 11.731262
56.670 11.710559
56.675 12.051908
56.680 12.113576
56.685 12.101309
56.690 12.154109
56.695 12.866817
56.700 12.887027
56.705 13.349901
56.710 13.390008
56.715 13.73527
56.720 13.72835
56.725 13.860222
56.730 13.457735
56.735 13.477833
56.740 13.095833
56.745 12.951638
56.750 12.706218
56.755 12.709738
56.760 12.631131
56.765 13.609824
56.770 14.012357
56.775 14.329185
56.780 14.575924
56.785 14.95365
56.790 14.926279
56.795 14.882478
56.800 14.004603
56.805 13.859492
56.810 13.630257
56.815 13.487916
56.820 13.407804
56.825 13.14825
56.830 12.750839
56.835 12.736606
56.840 12.719961
56.845 12.565581
56.850 12.16068
56.855 11.930219
56.860 12.402787
56.865 12.701013
56.870 13.157369
56.875 13.474064
56.880 13.817746
56.885 14.552405
56.890 14.495036
56.895 14.297875
56.900 14.773948
56.905 14.305301
56.910 13.929523
56.915 13.848786
56.920 13.39819
56.925 13.541881
56.930 13.353416
56.935 12.942824
56.940 12.725226
56.945 12.760547
56.950 12.750948
56.955 12.667154
56.960 12.854195
56.965 12.46051
56.970 11.837423
56.975 12.279136
56.980 12.309117
56.985 12.669212
56.990 12.731599
56.995 12.430737
57.000 12.551479
57.005 12.854061
57.010 12.379093
57.015 12.156679
57.020 11.606128
57.025 12.259272
57.030 12.306196
57.035 12.64351
57.040 12.51559
57.045 12.555172
57.050 12.468604
57.055 12.035677
57.060 11.596168
57.065 11.821682
57.070 11.614321
57.075 12.030452
57.080 12.672384
57.085 12.913397
57.090 13.511427
57.095 13.426656
57.100 13.126192
57.105 13.037366
57.110 13.227756
57.115 12.822098
57.120 12.469894
57.125 12.090292
57.130 12.207602
57.135 12.375501
57.140 12.460321
57.145 12.314268
57.150 12.561028
57.155 12.992683
57.160 13.239614
57.165 14.174456
57.170 14.229844
57.175 14.367827
57.180 14.065897
57.185 13.949026
57.190 14.13936
57.195 13.39514
57.200 13.294118
57.205 13.727715
57.210 13.636763
57.215 13.340717
57.220 13.335484
57.225 13.236487
57.230 13.075822
57.235 12.265453
57.240 12.127527
57.245 11.909026
57.250 11.754576
57.255 11.716827
57.260 11.6646
57.265 12.311752
57.270 12.633025
57.275 12.551292
57.280 13.613869
57.285 14.573358
57.290 14.738643
57.295 15.035601
57.300 15.255706
57.305 14.946364
57.310 14.811494
57.315 14.160857
57.320 14.220439
57.325 14.114724
57.330 13.717175
57.335 13.756359
57.340 13.962737
57.345 13.664348
57.350 13.957449
57.355 13.761384
57.360 14.205579
57.365 14.329823
57.370 13.975706
57.375 13.809546
57.380 13.910245
57.385 13.272648
57.390 13.36766
57.395 13.029922
57.400 12.388715
57.405 11.966499
57.410 11.718583
57.415 11.51849
57.420 11.49716
57.425 10.98399
57.430 10.929565
57.435 11.478594
57.440 12.348544
57.445 12.974865
57.450 13.066625
57.455 12.859476
57.460 12.997889
57.465 13.14403
57.470 13.477959
57.475 13.492799
57.480 13.787672
57.485 14.28019
57.490 14.961602
57.495 14.884531
57.500 14.3589
57.505 13.909315
57.510 13.523354
57.515 13.519176
57.520 13.404522
57.525 13.266115
57.530 13.593266
57.535 14.210987
57.540 14.346397
57.545 13.943014
57.550 13.242989
57.555 12.816176
57.560 12.767517
57.565 12.990146
57.570 13.051382
57.575 13.030713
57.580 13.666945
57.585 14.097753
57.590 14.334156
57.595 14.511828
57.600 15.222226
57.605 15.158113
57.610 15.114955
57.615 14.723784
57.620 15.002915
57.625 15.408193
57.630 14.81319
57.635 13.965181
57.640 14.104844
57.645 14.376571
57.650 14.498272
57.655 14.39523
57.660 13.717898
57.665 13.808867
57.670 13.68981
57.675 13.51845
57.680 13.681863
57.685 13.743368
57.690 14.391858
57.695 15.318128
57.700 15.42038
57.705 15.579154
57.710 15.810201
57.715 15.623466
57.720 15.74178
57.725 14.987363
57.730 14.482298
57.735 14.187174
57.740 13.89595
57.745 13.678205
57.750 13.992188
57.755 13.695909
57.760 13.785079
57.765 14.113862
57.770 14.395065
57.775 14.406344
57.780 14.188901
57.785 13.824492
57.790 13.63578
57.795 13.63736
57.800 13.64364
57.805 13.709728
57.810 13.7073
57.815 13.859924
57.820 14.021687
57.825 14.39454
57.830 14.390955
57.835 14.826252
57.840 15.072599
57.845 15.124166
57.850 14.746173
57.855 14.796445
57.860 14.841169
57.865 15.279703
57.870 15.429933
57.875 15.049744
57.880 15.27058
57.885 15.52362
57.890 15.319641
57.895 15.493865
57.900 14.592734
57.905 14.249831
57.910 14.239144
57.915 14.29253
57.920 14.19962
57.925 14.198359
57.930 14.141058
57.935 14.316953
57.940 14.140633
57.945 14.134608
57.950 13.884863
57.955 13.621807
57.960 13.702362
57.965 13.815284
57.970 14.027594
57.975 14.006982
57.980 14.407801
57.985 14.905524
57.990 15.457285
57.995 15.380566
58.000 15.316233
58.005 15.413857
58.010 15.956955
58.015 16.231781
58.020 16.461233
58.025 16.283575
58.030 15.850587
58.035 15.819387
58.040 16.025646
58.045 16.020521
58.050 15.894274
58.055 15.674973
58.060 16.026937
58.065 16.250008
58.070 16.34457
58.075 16.407112
58.080 16.815626
58.085 16.858686
58.090 17.125433
58.095 16.852663
58.100 16.688076
58.105 16.485041
58.110 16.153063
58.115 15.351701
58.120 14.784542
58.125 14.585136
58.130 14.83979
58.135 15.458977
58.140 16.080341
58.145 16.660715
58.150 16.36076
58.155 16.442425
58.160 17.051544
58.165 16.861389
58.170 16.73468
58.175 16.800016
58.180 16.38579
58.185 16.541641
58.190 15.984342
58.195 15.521605
58.200 15.986006
58.205 15.950714
58.210 15.744716
58.215 15.992128
58.220 16.51137
58.225 17.387737
58.230 17.530537
58.235 17.551067
58.240 17.253277
58.245 16.851789
58.250 17.224022
58.255 17.764706
58.260 17.873413
58.265 17.813087
58.270 17.59466
58.275 18.068583
58.280 18.943405
58.285 18.599621
58.290 18.520252
58.295 18.173975
58.300 17.959284
58.305 17.605932
58.310 17.58003
58.315 17.677048
58.320 17.515247
58.325 17.146877
58.330 17.50231
58.335 18.071815
58.340 19.006094
58.345 18.860121
58.350 18.453024
58.355 18.938766
58.360 19.239769
58.365 19.17594
58.370 19.294279
58.375 19.445662
58.380 19.310574
58.385 19.354202
58.390 19.388302
58.395 19.392975
58.400 19.934486
58.405 19.775553
58.410 19.661257
58.415 20.027081
58.420 20.194609
58.425 19.925838
58.430 19.81646
58.435 19.89463
58.440 19.852003
58.445 19.886259
58.450 20.617002
58.455 21.416965
58.460 22.03787
58.465 23.380579
58.470 24.096138
58.475 25.008566
58.480 25.097975
58.485 25.391998
58.490 25.789114
58.495 25.900673
58.500 25.388409
58.505 24.974035
58.510 25.12475
58.515 25.406603
58.520 24.881397
