!@!!GADDS PLOTSO FILE: Chi integration type
!@!!Title/SampleName: map-17d
!@!!Comment: ?
!@!!User: Bruker Instrument Administrator
!@!!Site: University of Illinois Chicago
!@!!Frame: map-17d_01_000.gfrm
!@!!Wavelengths    1.54184   1.54056   1.54439
!@!!Frame angles: 2Theta: 63.000 Omega: 50.000 Phi: 0.000 Chi: 90.000
!@!!Integration range: 2Theta: 53.000 to 73.000  Gamma: -105.000 to -75.000
!@!!Integration method: bin normalized
!@!N
!@!SS
!@!M
!@!L 0.0 0.0 0.0 0.0
!@!XDegrees
!@!YCounts
53.000 7.974545
53.005 7.790065
53.010 7.964319
53.015 8.027208
53.020 7.956083
53.025 7.65712
53.030 7.75398
53.035 7.880761
53.040 7.75837
53.045 7.726664
53.050 7.5221
53.055 7.459355
53.060 8.228786
53.065 8.526249
53.070 8.866049
53.075 9.187436
53.080 9.240794
53.085 9.610065
53.090 9.981017
53.095 9.73938
53.100 9.59017
53.105 9.314483
53.110 9.095127
53.115 8.717055
53.120 8.897396
53.125 8.529631
53.130 7.94544
53.135 7.621911
53.140 7.565593
53.145 8.137892
53.150 7.903262
53.155 7.542048
53.160 7.828537
53.165 8.329411
53.170 8.588972
53.175 8.355477
53.180 8.337386
53.185 8.841075
53.190 9.128159
53.195 9.017385
53.200 9.033514
53.205 8.961477
53.210 9.000849
53.215 8.894496
53.220 8.862335
53.225 8.633631
53.230 8.491519
53.235 8.862613
53.240 8.719856
53.245 8.6756
53.250 8.505819
53.255 8.257495
53.260 8.421711
53.265 8.22512
53.270 8.303078
53.275 8.305025
53.280 8.128366
53.285 8.140895
53.290 8.043903
53.295 7.742905
53.300 7.809457
53.305 7.494553
53.310 7.554952
53.315 7.647652
53.320 7.526879
53.325 7.651365
53.330 7.993528
53.335 7.83978
53.340 8.203034
53.345 8.372949
53.350 8.552786
53.355 9.069763
53.360 9.051702
53.365 8.789331
53.370 8.773019
53.375 8.355335
53.380 8.704745
53.385 8.099006
53.390 8.123345
53.395 8.529028
53.400 8.994465
53.405 9.554973
53.410 9.867626
53.415 9.977571
53.420 10.01807
53.425 9.675488
53.430 9.214531
53.435 8.533154
53.440 8.207773
53.445 7.871339
53.450 7.430007
53.455 7.627586
53.460 7.948526
53.465 8.253422
53.470 8.637482
53.475 8.598995
53.480 8.738673
53.485 8.89896
53.490 9.095287
53.495 8.95185
53.500 8.821657
53.505 8.438768
53.510 8.747861
53.515 9.020164
53.520 8.918273
53.525 8.410755
53.530 8.887264
53.535 9.20239
53.540 9.531949
53.545 9.306024
53.550 9.579857
53.555 10.05994
53.560 10.02454
53.565 9.451097
53.570 9.133966
53.575 9.122406
53.580 8.685225
53.585 8.306518
53.590 8.070375
53.595 8.351827
53.600 8.700358
53.605 8.884141
53.610 9.081429
53.615 9.384318
53.620 9.82036
53.625 10.219662
53.630 10.509687
53.635 10.564308
53.640 10.272396
53.645 10.163087
53.650 10.206596
53.655 10.00487
53.660 9.707193
53.665 9.219417
53.670 8.741495
53.675 8.837424
53.680 8.819459
53.685 8.909181
53.690 8.991153
53.695 8.82734
53.700 9.225908
53.705 9.636414
53.710 9.60276
53.715 9.581918
53.720 9.671622
53.725 9.915236
53.730 10.109076
53.735 9.971037
53.740 9.804819
53.745 9.977218
53.750 9.828527
53.755 9.768984
53.760 9.646396
53.765 9.522231
53.770 9.795314
53.775 9.912119
53.780 10.14307
53.785 10.292598
53.790 9.905639
53.795 10.136782
53.800 10.438201
53.805 10.591741
53.810 10.928242
53.815 11.309793
53.820 11.120707
53.825 11.045809
53.830 11.277472
53.835 10.996229
53.840 10.790668
53.845 10.173903
53.850 9.437451
53.855 9.917027
53.860 10.046809
53.865 9.468849
53.870 9.316324
53.875 9.386479
53.880 9.516344
53.885 9.444445
53.890 9.527369
53.895 9.450867
53.900 9.590332
53.905 9.464799
53.910 9.061179
53.915 9.422176
53.920 9.55917
53.925 9.250216
53.930 9.34017
53.935 9.47123
53.940 9.814099
53.945 9.868937
53.950 9.919891
53.955 9.87286
53.960 9.817635
53.965 9.795051
53.970 9.723001
53.975 9.243749
53.980 9.536634
53.985 9.55552
53.990 9.497634
53.995 9.468368
54.000 9.419106
54.005 9.747005
54.010 10.076004
54.015 9.926399
54.020 9.64585
54.025 9.603575
54.030 9.52544
54.035 9.85656
54.040 9.920906
54.045 9.785046
54.050 9.744077
54.055 9.638514
54.060 9.827797
54.065 9.364455
54.070 8.818417
54.075 8.983677
54.080 9.287684
54.085 9.399574
54.090 9.438013
54.095 9.269941
54.100 9.566596
54.105 9.77357
54.110 9.690157
54.115 9.180916
54.120 9.018952
54.125 9.130416
54.130 9.221831
54.135 9.252339
54.140 8.934222
54.145 8.946593
54.150 9.284397
54.155 9.461843
54.160 9.713473
54.165 9.571078
54.170 9.189137
54.175 8.785717
54.180 8.387818
54.185 8.319535
54.190 8.991628
54.195 8.736111
54.200 8.771336
54.205 8.75018
54.210 9.243441
54.215 9.12549
54.220 8.683396
54.225 8.21321
54.230 8.47649
54.235 8.901256
54.240 8.927752
54.245 8.814799
54.250 9.128675
54.255 9.199253
54.260 9.552628
54.265 9.248222
54.270 9.044461
54.275 9.326032
54.280 9.641363
54.285 9.87935
54.290 10.071695
54.295 9.994189
54.300 10.668863
54.305 11.065987
54.310 11.116869
54.315 11.381864
54.320 11.436873
54.325 11.32112
54.330 11.189979
54.335 10.623773
54.340 10.6307
54.345 10.525328
54.350 10.263362
54.355 10.334374
54.360 10.504624
54.365 10.715673
54.370 10.493458
54.375 10.000698
54.380 9.971235
54.385 9.650117
54.390 9.408102
54.395 9.325057
54.400 9.424132
54.405 9.676056
54.410 10.111146
54.415 9.917877
54.420 10.247486
54.425 9.98187
54.430 9.706427
54.435 9.610206
54.440 9.771745
54.445 9.849676
54.450 9.83307
54.455 9.49043
54.460 9.856861
54.465 9.93655
54.470 9.377352
54.475 8.927668
54.480 8.603448
54.485 8.820635
54.490 9.187391
54.495 8.974869
54.500 9.129116
54.505 9.593961
54.510 9.692414
54.515 9.778374
54.520 9.738041
54.525 9.659443
54.530 10.020151
54.535 10.516309
54.540 10.378655
54.545 9.81874
54.550 9.921306
54.555 9.835931
54.560 9.663137
54.565 9.332588
54.570 8.81872
54.575 8.908183
54.580 9.605788
54.585 9.242357
54.590 8.983379
54.595 8.923882
54.600 8.683115
54.605 9.352587
54.610 9.607668
54.615 9.45635
54.620 9.869987
54.625 10.083858
54.630 10.067711
54.635 10.237465
54.640 9.76399
54.645 9.802198
54.650 9.866897
54.655 9.842957
54.660 10.075661
54.665 10.453776
54.670 10.246321
54.675 10.85577
54.680 11.476031
54.685 11.533474
54.690 11.996397
54.695 11.717152
54.700 11.538527
54.705 11.724464
54.710 10.922086
54.715 10.500271
54.720 10.538416
54.725 10.193999
54.730 10.158131
54.735 10.117474
54.740 10.331028
54.745 10.646002
54.750 10.173
54.755 9.873638
54.760 10.085156
54.765 10.190115
54.770 10.257807
54.775 10.406236
54.780 10.694718
54.785 11.246241
54.790 11.371021
54.795 11.253166
54.800 11.009969
54.805 10.805486
54.810 10.15796
54.815 10.168377
54.820 10.337232
54.825 10.393454
54.830 10.678538
54.835 10.671599
54.840 10.442492
54.845 10.72377
54.850 10.563719
54.855 10.057302
54.860 9.755548
54.865 9.707178
54.870 10.131149
54.875 10.366136
54.880 10.474195
54.885 10.456117
54.890 11.019435
54.895 11.465958
54.900 11.585693
54.905 11.782646
54.910 11.996153
54.915 12.170578
54.920 12.409716
54.925 12.077547
54.930 11.680702
54.935 11.029205
54.940 10.324081
54.945 9.976855
54.950 9.962437
54.955 9.894076
54.960 10.212574
54.965 10.3567
54.970 10.597845
54.975 10.842029
54.980 10.880723
54.985 11.350562
54.990 11.325659
54.995 11.492351
55.000 11.800934
55.005 11.47628
55.010 11.476427
55.015 11.140162
55.020 10.586686
55.025 10.43445
55.030 10.136438
55.035 10.372555
55.040 10.487769
55.045 10.397984
55.050 10.678864
55.055 11.120615
55.060 10.617771
55.065 10.22425
55.070 9.995759
55.075 10.364382
55.080 10.712598
55.085 10.198229
55.090 10.531689
55.095 11.911596
55.100 12.338618
55.105 12.555398
55.110 12.157766
55.115 11.801469
55.120 12.219137
55.125 11.440363
55.130 10.603456
55.135 10.468098
55.140 10.794522
55.145 10.905855
55.150 10.62184
55.155 10.494401
55.160 10.788147
55.165 10.761208
55.170 10.840122
55.175 10.930105
55.180 11.619325
55.185 11.947258
55.190 11.939498
55.195 11.822157
55.200 12.02008
55.205 11.889187
55.210 11.704637
55.215 11.547175
55.220 11.291128
55.225 11.196352
55.230 10.982131
55.235 10.837363
55.240 10.831667
55.245 11.028148
55.250 10.697082
55.255 10.33481
55.260 10.261002
55.265 10.37133
55.270 10.053908
55.275 9.716524
55.280 9.285577
55.285 9.363201
55.290 9.62009
55.295 10.10043
55.300 10.487267
55.305 10.622194
55.310 10.570943
55.315 10.671379
55.320 10.988038
55.325 10.57094
55.330 9.863477
55.335 9.671229
55.340 9.910663
55.345 10.250322
55.350 10.202301
55.355 10.348235
55.360 10.744609
55.365 11.169169
55.370 10.968498
55.375 10.514468
55.380 10.450416
55.385 10.879485
55.390 10.991449
55.395 11.217072
55.400 11.059367
55.405 11.352841
55.410 11.250824
55.415 11.006678
55.420 10.510393
55.425 10.593871
55.430 10.42739
55.435 10.19481
55.440 9.905693
55.445 9.87863
55.450 9.820885
55.455 9.636316
55.460 8.837817
55.465 8.822961
55.470 9.060163
55.475 9.49182
55.480 9.570967
55.485 9.874674
55.490 10.196591
55.495 10.101089
55.500 9.937792
55.505 9.792472
55.510 9.885215
55.515 9.903835
55.520 9.610036
55.525 9.64923
55.530 10.183063
55.535 10.509536
55.540 10.335014
55.545 10.578938
55.550 10.795016
55.555 10.935229
55.560 10.64799
55.565 10.162536
55.570 10.20273
55.575 10.281154
55.580 10.238897
55.585 10.61646
55.590 10.471436
55.595 10.711645
55.600 10.819989
55.605 10.921153
55.610 11.106394
55.615 10.838943
55.620 10.729882
55.625 11.039451
55.630 10.49881
55.635 10.385242
55.640 9.891974
55.645 9.342759
55.650 8.89929
55.655 8.673794
55.660 8.587412
55.665 9.047128
55.670 9.207383
55.675 9.66124
55.680 9.867579
55.685 9.796398
55.690 9.503282
55.695 9.288784
55.700 9.426097
55.705 9.84071
55.710 10.001801
55.715 10.376637
55.720 10.754638
55.725 11.1182
55.730 11.366259
55.735 11.198315
55.740 10.588592
55.745 10.436337
55.750 10.381218
55.755 10.51554
55.760 10.751407
55.765 11.066781
55.770 11.649965
55.775 11.940906
55.780 11.844067
55.785 12.283785
55.790 11.764367
55.795 11.510499
55.800 11.468871
55.805 11.305421
55.810 11.50925
55.815 11.32462
55.820 11.393783
55.825 11.642451
55.830 11.670481
55.835 11.49924
55.840 11.091561
55.845 11.071594
55.850 11.638595
55.855 11.975746
55.860 12.400496
55.865 12.417853
55.870 12.578017
55.875 12.473311
55.880 12.754165
55.885 12.68441
55.890 12.355501
55.895 12.517841
55.900 12.438288
55.905 12.477678
55.910 12.112854
55.915 11.54881
55.920 11.094546
55.925 10.610052
55.930 10.511513
55.935 10.39306
55.940 10.435555
55.945 10.366338
55.950 10.587994
55.955 10.97059
55.960 11.347637
55.965 11.335689
55.970 11.592713
55.975 12.32308
55.980 13.107774
55.985 12.917747
55.990 13.053226
55.995 13.265217
56.000 13.114846
56.005 12.564247
56.010 12.169815
56.015 11.605364
56.020 11.519074
56.025 10.913803
56.030 10.637132
56.035 10.853253
56.040 11.25232
56.045 11.291383
56.050 11.315664
56.055 11.296954
56.060 11.137182
56.065 11.090387
56.070 10.635463
56.075 10.35646
56.080 10.461066
56.085 10.672325
56.090 10.701771
56.095 10.974419
56.100 10.89371
56.105 11.125147
56.110 11.107675
56.115 11.127207
56.120 11.002041
56.125 11.318585
56.130 11.660216
56.135 11.467368
56.140 11.49692
56.145 11.425591
56.150 11.414715
56.155 11.469215
56.160 11.065621
56.165 10.789834
56.170 11.23769
56.175 11.260447
56.180 10.957793
56.185 10.795132
56.190 10.552663
56.195 10.583831
56.200 10.539151
56.205 10.103208
56.210 10.462297
56.215 10.909068
56.220 10.978165
56.225 11.462689
56.230 11.778163
56.235 11.739001
56.240 11.932423
56.245 11.730867
56.250 11.380626
56.255 11.187357
56.260 10.979764
56.265 11.159125
56.270 11.303642
56.275 11.309566
56.280 11.62539
56.285 12.028229
56.290 12.187336
56.295 12.143312
56.300 12.108819
56.305 12.405839
56.310 12.718472
56.315 12.350368
56.320 12.700283
56.325 12.732778
56.330 12.251958
56.335 12.156794
56.340 11.876125
56.345 11.810849
56.350 11.909515
56.355 11.707571
56.360 11.981511
56.365 12.315761
56.370 12.231514
56.375 12.018114
56.380 11.688983
56.385 11.430993
56.390 11.391576
56.395 11.33968
56.400 11.898956
56.405 12.501025
56.410 12.676334
56.415 12.830705
56.420 13.248969
56.425 13.250044
56.430 13.637089
56.435 13.155819
56.440 12.681947
56.445 12.535619
56.450 12.660388
56.455 12.23294
56.460 12.476325
56.465 11.850445
56.470 11.566965
56.475 12.03013
56.480 12.281343
56.485 12.420753
56.490 12.706738
56.495 13.132306
56.500 13.454978
56.505 13.227384
56.510 12.776495
56.515 12.956252
56.520 12.430127
56.525 12.280102
56.530 11.359168
56.535 11.11817
56.540 11.456303
56.545 11.621798
56.550 11.354359
56.555 11.284569
56.560 10.978909
56.565 11.449509
56.570 11.375869
56.575 11.321981
56.580 11.288915
56.585 11.429513
56.590 11.999382
56.595 12.330971
56.600 12.5539
56.605 12.66335
56.610 12.83779
56.615 12.685298
56.620 12.50987
56.625 12.092855
56.630 11.845302
56.635 12.037359
56.640 11.958667
56.645 11.906922
56.650 11.926515
56.655 11.888721
56.660 12.142834
56.665 12.472392
56.670 12.275737
56.675 12.17735
56.680 12.000017
56.685 12.178512
56.690 12.241395
56.695 12.274108
56.700 11.647508
56.705 11.893353
56.710 12.1017
56.715 12.000533
56.720 12.096248
56.725 11.878407
56.730 11.880809
56.735 12.341893
56.740 12.006148
56.745 12.195639
56.750 12.611177
56.755 12.53501
56.760 12.833794
56.765 12.76265
56.770 12.241184
56.775 12.097966
56.780 12.200414
56.785 12.26302
56.790 12.678774
56.795 12.777424
56.800 12.142497
56.805 12.287691
56.810 12.748161
56.815 12.545967
56.820 11.733882
56.825 11.109344
56.830 11.004112
56.835 11.690747
56.840 11.714067
56.845 11.253342
56.850 11.289458
56.855 11.770732
56.860 11.739087
56.865 11.741975
56.870 12.159619
56.875 12.163528
56.880 11.786372
56.885 11.329566
56.890 11.070595
56.895 10.960843
56.900 10.648088
56.905 10.456906
56.910 10.64098
56.915 11.050096
56.920 11.152642
56.925 11.280827
56.930 11.407447
56.935 11.560645
56.940 11.669991
56.945 11.461921
56.950 11.445094
56.955 12.0609
56.960 12.13704
56.965 12.323917
56.970 12.357985
56.975 12.068974
56.980 12.118286
56.985 11.714625
56.990 11.589905
56.995 11.755312
57.000 11.896621
57.005 11.549218
57.010 11.383431
57.015 11.948545
57.020 12.640338
57.025 12.612439
57.030 12.12244
57.035 11.552143
57.040 12.138284
57.045 11.88354
57.050 11.550714
57.055 11.64083
57.060 11.847987
57.065 12.491489
57.070 12.502462
57.075 12.215627
57.080 12.396023
57.085 12.127738
57.090 12.102103
57.095 12.231191
57.100 11.903041
57.105 11.988592
57.110 12.159591
57.115 12.268559
57.120 12.475065
57.125 12.007905
57.130 11.72982
57.135 12.214597
57.140 12.465123
57.145 12.242508
57.150 11.837715
57.155 11.336334
57.160 11.244343
57.165 11.285426
57.170 11.128078
57.175 11.386217
57.180 11.45928
57.185 11.798082
57.190 11.753041
57.195 11.65946
57.200 11.927873
57.205 11.918814
57.210 11.902717
57.215 11.924687
57.220 11.774328
57.225 12.140972
57.230 12.329477
57.235 12.677166
57.240 12.358511
57.245 12.080519
57.250 12.205928
57.255 12.243961
57.260 12.586427
57.265 12.435431
57.270 12.220633
57.275 12.229889
57.280 12.135672
57.285 12.04386
57.290 12.594756
57.295 12.57355
57.300 12.751282
57.305 12.868526
57.310 13.033995
57.315 13.018014
57.320 12.825802
57.325 12.886847
57.330 13.034352
57.335 13.070242
57.340 13.33964
57.345 13.490886
57.350 13.701231
57.355 14.062888
57.360 13.742604
57.365 13.59459
57.370 13.454177
57.375 13.112301
57.380 13.267581
57.385 13.211971
57.390 12.77978
57.395 12.326783
57.400 12.30713
57.405 12.420114
57.410 12.473948
57.415 12.06902
57.420 12.006843
57.425 11.947146
57.430 12.086528
57.435 11.777976
57.440 11.671268
57.445 11.428967
57.450 11.710313
57.455 12.30413
57.460 12.193143
57.465 12.501884
57.470 12.592875
57.475 12.409731
57.480 12.586751
57.485 12.585279
57.490 12.607599
57.495 13.220548
57.500 13.0734
57.505 13.515254
57.510 13.786042
57.515 14.077324
57.520 14.028115
57.525 13.750811
57.530 13.351088
57.535 13.110668
57.540 12.400232
57.545 12.175577
57.550 12.190071
57.555 12.479604
57.560 12.870102
57.565 13.182579
57.570 13.096824
57.575 13.08787
57.580 13.106311
57.585 12.761322
57.590 12.472133
57.595 12.166525
57.600 12.362549
57.605 12.274912
57.610 12.549221
57.615 12.535656
57.620 12.591678
57.625 12.577788
57.630 12.678551
57.635 12.299274
57.640 12.461293
57.645 12.101506
57.650 11.985083
57.655 12.004298
57.660 11.850021
57.665 11.700647
57.670 12.007574
57.675 12.652587
57.680 12.995979
57.685 13.30797
57.690 13.570775
57.695 13.921862
57.700 13.98471
57.705 14.010827
57.710 13.367515
57.715 13.297237
57.720 13.352774
57.725 13.379489
57.730 13.412154
57.735 13.786525
57.740 13.945585
57.745 14.275768
57.750 14.112036
57.755 14.048017
57.760 14.094829
57.765 13.779988
57.770 13.052355
57.775 12.648695
57.780 13.074932
57.785 13.810101
57.790 13.5123
57.795 13.138939
57.800 13.658413
57.805 14.063251
57.810 14.219189
57.815 13.864596
57.820 13.684322
57.825 13.844296
57.830 13.784501
57.835 13.497077
57.840 13.889542
57.845 14.00475
57.850 13.953106
57.855 13.761128
57.860 13.94111
57.865 13.628477
57.870 13.485612
57.875 13.659111
57.880 13.861414
57.885 13.495532
57.890 13.510261
57.895 13.147941
57.900 13.405852
57.905 13.210797
57.910 12.22357
57.915 11.932233
57.920 11.885065
57.925 11.683753
57.930 11.470732
57.935 11.618878
57.940 11.791719
57.945 11.662805
57.950 11.393189
57.955 11.423165
57.960 11.397328
57.965 11.881151
57.970 11.820964
57.975 12.189294
57.980 12.663164
57.985 13.072769
57.990 13.026732
57.995 13.108324
58.000 12.814718
58.005 13.033184
58.010 13.196981
58.015 13.271067
58.020 13.324633
58.025 13.863214
58.030 14.253406
58.035 14.559013
58.040 14.859904
58.045 14.985921
58.050 15.146339
58.055 15.093631
58.060 14.601934
58.065 14.002986
58.070 13.603665
58.075 12.52164
58.080 12.138144
58.085 11.893229
58.090 11.941793
58.095 11.739065
58.100 11.853338
58.105 12.083158
58.110 12.483294
58.115 12.820962
58.120 13.514976
58.125 13.888481
58.130 14.3399
58.135 14.587647
58.140 14.802179
58.145 15.137204
58.150 14.984533
58.155 14.100292
58.160 14.009401
58.165 13.67515
58.170 13.785757
58.175 13.454376
58.180 13.329303
58.185 12.900482
58.190 12.85417
58.195 12.852493
58.200 13.431112
58.205 13.898102
58.210 14.321974
58.215 14.705112
58.220 15.258588
58.225 15.464304
58.230 15.364728
58.235 15.479304
58.240 15.616709
58.245 15.846629
58.250 15.740713
58.255 16.210432
58.260 16.753342
58.265 16.887836
58.270 16.456709
58.275 16.524353
58.280 16.653028
58.285 16.889458
58.290 16.716944
58.295 17.008661
58.300 17.189806
58.305 17.718269
58.310 17.624758
58.315 18.094431
58.320 17.656084
58.325 17.43437
58.330 17.395563
58.335 17.57633
58.340 17.233116
58.345 17.139811
58.350 17.118258
58.355 17.941532
58.360 17.902323
58.365 17.887779
58.370 18.427935
58.375 18.287148
58.380 18.249678
58.385 18.233829
58.390 18.438299
58.395 18.674784
58.400 18.334179
58.405 17.56328
58.410 17.993814
58.415 18.591805
58.420 18.959858
58.425 19.131962
58.430 19.190701
58.435 19.774765
58.440 20.235434
58.445 20.450573
58.450 20.064627
58.455 20.206636
58.460 19.73321
58.465 19.606367
58.470 20.007898
58.475 19.956234
58.480 19.398243
58.485 19.261986
58.490 18.702343
58.495 19.1007
58.500 19.506628
58.505 19.293034
58.510 19.538696
58.515 19.862328
58.520 20.399656
58.525 20.588608
58.530 20.257977
58.535 20.316154
58.540 20.215052
