!@!!GADDS PLOTSO FILE: Chi integration type
!@!!Title/SampleName: map-17c
!@!!Comment: ?
!@!!User: Bruker Instrument Administrator
!@!!Site: University of Illinois Chicago
!@!!Frame: map-17c_01_000.gfrm
!@!!Wavelengths    1.54184   1.54056   1.54439
!@!!Frame angles: 2Theta: 63.000 Omega: 50.000 Phi: 0.000 Chi: 90.000
!@!!Integration range: 2Theta: 53.000 to 73.000  Gamma: -105.000 to -75.000
!@!!Integration method: bin normalized
!@!N
!@!SS
!@!M
!@!L 0.0 0.0 0.0 0.0
!@!XDegrees
!@!YCounts
53.000 10.272161
53.005 10.246387
53.010 10.66353
53.015 10.531902
53.020 10.218204
53.025 9.993312
53.030 9.991082
53.035 9.984836
53.040 9.858922
53.045 9.313001
53.050 8.914716
53.055 9.056522
53.060 8.600553
53.065 8.152883
53.070 8.282248
53.075 8.472486
53.080 8.872658
53.085 9.115854
53.090 8.732654
53.095 8.994015
53.100 9.195344
53.105 9.868114
53.110 9.972885
53.115 10.215676
53.120 10.221421
53.125 10.920796
53.130 10.874726
53.135 10.510008
53.140 9.841674
53.145 9.638582
53.150 8.926274
53.155 8.610282
53.160 8.033681
53.165 8.236459
53.170 8.382327
53.175 8.458426
53.180 8.600596
53.185 9.094063
53.190 9.370542
53.195 9.096283
53.200 8.596689
53.205 8.540732
53.210 8.627421
53.215 8.579612
53.220 8.528889
53.225 8.679089
53.230 9.151015
53.235 9.94241
53.240 10.000469
53.245 9.800889
53.250 9.881353
53.255 9.338096
53.260 9.031817
53.265 8.77753
53.270 8.642026
53.275 8.616161
53.280 8.410296
53.285 8.442572
53.290 8.579193
53.295 8.665133
53.300 8.385981
53.305 8.281495
53.310 8.482943
53.315 8.765824
53.320 8.918139
53.325 9.180343
53.330 9.135984
53.335 9.018423
53.340 9.214777
53.345 9.019745
53.350 9.022763
53.355 9.149858
53.360 9.146124
53.365 9.447488
53.370 9.331923
53.375 9.273745
53.380 9.404928
53.385 9.360955
53.390 9.181725
53.395 9.166037
53.400 9.062292
53.405 8.885134
53.410 9.07795
53.415 9.178869
53.420 9.650217
53.425 9.990763
53.430 10.18477
53.435 10.527129
53.440 10.643378
53.445 10.332833
53.450 10.072165
53.455 10.072656
53.460 10.045531
53.465 9.86937
53.470 9.983876
53.475 10.122651
53.480 11.042224
53.485 11.306404
53.490 10.759287
53.495 10.922751
53.500 10.806582
53.505 10.992826
53.510 10.939061
53.515 10.081348
53.520 10.151793
53.525 10.323222
53.530 10.55788
53.535 10.512671
53.540 10.120892
53.545 10.213853
53.550 10.594763
53.555 10.705869
53.560 10.212993
53.565 10.02516
53.570 10.719489
53.575 11.279055
53.580 11.438123
53.585 10.688334
53.590 10.647295
53.595 11.189928
53.600 11.522099
53.605 11.016433
53.610 10.789032
53.615 11.060425
53.620 11.712295
53.625 11.598614
53.630 11.404939
53.635 10.981858
53.640 10.82293
53.645 10.318547
53.650 9.759381
53.655 9.616911
53.660 9.85408
53.665 9.403452
53.670 9.025206
53.675 9.235154
53.680 9.51217
53.685 9.539002
53.690 9.56579
53.695 9.59676
53.700 10.230605
53.705 10.24987
53.710 9.915463
53.715 9.979
53.720 10.447603
53.725 10.603954
53.730 10.660544
53.735 11.262529
53.740 11.74874
53.745 11.831444
53.750 11.564872
53.755 11.551453
53.760 11.224701
53.765 10.950863
53.770 9.960567
53.775 9.723178
53.780 9.839208
53.785 10.359765
53.790 10.020587
53.795 10.092061
53.800 10.285482
53.805 11.132993
53.810 11.555724
53.815 11.477346
53.820 11.109152
53.825 11.521709
53.830 11.834167
53.835 11.960121
53.840 11.422449
53.845 11.111441
53.850 10.984124
53.855 10.680988
53.860 10.458866
53.865 10.014772
53.870 9.892635
53.875 10.109052
53.880 10.295832
53.885 10.769226
53.890 10.982267
53.895 10.958995
53.900 11.03223
53.905 11.20245
53.910 10.919684
53.915 10.532749
53.920 10.378284
53.925 10.23337
53.930 10.185489
53.935 10.184937
53.940 10.44055
53.945 11.029246
53.950 11.25618
53.955 11.277797
53.960 11.403814
53.965 11.312392
53.970 10.602067
53.975 10.361023
53.980 10.076727
53.985 9.962079
53.990 9.647778
53.995 9.840547
54.000 10.426752
54.005 11.340963
54.010 11.28278
54.015 11.504077
54.020 11.516224
54.025 11.380645
54.030 11.317241
54.035 10.790504
54.040 10.044067
54.045 10.066169
54.050 9.835782
54.055 10.200752
54.060 10.260403
54.065 9.970578
54.070 10.225423
54.075 10.261878
54.080 10.379568
54.085 10.483853
54.090 10.795971
54.095 10.93553
54.100 11.100514
54.105 11.163522
54.110 11.028671
54.115 10.887461
54.120 10.519243
54.125 9.901141
54.130 10.295608
54.135 10.16119
54.140 10.247457
54.145 10.534822
54.150 10.621354
54.155 11.208778
54.160 11.180248
54.165 10.550774
54.170 10.250551
54.175 9.717363
54.180 9.165489
54.185 8.961905
54.190 8.554108
54.195 8.45639
54.200 8.972571
54.205 9.476262
54.210 9.695138
54.215 9.866302
54.220 9.711251
54.225 9.640977
54.230 9.81504
54.235 9.6919
54.240 9.511932
54.245 9.375238
54.250 9.154828
54.255 9.25166
54.260 9.738892
54.265 9.52879
54.270 9.351079
54.275 9.632621
54.280 9.943961
54.285 10.401096
54.290 10.777249
54.295 10.577308
54.300 10.666496
54.305 11.196805
54.310 11.180813
54.315 11.098056
54.320 10.79675
54.325 10.530751
54.330 10.585984
54.335 10.835364
54.340 10.953213
54.345 10.974442
54.350 11.371448
54.355 11.616826
54.360 11.535954
54.365 11.929833
54.370 11.99436
54.375 11.672747
54.380 11.566223
54.385 11.528626
54.390 11.341683
54.395 11.23613
54.400 10.845513
54.405 10.325334
54.410 10.486776
54.415 10.758577
54.420 10.769237
54.425 10.745873
54.430 10.29449
54.435 10.341014
54.440 10.507893
54.445 10.068868
54.450 9.553174
54.455 9.319336
54.460 9.949512
54.465 10.253019
54.470 10.101256
54.475 10.573132
54.480 11.382702
54.485 11.637964
54.490 11.448589
54.495 11.331341
54.500 11.216722
54.505 11.172174
54.510 10.578378
54.515 10.332369
54.520 10.541475
54.525 10.198794
54.530 9.816744
54.535 9.756775
54.540 9.828802
54.545 9.865738
54.550 9.50382
54.555 9.756936
54.560 10.729238
54.565 11.228551
54.570 11.61952
54.575 11.731674
54.580 11.819836
54.585 12.130579
54.590 11.714498
54.595 11.360203
54.600 11.195669
54.605 11.407184
54.610 11.675699
54.615 11.335728
54.620 11.296435
54.625 11.561607
54.630 11.774269
54.635 11.420325
54.640 10.982191
54.645 10.685277
54.650 10.640538
54.655 10.543215
54.660 10.384158
54.665 10.037464
54.670 9.98773
54.675 9.845973
54.680 10.130186
54.685 9.942688
54.690 9.897198
54.695 9.774465
54.700 9.649179
54.705 9.871039
54.710 9.939011
54.715 10.378786
54.720 10.633989
54.725 10.163613
54.730 10.420844
54.735 10.690205
54.740 10.698925
54.745 11.187531
54.750 10.936526
54.755 11.085523
54.760 10.805479
54.765 10.527781
54.770 10.834561
54.775 11.148954
54.780 10.96896
54.785 11.288343
54.790 11.758018
54.795 12.439372
54.800 12.712241
54.805 12.521766
54.810 12.522181
54.815 11.940355
54.820 11.189064
54.825 11.01815
54.830 10.500448
54.835 10.172914
54.840 9.668444
54.845 9.199229
54.850 9.457973
54.855 9.601624
54.860 9.260019
54.865 9.200454
54.870 9.025368
54.875 9.514238
54.880 10.113944
54.885 10.421884
54.890 10.789128
54.895 11.250534
54.900 11.456661
54.905 11.724533
54.910 11.560953
54.915 11.501758
54.920 11.230199
54.925 11.117841
54.930 11.034668
54.935 11.12805
54.940 11.427808
54.945 10.986222
54.950 10.816769
54.955 10.575096
54.960 10.513522
54.965 10.33385
54.970 10.18115
54.975 10.403111
54.980 10.733133
54.985 11.002519
54.990 11.550959
54.995 11.21873
55.000 11.542433
55.005 11.972734
55.010 12.122346
55.015 12.090462
55.020 11.737506
55.025 11.727901
55.030 11.989084
55.035 11.783878
55.040 11.165447
55.045 10.85118
55.050 11.074327
55.055 11.210637
55.060 11.247628
55.065 11.491923
55.070 11.910185
55.075 12.095197
55.080 11.837043
55.085 11.267789
55.090 10.816684
55.095 10.602918
55.100 10.410928
55.105 10.282925
55.110 10.234898
55.115 10.444214
55.120 10.864969
55.125 11.459953
55.130 11.54389
55.135 11.36435
55.140 11.23336
55.145 11.406873
55.150 11.270978
55.155 10.707334
55.160 10.499466
55.165 10.570427
55.170 10.691662
55.175 10.506706
55.180 9.905793
55.185 9.641226
55.190 9.849027
55.195 9.766747
55.200 9.531465
55.205 9.268971
55.210 9.589741
55.215 10.242524
55.220 10.94228
55.225 11.777315
55.230 12.202404
55.235 12.462946
55.240 12.832264
55.245 12.768207
55.250 12.720683
55.255 12.63739
55.260 11.932543
55.265 11.969517
55.270 11.949265
55.275 11.625794
55.280 11.617205
55.285 11.638927
55.290 11.28303
55.295 11.394688
55.300 11.676768
55.305 12.02564
55.310 12.035269
55.315 11.984893
55.320 12.268745
55.325 11.912284
55.330 11.601915
55.335 11.061179
55.340 10.80557
55.345 10.734558
55.350 10.353264
55.355 10.213459
55.360 10.987426
55.365 10.895403
55.370 11.115526
55.375 11.862918
55.380 12.353505
55.385 12.43236
55.390 12.100208
55.395 12.125016
55.400 12.250267
55.405 12.024383
55.410 11.696301
55.415 11.566525
55.420 12.126042
55.425 11.819995
55.430 10.932398
55.435 10.559507
55.440 10.419761
55.445 10.674363
55.450 10.706284
55.455 10.774831
55.460 11.561466
55.465 12.551937
55.470 12.845846
55.475 12.566133
55.480 12.021049
55.485 11.416512
55.490 11.1879
55.495 11.006415
55.500 10.576241
55.505 10.803757
55.510 11.176474
55.515 11.494219
55.520 11.963531
55.525 11.64222
55.530 10.996238
55.535 11.23067
55.540 10.81691
55.545 10.636958
55.550 10.689512
55.555 10.975213
55.560 11.251948
55.565 11.915685
55.570 11.725676
55.575 11.419966
55.580 11.53265
55.585 11.415225
55.590 11.245892
55.595 11.487062
55.600 11.036006
55.605 11.071789
55.610 11.33364
55.615 11.227493
55.620 11.675142
55.625 12.04614
55.630 12.143758
55.635 12.735133
55.640 12.657919
55.645 12.195753
55.650 12.247135
55.655 11.986925
55.660 11.603601
55.665 11.802339
55.670 11.756217
55.675 11.965954
55.680 12.251836
55.685 12.098319
55.690 12.364987
55.695 12.678394
55.700 12.092061
55.705 11.745741
55.710 11.973261
55.715 12.069019
55.720 12.104637
55.725 11.697344
55.730 11.745742
55.735 12.115733
55.740 12.356207
55.745 12.258192
55.750 12.248674
55.755 12.202084
55.760 11.953343
55.765 11.422932
55.770 11.00194
55.775 10.900788
55.780 11.317466
55.785 11.285438
55.790 11.256339
55.795 11.554919
55.800 11.8275
55.805 12.12667
55.810 12.006419
55.815 12.190282
55.820 12.319213
55.825 12.203773
55.830 12.3363
55.835 12.692118
55.840 12.624426
55.845 13.100446
55.850 12.767588
55.855 12.597879
55.860 13.342074
55.865 13.121948
55.870 13.005684
55.875 12.917544
55.880 12.351778
55.885 11.646777
55.890 11.19449
55.895 10.87276
55.900 10.8443
55.905 10.917442
55.910 11.053016
55.915 11.42768
55.920 12.227787
55.925 12.203514
55.930 11.862808
55.935 11.954309
55.940 11.848317
55.945 12.034211
55.950 12.370465
55.955 11.911317
55.960 12.022841
55.965 12.327928
55.970 12.451598
55.975 12.439542
55.980 12.240172
55.985 11.980946
55.990 12.674483
55.995 12.510771
56.000 12.226933
56.005 12.161623
56.010 12.10542
56.015 11.912761
56.020 12.043119
56.025 11.594455
56.030 11.812276
56.035 12.015687
56.040 12.088327
56.045 11.756901
56.050 11.770303
56.055 11.710256
56.060 11.687865
56.065 11.878123
56.070 11.844869
56.075 11.939724
56.080 12.152445
56.085 12.104795
56.090 12.214472
56.095 12.102548
56.100 11.722045
56.105 11.695655
56.110 11.207205
56.115 11.221313
56.120 11.117149
56.125 11.609239
56.130 11.494898
56.135 11.37943
56.140 11.714198
56.145 12.016521
56.150 12.111669
56.155 12.177727
56.160 12.026696
56.165 12.140171
56.170 12.579147
56.175 12.240882
56.180 12.031576
56.185 12.305696
56.190 12.267691
56.195 12.510854
56.200 12.805161
56.205 12.540712
56.210 12.375908
56.215 12.553286
56.220 11.8393
56.225 11.936006
56.230 11.819181
56.235 11.811341
56.240 11.660497
56.245 11.891164
56.250 11.983693
56.255 12.214827
56.260 12.609586
56.265 12.40696
56.270 12.428898
56.275 12.595967
56.280 12.379499
56.285 12.561194
56.290 12.760862
56.295 12.458591
56.300 12.378808
56.305 12.21863
56.310 11.75561
56.315 11.491163
56.320 11.164161
56.325 11.076707
56.330 11.181675
56.335 11.134031
56.340 11.437414
56.345 12.035569
56.350 12.656316
56.355 12.664868
56.360 12.183314
56.365 12.448676
56.370 13.057007
56.375 13.54983
56.380 13.321729
56.385 12.763505
56.390 12.563322
56.395 12.553472
56.400 12.452356
56.405 12.496819
56.410 12.111636
56.415 11.974133
56.420 12.103532
56.425 12.08474
56.430 12.114015
56.435 12.011584
56.440 11.996202
56.445 12.630322
56.450 13.340246
56.455 14.002338
56.460 14.677322
56.465 14.992054
56.470 14.631042
56.475 14.093683
56.480 13.298927
56.485 12.997378
56.490 13.151134
56.495 12.580581
56.500 12.39989
56.505 12.30834
56.510 12.587914
56.515 12.869238
56.520 12.497866
56.525 12.242993
56.530 12.886223
56.535 12.86645
56.540 12.967865
56.545 12.755159
56.550 12.603172
56.555 12.731712
56.560 12.912114
56.565 12.539387
56.570 12.078526
56.575 11.755129
56.580 11.991446
56.585 11.814416
56.590 11.799623
56.595 11.471278
56.600 11.584152
56.605 12.000496
56.610 12.348363
56.615 12.142738
56.620 12.949059
56.625 12.95085
56.630 13.110452
56.635 13.247968
56.640 13.467885
56.645 13.45376
56.650 13.524813
56.655 12.849591
56.660 12.444843
56.665 12.158329
56.670 11.795049
56.675 11.469245
56.680 11.211441
56.685 11.172864
56.690 11.489667
56.695 12.002649
56.700 11.99179
56.705 12.119962
56.710 12.03242
56.715 12.119183
56.720 12.424706
56.725 12.596923
56.730 12.658402
56.735 12.8203
56.740 12.870037
56.745 12.885309
56.750 12.908261
56.755 12.887401
56.760 12.734665
56.765 12.376984
56.770 12.328633
56.775 12.313153
56.780 13.116208
56.785 13.506519
56.790 13.61199
56.795 13.706895
56.800 14.37069
56.805 14.67356
56.810 14.887008
56.815 14.105021
56.820 13.930081
56.825 13.820973
56.830 13.27991
56.835 12.827675
56.840 12.434344
56.845 12.143446
56.850 12.008325
56.855 11.597213
56.860 11.180722
56.865 11.664615
56.870 11.830172
56.875 11.909898
56.880 11.705297
56.885 11.623044
56.890 11.819139
56.895 12.111806
56.900 11.67871
56.905 11.344024
56.910 11.698747
56.915 12.315579
56.920 12.436785
56.925 12.665716
56.930 12.85208
56.935 13.468184
56.940 13.555965
56.945 13.267696
56.950 13.017535
56.955 12.673238
56.960 12.266251
56.965 12.449685
56.970 12.474421
56.975 12.997583
56.980 13.389382
56.985 13.686399
56.990 14.068342
56.995 14.186304
57.000 13.880692
57.005 13.667631
57.010 13.856463
57.015 13.707532
57.020 13.658092
57.025 13.576806
57.030 13.487168
57.035 13.783102
57.040 13.909567
57.045 13.253167
57.050 13.51076
57.055 13.738301
57.060 13.410398
57.065 13.156693
57.070 13.246089
57.075 13.444938
57.080 13.720257
57.085 13.234142
57.090 12.814855
57.095 13.03548
57.100 12.591803
57.105 11.899241
57.110 11.914717
57.115 11.757282
57.120 11.817438
57.125 12.336374
57.130 12.526944
57.135 12.830776
57.140 13.276731
57.145 12.982627
57.150 13.022573
57.155 12.859352
57.160 12.487225
57.165 12.837396
57.170 13.13448
57.175 13.443918
57.180 13.31166
57.185 13.458239
57.190 13.290364
57.195 13.277476
57.200 13.272502
57.205 12.859945
57.210 12.326077
57.215 12.028043
57.220 11.881942
57.225 12.167145
57.230 11.980755
57.235 11.817415
57.240 12.209449
57.245 12.308064
57.250 12.734897
57.255 13.349107
57.260 13.760886
57.265 14.178941
57.270 13.958644
57.275 13.850361
57.280 14.181711
57.285 14.31795
57.290 14.410571
57.295 14.066026
57.300 14.023851
57.305 14.008224
57.310 14.121733
57.315 14.284866
57.320 14.518909
57.325 14.25306
57.330 14.216858
57.335 14.052269
57.340 14.113037
57.345 14.005923
57.350 13.581178
57.355 13.258796
57.360 13.863422
57.365 13.991453
57.370 14.265441
57.375 14.066582
57.380 14.564901
57.385 15.116313
57.390 15.663393
57.395 15.587701
57.400 15.796282
57.405 15.723829
57.410 15.699763
57.415 14.967309
57.420 14.158705
57.425 13.363323
57.430 13.18237
57.435 13.034035
57.440 13.342006
57.445 13.502081
57.450 13.498199
57.455 13.142924
57.460 12.961274
57.465 12.690548
57.470 12.534513
57.475 12.506531
57.480 12.663739
57.485 13.405951
57.490 13.881744
57.495 13.99333
57.500 13.861957
57.505 14.252779
57.510 14.753881
57.515 14.981734
57.520 14.95155
57.525 15.141104
57.530 14.782226
57.535 14.797065
57.540 14.453764
57.545 14.423193
57.550 14.500005
57.555 14.265823
57.560 14.267922
57.565 14.372338
57.570 14.546357
57.575 14.49391
57.580 13.622105
57.585 13.348648
57.590 13.781349
57.595 13.978297
57.600 14.14362
57.605 14.185598
57.610 14.10826
57.615 14.435026
57.620 14.474823
57.625 14.010402
57.630 13.928591
57.635 13.886113
57.640 13.923576
57.645 14.265895
57.650 14.403782
57.655 14.440074
57.660 14.076632
57.665 14.255639
57.670 14.271764
57.675 13.97429
57.680 13.563678
57.685 13.273461
57.690 13.458445
57.695 14.184207
57.700 14.024168
57.705 14.15071
57.710 14.758456
57.715 15.291153
57.720 15.623351
57.725 15.46245
57.730 14.740263
57.735 15.193181
57.740 15.280405
57.745 14.63118
57.750 14.46535
57.755 14.181858
57.760 14.217203
57.765 14.575979
57.770 14.216065
57.775 14.22897
57.780 14.297935
57.785 14.284914
57.790 14.720093
57.795 14.546486
57.800 14.30418
57.805 14.371851
57.810 14.675124
57.815 14.656268
57.820 14.383508
57.825 14.265726
57.830 14.621716
57.835 14.850925
57.840 14.811121
57.845 14.501743
57.850 14.593451
57.855 14.427273
57.860 14.06701
57.865 13.352008
57.870 12.861309
57.875 12.264836
57.880 12.030332
57.885 12.125801
57.890 12.085068
57.895 12.602818
57.900 13.348422
57.905 13.888474
57.910 13.926411
57.915 14.001038
57.920 13.949149
57.925 14.131988
57.930 14.006618
57.935 13.660755
57.940 13.989761
57.945 14.154065
57.950 14.025355
57.955 14.074622
57.960 14.033999
57.965 14.213475
57.970 14.522936
57.975 14.118277
57.980 14.310068
57.985 14.79556
57.990 14.832314
57.995 14.714522
58.000 14.186641
58.005 13.623105
58.010 13.941751
58.015 14.184253
58.020 13.99506
58.025 14.193471
58.030 14.487646
58.035 14.822924
58.040 15.62064
58.045 15.571495
58.050 15.513956
58.055 15.676579
58.060 15.335788
58.065 15.206002
58.070 14.978093
58.075 14.677546
58.080 15.040236
58.085 15.573174
58.090 15.388851
58.095 15.592327
58.100 15.693792
58.105 15.882567
58.110 15.485277
58.115 15.004435
58.120 14.447648
58.125 14.382217
58.130 14.43327
58.135 14.811005
58.140 15.383027
58.145 16.132467
58.150 16.593027
58.155 16.682104
58.160 16.910038
58.165 17.194693
58.170 17.091475
58.175 17.140078
58.180 16.923826
58.185 16.187849
58.190 15.982023
58.195 16.340395
58.200 16.080515
58.205 15.911503
58.210 15.906079
58.215 16.022676
58.220 16.794231
58.225 17.070168
58.230 17.063055
58.235 17.640781
58.240 18.153839
58.245 17.682243
58.250 17.5718
58.255 17.230669
58.260 17.39595
58.265 17.130056
58.270 16.882755
58.275 16.571043
58.280 17.163733
58.285 17.662193
58.290 17.943489
58.295 18.201431
58.300 18.166443
58.305 18.37295
58.310 18.412603
58.315 18.756424
58.320 18.915895
58.325 19.07571
58.330 18.924595
58.335 19.083075
58.340 19.458111
58.345 20.123495
58.350 19.827471
58.355 19.86557
58.360 20.355911
58.365 21.148497
58.370 21.417162
58.375 21.227381
58.380 20.824734
58.385 21.143381
58.390 21.577518
58.395 21.63537
58.400 21.193665
58.405 21.254808
58.410 21.324265
58.415 21.595915
58.420 22.235567
58.425 22.580172
58.430 22.278416
58.435 22.216028
58.440 22.453402
58.445 23.017569
58.450 22.973837
58.455 22.812078
58.460 22.917934
58.465 23.699236
58.470 24.500454
58.475 24.330086
58.480 23.68811
58.485 24.107063
