!@!!GADDS PLOTSO FILE: Chi integration type
!@!!Title/SampleName: map-7
!@!!Comment: ?
!@!!User: Bruker Instrument Administrator
!@!!Site: University of Illinois Chicago
!@!!Frame: map-7_01_000.gfrm
!@!!Wavelengths    1.54184   1.54056   1.54439
!@!!Frame angles: 2Theta: 63.000 Omega: 50.000 Phi: 0.000 Chi: 90.000
!@!!Integration range: 2Theta: 53.000 to 73.000  Gamma: -105.000 to -75.000
!@!!Integration method: bin normalized
!@!N
!@!SS
!@!M
!@!L 0.0 0.0 0.0 0.0
!@!XDegrees
!@!YCounts
53.000 7.783758
53.005 7.558546
53.010 7.44152
53.015 7.382913
53.020 7.722118
53.025 7.710559
53.030 7.496666
53.035 7.432342
53.040 7.731005
53.045 7.756932
53.050 7.3882
53.055 7.287492
53.060 7.42642
53.065 8.010503
53.070 8.267323
53.075 8.222372
53.080 8.432004
53.085 8.857446
53.090 8.719279
53.095 8.486835
53.100 8.327825
53.105 8.166694
53.110 8.247259
53.115 8.287096
53.120 7.865595
53.125 7.93099
53.130 8.204883
53.135 8.355643
53.140 8.770826
53.145 8.487112
53.150 8.602777
53.155 8.977798
53.160 8.702464
53.165 8.191521
53.170 8.009871
53.175 7.508285
53.180 7.489287
53.185 7.319174
53.190 7.129852
53.195 7.240092
53.200 7.196891
53.205 7.136133
53.210 7.232512
53.215 7.434203
53.220 7.640291
53.225 7.528376
53.230 8.038717
53.235 8.615752
53.240 8.957007
53.245 9.153344
53.250 9.247269
53.255 9.754191
53.260 10.058415
53.265 9.708324
53.270 9.190538
53.275 8.952502
53.280 8.814262
53.285 8.471138
53.290 8.16875
53.295 7.771162
53.300 8.054214
53.305 8.012243
53.310 8.0216
53.315 8.154502
53.320 8.444343
53.325 8.018926
53.330 7.896136
53.335 7.650753
53.340 7.898301
53.345 7.947955
53.350 7.93915
53.355 8.475896
53.360 9.302051
53.365 9.375554
53.370 9.272439
53.375 9.065169
53.380 9.011423
53.385 8.324984
53.390 7.862172
53.395 7.645726
53.400 7.610977
53.405 7.636625
53.410 7.817978
53.415 8.083969
53.420 8.19265
53.425 8.071661
53.430 7.998633
53.435 7.974016
53.440 7.963512
53.445 7.868383
53.450 7.897345
53.455 7.866329
53.460 7.707903
53.465 7.67945
53.470 7.872686
53.475 7.989832
53.480 7.815603
53.485 8.078389
53.490 8.16223
53.495 8.359939
53.500 8.368122
53.505 8.277757
53.510 8.106928
53.515 7.904382
53.520 7.575768
53.525 7.928664
53.530 7.73738
53.535 7.853016
53.540 8.22256
53.545 8.480706
53.550 8.735689
53.555 8.798434
53.560 8.533381
53.565 8.529366
53.570 8.313806
53.575 8.167126
53.580 8.47375
53.585 8.619232
53.590 9.215448
53.595 9.347178
53.600 9.369071
53.605 9.446046
53.610 9.315742
53.615 9.144365
53.620 9.038161
53.625 8.762443
53.630 9.011344
53.635 8.816734
53.640 8.715405
53.645 8.669573
53.650 8.448516
53.655 7.982044
53.660 7.539927
53.665 7.636683
53.670 8.09329
53.675 8.00572
53.680 8.219099
53.685 8.476714
53.690 8.785955
53.695 9.001788
53.700 9.243905
53.705 9.418327
53.710 9.667315
53.715 9.633146
53.720 9.653537
53.725 9.446793
53.730 9.308911
53.735 9.090479
53.740 8.969932
53.745 8.661014
53.750 8.963141
53.755 9.262564
53.760 9.633608
53.765 9.698644
53.770 9.690888
53.775 10.003866
53.780 10.448813
53.785 10.263909
53.790 10.217273
53.795 10.528996
53.800 11.025149
53.805 10.96292
53.810 10.525351
53.815 10.083454
53.820 10.217448
53.825 10.563486
53.830 9.785331
53.835 9.631813
53.840 9.720773
53.845 9.817547
53.850 9.926653
53.855 9.399552
53.860 9.063627
53.865 9.26663
53.870 9.195065
53.875 9.178915
53.880 9.354774
53.885 9.378288
53.890 9.593346
53.895 9.428135
53.900 9.005758
53.905 8.827468
53.910 8.5439
53.915 8.551034
53.920 8.563713
53.925 8.544121
53.930 8.938402
53.935 9.208648
53.940 9.314672
53.945 9.570656
53.950 9.60151
53.955 9.662062
53.960 9.679176
53.965 9.313254
53.970 8.934643
53.975 8.93335
53.980 8.598097
53.985 8.613585
53.990 8.816437
53.995 8.936803
54.000 9.404995
54.005 10.099813
54.010 10.383883
54.015 10.739336
54.020 10.508695
54.025 10.424756
54.030 10.314859
54.035 10.193646
54.040 9.516488
54.045 8.787131
54.050 8.686101
54.055 8.916127
54.060 8.908142
54.065 9.024923
54.070 9.016058
54.075 9.43682
54.080 9.753065
54.085 9.584328
54.090 9.077451
54.095 8.666603
54.100 7.99007
54.105 8.387516
54.110 8.991314
54.115 9.598019
54.120 9.516386
54.125 9.635296
54.130 10.313091
54.135 10.744732
54.140 10.107559
54.145 9.670926
54.150 9.52561
54.155 9.919043
54.160 9.805037
54.165 9.917964
54.170 10.115005
54.175 10.147718
54.180 10.280849
54.185 10.511863
54.190 10.669598
54.195 10.827922
54.200 10.26109
54.205 10.80939
54.210 11.210094
54.215 10.876412
54.220 10.543767
54.225 10.499505
54.230 10.532888
54.235 11.317005
54.240 11.070397
54.245 10.74253
54.250 10.518906
54.255 10.516589
54.260 10.687033
54.265 10.195994
54.270 9.981177
54.275 9.998393
54.280 10.233897
54.285 10.678281
54.290 10.606271
54.295 10.620163
54.300 10.673991
54.305 10.267354
54.310 10.667395
54.315 10.477505
54.320 10.486491
54.325 10.801628
54.330 11.053247
54.335 10.94888
54.340 10.72
54.345 10.357103
54.350 10.382623
54.355 10.412705
54.360 10.132821
54.365 9.966454
54.370 10.461761
54.375 10.421057
54.380 10.29431
54.385 9.872635
54.390 9.626163
54.395 9.419574
54.400 9.471843
54.405 8.393759
54.410 8.214781
54.415 8.10203
54.420 8.344546
54.425 8.334756
54.430 8.326366
54.435 8.465855
54.440 9.164231
54.445 9.326846
54.450 9.821947
54.455 9.388046
54.460 9.632773
54.465 9.169277
54.470 9.339846
54.475 9.499449
54.480 9.671422
54.485 9.480463
54.490 9.873175
54.495 9.569505
54.500 9.309544
54.505 9.070883
54.510 9.592702
54.515 10.002152
54.520 9.65168
54.525 9.677799
54.530 9.926209
54.535 10.427535
54.540 10.089105
54.545 9.32046
54.550 9.096465
54.555 9.582241
54.560 10.00833
54.565 10.004628
54.570 9.454265
54.575 9.622777
54.580 9.972211
54.585 10.349491
54.590 10.13293
54.595 9.952005
54.600 10.390175
54.605 10.555161
54.610 10.43339
54.615 10.442922
54.620 10.495502
54.625 10.459841
54.630 10.364487
54.635 10.324716
54.640 10.928883
54.645 11.198144
54.650 10.702445
54.655 10.046782
54.660 10.077339
54.665 9.957973
54.670 9.698698
54.675 9.356283
54.680 9.195127
54.685 9.591353
54.690 10.106327
54.695 10.136573
54.700 10.254189
54.705 10.368533
54.710 9.702369
54.715 9.972227
54.720 9.816103
54.725 9.763663
54.730 10.177494
54.735 10.315396
54.740 10.371256
54.745 10.60008
54.750 10.588726
54.755 10.492877
54.760 10.336721
54.765 10.134098
54.770 10.207281
54.775 10.100706
54.780 9.644589
54.785 9.443274
54.790 9.613017
54.795 9.422344
54.800 9.482072
54.805 9.424406
54.810 10.011896
54.815 10.569938
54.820 10.828075
54.825 11.131158
54.830 11.170826
54.835 11.095372
54.840 11.155075
54.845 10.976758
54.850 10.776315
54.855 10.278429
54.860 10.04455
54.865 10.230156
54.870 10.435062
54.875 11.103958
54.880 11.195962
54.885 11.113236
54.890 11.41396
54.895 11.105455
54.900 10.819383
54.905 10.527944
54.910 10.236034
54.915 10.783037
54.920 10.887258
54.925 10.864409
54.930 10.746064
54.935 10.921463
54.940 10.734832
54.945 10.119715
54.950 9.602715
54.955 9.805031
54.960 10.165412
54.965 10.2569
54.970 10.051296
54.975 10.187829
54.980 10.270159
54.985 10.486856
54.990 10.526031
54.995 10.093324
55.000 10.144029
55.005 10.011949
55.010 9.982468
55.015 9.877835
55.020 9.709501
55.025 9.682886
55.030 9.970304
55.035 10.064734
55.040 10.472121
55.045 10.700923
55.050 11.015365
55.055 11.073081
55.060 10.921846
55.065 11.207328
55.070 11.098185
55.075 11.129414
55.080 11.025352
55.085 11.100274
55.090 11.066729
55.095 11.232332
55.100 11.358666
55.105 11.756651
55.110 11.609892
55.115 11.430908
55.120 11.092089
55.125 11.595778
55.130 11.690619
55.135 11.431911
55.140 10.998967
55.145 10.739494
55.150 10.813725
55.155 10.628197
55.160 10.169613
55.165 9.749077
55.170 9.836654
55.175 10.208273
55.180 10.653192
55.185 10.667581
55.190 10.62792
55.195 10.921236
55.200 11.173956
55.205 11.169472
55.210 11.065041
55.215 11.001934
55.220 11.386979
55.225 11.196086
55.230 10.568696
55.235 10.60936
55.240 10.239461
55.245 10.272153
55.250 10.142941
55.255 9.66577
55.260 10.372768
55.265 10.715879
55.270 10.899976
55.275 10.833632
55.280 10.5004
55.285 10.462942
55.290 10.454517
55.295 10.302886
55.300 10.247888
55.305 10.388095
55.310 10.426878
55.315 10.439407
55.320 10.941798
55.325 11.436073
55.330 11.222141
55.335 11.106553
55.340 10.585844
55.345 10.513134
55.350 10.264301
55.355 9.9585
55.360 10.469152
55.365 11.230705
55.370 11.24924
55.375 11.37512
55.380 11.718914
55.385 12.56014
55.390 12.58183
55.395 11.898368
55.400 11.36511
55.405 11.199845
55.410 11.639586
55.415 11.732859
55.420 11.173378
55.425 10.809222
55.430 10.576566
55.435 10.469898
55.440 10.341785
55.445 10.347708
55.450 10.090208
55.455 9.805468
55.460 10.167811
55.465 10.425804
55.470 10.833075
55.475 10.885942
55.480 10.863339
55.485 11.150339
55.490 11.10705
55.495 11.022792
55.500 11.141748
55.505 11.246705
55.510 11.173951
55.515 11.010777
55.520 10.972274
55.525 11.09393
55.530 11.566864
55.535 11.604585
55.540 11.819499
55.545 11.844299
55.550 11.769636
55.555 11.786605
55.560 11.674472
55.565 11.126961
55.570 10.844436
55.575 10.874689
55.580 11.188313
55.585 11.324564
55.590 11.724144
55.595 11.708772
55.600 12.033009
55.605 12.317086
55.610 12.087676
55.615 11.893304
55.620 11.604516
55.625 11.763894
55.630 12.066533
55.635 11.624516
55.640 11.557014
55.645 11.694745
55.650 11.592233
55.655 11.55032
55.660 10.762566
55.665 10.92927
55.670 10.68697
55.675 10.765224
55.680 10.635499
55.685 10.815439
55.690 11.290307
55.695 11.850093
55.700 11.971526
55.705 12.283291
55.710 12.347301
55.715 12.091778
55.720 12.216434
55.725 11.982187
55.730 11.992699
55.735 11.772716
55.740 11.454626
55.745 11.108015
55.750 11.424006
55.755 11.009741
55.760 11.162651
55.765 11.747614
55.770 12.29082
55.775 12.400542
55.780 12.687607
55.785 12.990517
55.790 13.035342
55.795 13.046374
55.800 12.148706
55.805 11.608085
55.810 11.495031
55.815 11.329116
55.820 11.493222
55.825 11.567579
55.830 11.491873
55.835 11.451521
55.840 11.763126
55.845 12.195248
55.850 12.127505
55.855 12.060472
55.860 12.317667
55.865 12.672429
55.870 12.466856
55.875 12.401199
55.880 12.442122
55.885 12.431333
55.890 12.490981
55.895 12.270651
55.900 11.978915
55.905 12.221952
55.910 12.476654
55.915 12.326421
55.920 12.184391
55.925 11.987341
55.930 12.110613
55.935 11.93479
55.940 11.704782
55.945 11.527034
55.950 11.753909
55.955 11.864594
55.960 11.413331
55.965 11.377709
55.970 11.379784
55.975 11.399205
55.980 11.074245
55.985 10.632083
55.990 10.689406
55.995 10.969125
56.000 11.087335
56.005 11.175642
56.010 11.163591
56.015 11.299728
56.020 11.767687
56.025 11.590626
56.030 11.333887
56.035 10.870461
56.040 10.898389
56.045 10.957616
56.050 10.934077
56.055 11.099129
56.060 11.936625
56.065 12.243329
56.070 12.731552
56.075 12.788296
56.080 12.982557
56.085 13.089023
56.090 12.682984
56.095 11.96075
56.100 12.04357
56.105 11.490302
56.110 11.228292
56.115 10.965933
56.120 10.641093
56.125 10.72573
56.130 11.282544
56.135 11.621252
56.140 12.187947
56.145 12.278068
56.150 12.451978
56.155 12.269698
56.160 12.343627
56.165 11.980129
56.170 11.839152
56.175 12.222548
56.180 12.890519
56.185 12.940079
56.190 13.297749
56.195 13.119665
56.200 13.37314
56.205 13.083357
56.210 12.720984
56.215 12.632043
56.220 12.496397
56.225 12.877497
56.230 13.008033
56.235 12.982524
56.240 13.219895
56.245 13.265862
56.250 13.415974
56.255 13.512409
56.260 13.605808
56.265 13.524164
56.270 13.726722
56.275 13.603123
56.280 12.973884
56.285 13.258908
56.290 13.133532
56.295 12.695507
56.300 12.16358
56.305 12.421507
56.310 12.499113
56.315 12.190969
56.320 11.704542
56.325 12.151835
56.330 12.45384
56.335 12.218467
56.340 11.746783
56.345 12.194142
56.350 12.334555
56.355 12.047002
56.360 11.411176
56.365 11.406606
56.370 11.469538
56.375 11.273999
56.380 11.437195
56.385 11.641474
56.390 11.727911
56.395 11.716687
56.400 11.710923
56.405 11.874779
56.410 11.979734
56.415 12.217719
56.420 12.75818
56.425 12.940449
56.430 13.252772
56.435 13.517684
56.440 13.254182
56.445 13.056503
56.450 12.972501
56.455 12.473489
56.460 12.463965
56.465 12.551193
56.470 12.746882
56.475 13.023339
56.480 13.215009
56.485 12.768141
56.490 12.997879
56.495 13.086446
56.500 13.014208
56.505 13.132235
56.510 13.306878
56.515 12.718184
56.520 12.572928
56.525 11.963341
56.530 11.48784
56.535 11.544373
56.540 11.021989
56.545 10.726329
56.550 10.95094
56.555 11.211386
56.560 11.504355
56.565 11.746002
56.570 11.416372
56.575 11.652493
56.580 12.442642
56.585 12.719419
56.590 12.681907
56.595 12.757237
56.600 12.492946
56.605 12.648849
56.610 12.354733
56.615 11.628391
56.620 11.578988
56.625 12.651528
56.630 13.352068
56.635 13.607346
56.640 13.756141
56.645 13.822334
56.650 13.802724
56.655 13.327077
56.660 12.931789
56.665 12.455679
56.670 12.213169
56.675 12.013521
56.680 12.159789
56.685 12.522537
56.690 12.905404
56.695 12.770291
56.700 12.936463
56.705 12.962987
56.710 13.143059
56.715 13.091307
56.720 12.919404
56.725 12.999778
56.730 12.726486
56.735 12.284962
56.740 12.545063
56.745 12.26798
56.750 12.336989
56.755 12.541515
56.760 12.587461
56.765 12.498567
56.770 12.605126
56.775 12.987721
56.780 12.666986
56.785 12.51215
56.790 12.354585
56.795 11.987416
56.800 12.334187
56.805 12.561666
56.810 12.385217
56.815 13.124264
56.820 12.896499
56.825 12.821714
56.830 13.039535
56.835 13.347631
56.840 13.347834
56.845 12.867742
56.850 12.596771
56.855 12.710518
56.860 12.459426
56.865 12.127213
56.870 11.74369
56.875 11.398742
56.880 11.740038
56.885 11.99922
56.890 12.158355
56.895 12.326914
56.900 12.478459
56.905 12.845902
56.910 12.65279
56.915 12.762453
56.920 12.39765
56.925 12.465019
56.930 12.940113
56.935 12.765821
56.940 12.106785
56.945 12.133471
56.950 11.698989
56.955 11.606611
56.960 11.139085
56.965 10.605474
56.970 11.219468
56.975 12.207828
56.980 12.707193
56.985 12.743063
56.990 13.055628
56.995 13.370613
57.000 13.036718
57.005 12.196449
57.010 11.704622
57.015 11.48729
57.020 11.243902
57.025 10.912521
57.030 10.764161
57.035 11.08345
57.040 11.688988
57.045 12.183052
57.050 12.274679
57.055 12.625047
57.060 13.30147
57.065 14.020057
57.070 14.013682
57.075 13.832078
57.080 13.6427
57.085 13.654384
57.090 13.796404
57.095 13.295643
57.100 12.377134
57.105 12.333038
57.110 12.624722
57.115 12.770706
57.120 12.941804
57.125 12.663819
57.130 12.595717
57.135 13.07873
57.140 12.540365
57.145 11.911301
57.150 12.03951
57.155 12.417592
57.160 12.712414
57.165 12.790047
57.170 12.948423
57.175 13.057978
57.180 13.158304
57.185 13.219091
57.190 13.18325
57.195 13.766347
57.200 13.963847
57.205 14.042968
57.210 14.402867
57.215 14.378483
57.220 14.469902
57.225 14.391563
57.230 14.215357
57.235 13.897726
57.240 13.820388
57.245 13.607466
57.250 13.663136
57.255 13.146796
57.260 12.341713
57.265 12.162857
57.270 12.741423
57.275 12.945317
57.280 12.925118
57.285 12.602697
57.290 13.190866
57.295 13.786473
57.300 13.633259
57.305 13.329457
57.310 13.521357
57.315 13.783504
57.320 14.084951
57.325 13.646627
57.330 13.695596
57.335 13.912636
57.340 13.798057
57.345 13.660048
57.350 14.199654
57.355 13.887291
57.360 13.849251
57.365 13.780653
57.370 14.140205
57.375 14.297881
57.380 14.324258
57.385 13.718979
57.390 13.805787
57.395 13.87144
57.400 14.06605
57.405 13.858644
57.410 13.696894
57.415 13.79078
57.420 14.007351
57.425 13.56146
57.430 13.75898
57.435 13.524753
57.440 13.525917
57.445 13.337626
57.450 13.009027
57.455 12.68799
57.460 12.987746
57.465 13.264718
57.470 13.48727
57.475 13.436917
57.480 13.707512
57.485 13.879773
57.490 14.126791
57.495 14.280428
57.500 14.049644
57.505 13.833043
57.510 14.218948
57.515 14.013117
57.520 13.605961
57.525 13.701777
57.530 13.221447
57.535 13.052711
57.540 13.371466
57.545 13.318139
57.550 13.815961
57.555 14.541022
57.560 14.662026
57.565 14.958626
57.570 14.354516
57.575 13.710348
57.580 13.588812
57.585 13.279386
57.590 13.638357
57.595 13.834366
57.600 14.159119
57.605 14.403356
57.610 14.536702
57.615 14.858352
57.620 14.784595
57.625 14.307685
57.630 14.379973
57.635 13.991235
57.640 14.097633
57.645 13.779228
57.650 14.05596
57.655 14.535441
57.660 14.827607
57.665 15.03018
57.670 15.205429
57.675 15.280419
57.680 15.444871
57.685 14.852856
57.690 14.568915
57.695 13.883997
57.700 13.482013
57.705 13.197462
57.710 13.201799
57.715 12.994374
57.720 13.030454
57.725 13.226799
57.730 13.843767
57.735 13.589671
57.740 13.55682
57.745 13.366875
57.750 13.550499
57.755 13.509672
57.760 13.508742
57.765 13.92678
57.770 14.616849
57.775 15.222712
57.780 15.660622
57.785 15.83535
57.790 15.58111
57.795 14.925162
57.800 14.302756
57.805 14.00605
57.810 13.840279
57.815 13.703247
57.820 13.435738
57.825 13.947181
57.830 14.756986
57.835 14.996996
57.840 15.582388
57.845 15.219197
57.850 15.330056
57.855 15.053939
57.860 14.387665
57.865 13.580647
57.870 13.021476
57.875 12.673244
57.880 12.817658
57.885 12.995883
57.890 12.967185
57.895 13.299372
57.900 13.642257
57.905 13.428964
57.910 13.097018
57.915 12.702444
57.920 12.353457
57.925 12.677917
57.930 12.988534
57.935 13.298479
57.940 13.910183
57.945 14.098069
57.950 14.17985
57.955 14.12206
57.960 13.986695
57.965 13.813381
57.970 13.531529
57.975 13.246913
57.980 13.063475
57.985 13.434968
57.990 13.317839
57.995 13.479343
58.000 13.640516
58.005 13.088319
58.010 13.167063
58.015 13.579845
58.020 13.994271
58.025 14.621615
58.030 14.500128
58.035 14.488434
58.040 14.880914
58.045 15.166833
58.050 15.024133
58.055 14.874264
58.060 14.654382
58.065 14.695562
58.070 14.892445
58.075 15.390569
58.080 15.325597
58.085 14.81047
58.090 14.103127
58.095 13.58106
58.100 13.418574
58.105 13.284818
58.110 13.111951
58.115 12.906449
58.120 13.077787
58.125 13.228508
58.130 13.649757
58.135 13.29674
58.140 13.252962
58.145 13.22803
58.150 13.224298
58.155 13.68927
58.160 14.148128
58.165 14.18139
58.170 14.551437
58.175 14.480523
58.180 14.672017
58.185 14.815227
58.190 14.368334
58.195 13.898432
58.200 13.551179
58.205 12.997901
58.210 12.4427
58.215 12.257295
58.220 12.45087
58.225 12.572813
58.230 12.630919
58.235 12.883721
58.240 13.314411
58.245 13.748306
58.250 13.748884
58.255 13.763672
58.260 13.996555
58.265 14.327531
58.270 13.867433
58.275 13.715988
58.280 13.433631
58.285 13.296004
58.290 13.645087
58.295 13.687606
58.300 13.654027
58.305 14.018843
58.310 13.936022
58.315 13.645881
58.320 13.641635
58.325 13.346466
58.330 13.17504
58.335 12.525223
58.340 12.885104
58.345 13.77316
58.350 13.802947
58.355 13.544446
58.360 13.434086
58.365 13.666731
58.370 14.108009
58.375 13.678393
58.380 13.117166
58.385 13.298221
58.390 13.657511
58.395 13.452587
58.400 13.102603
58.405 13.035383
58.410 12.978945
58.415 12.829122
58.420 12.747922
58.425 12.541152
58.430 13.096065
58.435 13.322829
58.440 13.335906
58.445 13.496854
58.450 13.580435
58.455 13.76906
58.460 13.825751
58.465 13.307952
58.470 13.872602
58.475 13.885408
58.480 13.822174
58.485 14.209185
58.490 14.214207
58.495 14.675241
58.500 14.771748
58.505 14.542253
58.510 14.544377
58.515 14.593989
