!@!!GADDS PLOTSO FILE: Chi integration type
!@!!Title/SampleName: map-73
!@!!Comment: ?
!@!!User: Bruker Instrument Administrator
!@!!Site: University of Illinois Chicago
!@!!Frame: map-73_01_000.gfrm
!@!!Wavelengths    1.54184   1.54056   1.54439
!@!!Frame angles: 2Theta: 63.000 Omega: 50.000 Phi: 0.000 Chi: 90.000
!@!!Integration range: 2Theta: 53.000 to 73.000  Gamma: -105.000 to -75.000
!@!!Integration method: bin normalized
!@!N
!@!SS
!@!M
!@!L 0.0 0.0 0.0 0.0
!@!XDegrees
!@!YCounts
53.000 11.760498
53.005 11.251317
53.010 10.946882
53.015 10.651558
53.020 10.676601
53.025 10.468546
53.030 9.989115
53.035 9.742776
53.040 9.714201
53.045 9.414164
53.050 9.662574
53.055 9.832693
53.060 9.683897
53.065 10.025963
53.070 10.088937
53.075 10.108729
53.080 10.215095
53.085 10.546796
53.090 10.810265
53.095 10.847265
53.100 10.807347
53.105 11.102215
53.110 11.233919
53.115 11.423432
53.120 11.051077
53.125 10.576468
53.130 10.80631
53.135 10.866364
53.140 10.31873
53.145 10.305689
53.150 10.042008
53.155 9.841363
53.160 9.857501
53.165 9.63657
53.170 10.008474
53.175 10.215795
53.180 10.218741
53.185 10.840002
53.190 10.5862
53.195 10.648604
53.200 10.6601
53.205 10.449718
53.210 10.379698
53.215 10.37697
53.220 10.278601
53.225 11.085369
53.230 11.052519
53.235 10.813869
53.240 10.891348
53.245 10.833862
53.250 10.113007
53.255 9.855399
53.260 10.077252
53.265 10.317198
53.270 10.303087
53.275 10.494918
53.280 10.568674
53.285 11.049003
53.290 10.967089
53.295 10.799753
53.300 10.923702
53.305 10.727682
53.310 10.341226
53.315 10.483638
53.320 10.139357
53.325 10.246842
53.330 9.933022
53.335 10.142901
53.340 10.221817
53.345 10.585573
53.350 10.653844
53.355 11.050819
53.360 10.933
53.365 10.718206
53.370 10.463567
53.375 10.601356
53.380 10.5797
53.385 10.550523
53.390 10.660932
53.395 10.639941
53.400 11.168912
53.405 11.605805
53.410 11.936131
53.415 11.835922
53.420 12.147289
53.425 12.332127
53.430 12.58047
53.435 12.301476
53.440 12.478171
53.445 12.194501
53.450 12.431298
53.455 12.409677
53.460 11.90417
53.465 11.58701
53.470 11.248432
53.475 10.424444
53.480 10.192885
53.485 9.690594
53.490 9.839957
53.495 10.092614
53.500 9.880523
53.505 9.892685
53.510 10.250019
53.515 11.112046
53.520 11.569494
53.525 11.493266
53.530 11.896655
53.535 12.295467
53.540 12.543191
53.545 12.543838
53.550 11.830771
53.555 11.251871
53.560 11.170915
53.565 10.808233
53.570 10.511845
53.575 10.597567
53.580 10.17512
53.585 10.475669
53.590 10.522014
53.595 10.431041
53.600 11.222951
53.605 11.367176
53.610 11.403107
53.615 11.609235
53.620 11.264569
53.625 11.490796
53.630 11.633899
53.635 11.620293
53.640 11.876912
53.645 11.783381
53.650 11.672787
53.655 11.817613
53.660 11.800778
53.665 11.515149
53.670 11.303885
53.675 11.302922
53.680 11.343528
53.685 11.268439
53.690 11.46221
53.695 11.261538
53.700 11.163339
53.705 11.16866
53.710 10.817129
53.715 11.402789
53.720 11.691474
53.725 11.717434
53.730 11.958006
53.735 12.124938
53.740 12.28203
53.745 12.596669
53.750 12.255177
53.755 12.155977
53.760 11.429646
53.765 11.20153
53.770 10.882113
53.775 10.69751
53.780 10.750977
53.785 10.359802
53.790 10.705541
53.795 11.215728
53.800 11.473823
53.805 11.380299
53.810 11.199672
53.815 11.315739
53.820 11.410606
53.825 11.55956
53.830 11.286902
53.835 11.173495
53.840 11.714217
53.845 11.389529
53.850 11.15441
53.855 10.87041
53.860 10.766596
53.865 10.823037
53.870 10.682584
53.875 10.785961
53.880 11.121075
53.885 11.581175
53.890 11.529192
53.895 11.385592
53.900 11.60193
53.905 11.658429
53.910 11.592403
53.915 11.67828
53.920 11.624997
53.925 11.826042
53.930 12.081127
53.935 11.95414
53.940 11.902615
53.945 11.92724
53.950 11.938057
53.955 12.262242
53.960 12.21673
53.965 12.21545
53.970 12.390407
53.975 12.697284
53.980 12.631677
53.985 12.528514
53.990 12.181004
53.995 12.417603
54.000 11.91895
54.005 11.594063
54.010 11.421033
54.015 11.300321
54.020 11.319493
54.025 10.927436
54.030 11.421156
54.035 11.835684
54.040 11.895755
54.045 11.495522
54.050 11.556402
54.055 11.692861
54.060 11.646543
54.065 11.223064
54.070 11.227599
54.075 11.769514
54.080 12.37144
54.085 12.261594
54.090 12.478726
54.095 12.685737
54.100 12.493834
54.105 12.568807
54.110 12.09959
54.115 11.750134
54.120 11.82828
54.125 11.512608
54.130 11.385715
54.135 11.088417
54.140 10.450233
54.145 10.350744
54.150 10.5546
54.155 10.648524
54.160 10.850318
54.165 10.958532
54.170 11.306648
54.175 11.352485
54.180 11.540536
54.185 11.30293
54.190 11.230799
54.195 11.441018
54.200 11.951217
54.205 12.497617
54.210 12.615026
54.215 12.621023
54.220 12.61834
54.225 12.537456
54.230 12.522171
54.235 12.032053
54.240 11.610129
54.245 11.509421
54.250 11.746523
54.255 11.7324
54.260 11.560507
54.265 11.489055
54.270 11.802393
54.275 11.707569
54.280 11.636083
54.285 11.296203
54.290 11.621238
54.295 11.899437
54.300 11.541276
54.305 11.172726
54.310 11.529515
54.315 11.783452
54.320 12.291068
54.325 12.28904
54.330 12.476708
54.335 13.2055
54.340 13.367223
54.345 12.842474
54.350 12.844212
54.355 12.230148
54.360 12.055124
54.365 11.360932
54.370 11.122187
54.375 11.290221
54.380 11.217044
54.385 11.114895
54.390 11.64315
54.395 11.525405
54.400 11.591809
54.405 11.660423
54.410 11.59134
54.415 11.470254
54.420 11.428089
54.425 11.368912
54.430 11.226483
54.435 11.466123
54.440 11.128937
54.445 11.726812
54.450 12.00568
54.455 11.656302
54.460 10.762337
54.465 10.780437
54.470 10.573008
54.475 10.4802
54.480 10.319109
54.485 10.161075
54.490 10.760475
54.495 11.731359
54.500 11.563661
54.505 11.900186
54.510 11.966964
54.515 11.762491
54.520 11.61332
54.525 10.754429
54.530 10.382693
54.535 10.81324
54.540 10.884493
54.545 10.797608
54.550 10.847867
54.555 10.883814
54.560 11.292281
54.565 11.453413
54.570 11.118029
54.575 10.96346
54.580 11.198327
54.585 11.167094
54.590 11.09727
54.595 11.104548
54.600 10.923579
54.605 10.690638
54.610 11.060523
54.615 11.170543
54.620 11.496189
54.625 11.426105
54.630 11.57324
54.635 11.640079
54.640 11.872273
54.645 11.458852
54.650 11.34733
54.655 11.30899
54.660 11.563502
54.665 11.524013
54.670 11.741239
54.675 11.739261
54.680 11.694558
54.685 11.766991
54.690 11.597561
54.695 11.524889
54.700 11.537496
54.705 11.628651
54.710 11.284056
54.715 11.31652
54.720 11.575725
54.725 11.674235
54.730 11.991986
54.735 11.7688
54.740 11.86737
54.745 11.872227
54.750 11.979103
54.755 11.861832
54.760 11.621085
54.765 11.421451
54.770 11.51658
54.775 11.410711
54.780 11.605707
54.785 11.473958
54.790 11.839565
54.795 12.647428
54.800 13.119867
54.805 13.173224
54.810 13.125193
54.815 13.354198
54.820 13.36655
54.825 13.256931
54.830 12.71929
54.835 12.406164
54.840 12.344413
54.845 12.660557
54.850 12.639948
54.855 12.397282
54.860 12.235217
54.865 12.257596
54.870 12.561297
54.875 12.646788
54.880 12.525442
54.885 12.269903
54.890 12.3037
54.895 12.693917
54.900 12.930676
54.905 12.641454
54.910 12.751933
54.915 13.095086
54.920 13.009429
54.925 13.122106
54.930 13.277564
54.935 13.113396
54.940 13.272781
54.945 13.291359
54.950 13.785791
54.955 14.033812
54.960 13.479063
54.965 13.053102
54.970 13.640642
54.975 13.69908
54.980 12.805996
54.985 12.071692
54.990 12.461972
54.995 12.75252
55.000 12.364453
55.005 11.841029
55.010 12.229207
55.015 12.723999
55.020 12.803252
55.025 12.429161
55.030 12.603305
55.035 12.648284
55.040 12.521586
55.045 12.505765
55.050 12.469531
55.055 12.461502
55.060 13.116585
55.065 12.975663
55.070 12.764311
55.075 12.605036
55.080 12.77912
55.085 12.957001
55.090 12.972507
55.095 12.837655
55.100 13.02801
55.105 13.296783
55.110 13.145135
55.115 12.948467
55.120 12.2018
55.125 11.924271
55.130 11.52994
55.135 11.27023
55.140 11.368584
55.145 11.737184
55.150 12.103704
55.155 13.143912
55.160 13.330477
55.165 13.329142
55.170 13.361462
55.175 13.493676
55.180 13.957422
55.185 14.265782
55.190 14.122007
55.195 14.644446
55.200 14.141897
55.205 14.165524
55.210 13.76838
55.215 13.072736
55.220 12.792172
55.225 12.177071
55.230 11.483904
55.235 11.812377
55.240 11.847544
55.245 11.846998
55.250 11.719135
55.255 11.066185
55.260 11.344235
55.265 11.456801
55.270 11.806838
55.275 11.829803
55.280 11.347972
55.285 11.700888
55.290 11.945409
55.295 11.871736
55.300 11.24356
55.305 10.902646
55.310 11.167436
55.315 11.479756
55.320 11.640666
55.325 12.247235
55.330 12.695023
55.335 13.215088
55.340 13.353621
55.345 13.365786
55.350 13.114941
55.355 13.383479
55.360 12.825587
55.365 12.932877
55.370 12.992186
55.375 12.924146
55.380 13.329444
55.385 13.344831
55.390 13.036877
55.395 12.993461
55.400 13.120884
55.405 13.141561
55.410 13.214036
55.415 13.191895
55.420 12.696062
55.425 12.589344
55.430 12.250282
55.435 12.321661
55.440 13.226367
55.445 12.658807
55.450 12.508307
55.455 12.559998
55.460 12.765845
55.465 12.973186
55.470 12.262842
55.475 11.793868
55.480 12.043196
55.485 12.174658
55.490 12.385169
55.495 12.890689
55.500 12.761619
55.505 12.855936
55.510 13.236892
55.515 13.619264
55.520 14.058897
55.525 14.567377
55.530 14.817677
55.535 15.521712
55.540 15.369271
55.545 15.191928
55.550 15.031429
55.555 14.531654
55.560 13.648281
55.565 12.866093
55.570 12.286154
55.575 12.052007
55.580 12.199281
55.585 12.397494
55.590 12.937489
55.595 13.091343
55.600 12.661648
55.605 12.435306
55.610 12.188143
55.615 11.940113
55.620 11.767153
55.625 11.445709
55.630 11.562766
55.635 12.060699
55.640 12.281092
55.645 12.42158
55.650 11.945586
55.655 11.849233
55.660 11.721899
55.665 11.510189
55.670 11.40867
55.675 11.666043
55.680 11.558024
55.685 12.229822
55.690 12.542082
55.695 12.719658
55.700 13.12252
55.705 13.395707
55.710 13.456421
55.715 13.778084
55.720 13.768891
55.725 13.764949
55.730 13.773253
55.735 13.986279
55.740 13.584352
55.745 13.89334
55.750 13.561593
55.755 13.224271
55.760 13.143723
55.765 13.8613
55.770 14.541561
55.775 14.845978
55.780 14.53611
55.785 14.545583
55.790 14.477474
55.795 13.811872
55.800 12.492916
55.805 11.764815
55.810 11.447865
55.815 11.577394
55.820 12.144317
55.825 12.418688
55.830 12.954131
55.835 13.850639
55.840 14.144238
55.845 14.388944
55.850 14.416418
55.855 14.533265
55.860 14.710178
55.865 14.698806
55.870 14.127603
55.875 14.050454
55.880 14.508204
55.885 14.568371
55.890 14.166357
55.895 14.065638
55.900 13.695188
55.905 13.913195
55.910 13.373477
55.915 13.011703
55.920 12.855055
55.925 13.255406
55.930 13.061315
55.935 13.160162
55.940 13.361498
55.945 14.219636
55.950 14.292944
55.955 14.009949
55.960 13.461535
55.965 13.558592
55.970 13.58569
55.975 13.141522
55.980 12.254189
55.985 12.046962
55.990 12.503072
55.995 12.672168
56.000 12.794799
56.005 13.145217
56.010 13.657155
56.015 14.043084
56.020 13.991567
56.025 13.752808
56.030 13.660151
56.035 13.98013
56.040 14.126608
56.045 14.273932
56.050 14.174335
56.055 13.80558
56.060 13.572055
56.065 13.334811
56.070 12.837386
56.075 12.312008
56.080 11.924426
56.085 11.691916
56.090 11.703668
56.095 11.642302
56.100 11.935965
56.105 12.064995
56.110 12.21392
56.115 12.396199
56.120 12.511648
56.125 12.928679
56.130 13.086518
56.135 12.497983
56.140 12.04971
56.145 11.785536
56.150 11.60815
56.155 11.841899
56.160 12.101737
56.165 12.142055
56.170 13.055346
56.175 13.503964
56.180 14.157177
56.185 14.350969
56.190 14.247601
56.195 13.784109
56.200 13.738421
56.205 13.112386
56.210 12.641297
56.215 12.432678
56.220 12.381995
56.225 12.15864
56.230 13.018977
56.235 13.837358
56.240 14.091798
56.245 14.978513
56.250 14.975683
56.255 15.229463
56.260 15.35995
56.265 14.999475
56.270 14.835068
56.275 14.64084
56.280 14.14852
56.285 14.218718
56.290 14.325386
56.295 14.366952
56.300 14.191649
56.305 14.345243
56.310 14.557871
56.315 14.355099
56.320 14.259892
56.325 14.332715
56.330 14.681428
56.335 14.863574
56.340 14.485806
56.345 14.192031
56.350 14.75124
56.355 14.676201
56.360 14.490331
56.365 13.972701
56.370 13.7953
56.375 13.924067
56.380 13.820153
56.385 13.709713
56.390 13.167716
56.395 13.017568
56.400 13.113609
56.405 12.888732
56.410 13.116602
56.415 13.550857
56.420 13.143895
56.425 13.647003
56.430 13.429294
56.435 13.185418
56.440 13.470377
56.445 13.34562
56.450 12.635488
56.455 12.570047
56.460 12.572285
56.465 12.751166
56.470 12.731593
56.475 12.074828
56.480 11.500534
56.485 11.785457
56.490 12.417516
56.495 13.045651
56.500 13.260986
56.505 13.788634
56.510 14.544785
56.515 14.828711
56.520 14.839132
56.525 14.423242
56.530 14.39731
56.535 14.491998
56.540 14.341276
56.545 14.160851
56.550 14.605481
56.555 14.875908
56.560 14.949132
56.565 14.199762
56.570 13.875312
56.575 13.913523
56.580 13.578583
56.585 13.499393
56.590 13.361996
56.595 13.197643
56.600 13.029877
56.605 13.159904
56.610 12.988698
56.615 13.011871
56.620 13.019478
56.625 12.678867
56.630 12.695855
56.635 13.041677
56.640 12.289508
56.645 12.565375
56.650 12.765418
56.655 12.767735
56.660 13.241194
56.665 13.515541
56.670 13.724014
56.675 14.522563
56.680 14.285141
56.685 14.092578
56.690 13.89594
56.695 13.761649
56.700 13.34275
56.705 13.494864
56.710 13.212718
56.715 13.347767
56.720 13.171963
56.725 13.141641
56.730 13.435572
56.735 13.87444
56.740 14.38955
56.745 15.00078
56.750 15.519158
56.755 16.104404
56.760 16.224678
56.765 16.026222
56.770 15.757332
56.775 15.309456
56.780 15.04923
56.785 14.566548
56.790 14.494485
56.795 14.601365
56.800 14.797366
56.805 14.969765
56.810 14.885215
56.815 14.972999
56.820 15.323885
56.825 15.273316
56.830 15.229429
56.835 15.211594
56.840 15.125896
56.845 15.156847
56.850 14.807594
56.855 14.324928
56.860 14.154855
56.865 14.232481
56.870 14.081742
56.875 14.04489
56.880 14.29959
56.885 14.549042
56.890 14.80692
56.895 15.512476
56.900 15.622898
56.905 15.180844
56.910 15.429697
56.915 15.376791
56.920 15.316665
56.925 15.053576
56.930 14.428943
56.935 14.027038
56.940 14.263336
56.945 13.852579
56.950 13.822966
56.955 13.874464
56.960 13.604375
56.965 13.271055
56.970 13.179461
56.975 13.077108
56.980 12.549134
56.985 12.386711
56.990 12.825636
56.995 13.209619
57.000 13.87994
57.005 14.51773
57.010 14.584118
57.015 15.29345
57.020 15.294533
57.025 14.988661
57.030 14.806375
57.035 14.762349
57.040 14.498168
57.045 14.316046
57.050 14.539375
57.055 14.692739
57.060 14.682307
57.065 14.893768
57.070 14.820272
57.075 14.865778
57.080 14.325315
57.085 13.984793
57.090 13.958709
57.095 14.46303
57.100 14.116892
57.105 14.197581
57.110 15.059992
57.115 15.803978
57.120 15.706901
57.125 15.540884
57.130 15.110987
57.135 15.198799
57.140 14.991535
57.145 14.516115
57.150 14.290781
57.155 14.096725
57.160 14.392124
57.165 14.63661
57.170 14.757131
57.175 15.136121
57.180 15.382229
57.185 15.112668
57.190 15.020722
57.195 14.407549
57.200 14.346693
57.205 14.399334
57.210 14.717368
57.215 14.236126
57.220 14.503903
57.225 14.519346
57.230 14.894459
57.235 14.872878
57.240 14.473542
57.245 13.996993
57.250 13.974338
57.255 14.015362
57.260 14.873476
57.265 15.138051
57.270 15.190586
57.275 15.512623
57.280 15.599645
57.285 15.503523
57.290 15.230929
57.295 14.522979
57.300 14.385837
57.305 14.28416
57.310 14.135798
57.315 13.924228
57.320 14.371466
57.325 14.515383
57.330 14.851225
57.335 14.925505
57.340 14.635763
57.345 15.233491
57.350 15.317615
57.355 15.298663
57.360 15.373664
57.365 15.078301
57.370 15.978433
57.375 16.134821
57.380 15.770392
57.385 16.035471
57.390 15.865105
57.395 15.810263
57.400 15.664933
57.405 14.98328
57.410 14.825599
57.415 14.804641
57.420 14.45272
57.425 14.123091
57.430 14.190055
57.435 14.300149
57.440 14.039734
57.445 14.136702
57.450 14.242892
57.455 14.52719
57.460 15.014149
57.465 15.38914
57.470 15.465488
57.475 15.867991
57.480 15.72853
57.485 15.949103
57.490 15.703608
57.495 15.484237
57.500 15.509353
57.505 15.500019
57.510 15.157823
57.515 15.299956
57.520 15.206862
57.525 15.908353
57.530 15.431577
57.535 15.127273
57.540 15.196521
57.545 15.804163
57.550 15.834409
57.555 15.602146
57.560 15.375672
57.565 15.880459
57.570 16.55409
57.575 16.666321
57.580 16.354166
57.585 16.679117
57.590 17.179613
57.595 17.537487
57.600 17.829277
57.605 17.468027
57.610 17.527454
57.615 17.806129
57.620 18.18951
57.625 18.185316
57.630 17.482386
57.635 16.880684
57.640 16.614128
57.645 16.304638
57.650 15.983399
57.655 15.594483
57.660 15.611396
57.665 15.572663
57.670 15.632528
57.675 15.678297
57.680 15.618497
57.685 15.502925
57.690 15.436432
57.695 15.660275
57.700 16.456467
57.705 16.409481
57.710 16.738205
57.715 16.604824
57.720 16.746025
57.725 15.927155
57.730 15.684613
57.735 15.106973
57.740 14.678044
57.745 14.709027
57.750 14.76305
57.755 14.910925
57.760 15.038609
57.765 14.656694
57.770 14.57454
57.775 14.494556
57.780 14.509625
57.785 14.996328
57.790 15.181126
57.795 15.361236
57.800 15.690214
57.805 16.386723
57.810 17.127548
57.815 17.431454
57.820 17.006544
57.825 16.834284
57.830 17.021528
57.835 17.296656
57.840 17.435453
57.845 16.864477
57.850 16.770491
57.855 17.012907
57.860 17.021812
57.865 16.994738
57.870 17.416588
57.875 17.482203
57.880 17.638069
57.885 16.994278
57.890 16.820713
57.895 16.813803
57.900 16.813423
57.905 16.805862
57.910 16.526802
57.915 16.635384
57.920 17.569063
57.925 17.557217
57.930 17.309834
57.935 16.664085
57.940 16.218857
57.945 15.645561
57.950 15.20983
57.955 15.069016
57.960 15.297041
57.965 15.677918
57.970 16.056225
57.975 16.091965
57.980 16.571585
57.985 16.894411
57.990 16.635908
57.995 16.447323
58.000 16.006792
58.005 16.349079
58.010 16.486597
58.015 17.113735
58.020 17.232409
58.025 17.472095
58.030 17.538956
58.035 17.824209
58.040 17.678545
58.045 17.560925
58.050 17.499544
58.055 17.341232
58.060 17.100023
58.065 17.659679
58.070 17.585682
58.075 17.344986
58.080 17.428074
58.085 17.374094
58.090 17.381256
58.095 17.574064
58.100 17.829216
58.105 18.500441
58.110 18.532564
58.115 18.425415
58.120 18.516689
58.125 18.460421
58.130 18.201248
58.135 17.543224
58.140 17.448959
58.145 18.070116
58.150 18.276033
58.155 18.113173
58.160 18.005407
58.165 18.131435
58.170 18.162426
58.175 18.423477
58.180 18.947935
58.185 18.93293
58.190 19.275564
58.195 19.218699
58.200 19.989578
58.205 20.693247
58.210 20.408241
58.215 20.191462
58.220 20.085636
58.225 19.847486
58.230 20.028299
58.235 19.064743
58.240 18.418661
58.245 17.724907
58.250 17.612108
58.255 17.784643
58.260 18.159189
58.265 18.695473
58.270 18.988804
58.275 19.151478
58.280 19.654501
58.285 19.956446
58.290 20.491522
58.295 20.659697
58.300 20.366226
58.305 20.579679
58.310 20.943241
58.315 21.195105
58.320 21.066713
58.325 20.678877
58.330 19.990219
58.335 20.063692
58.340 20.279232
58.345 20.527344
58.350 20.774969
58.355 21.18136
58.360 21.6761
58.365 22.401237
58.370 22.753698
58.375 23.075832
58.380 23.064384
58.385 22.968927
58.390 22.396448
58.395 22.149872
58.400 22.613688
58.405 22.850973
58.410 23.356434
58.415 23.255171
58.420 23.299603
58.425 23.71686
58.430 24.613565
58.435 25.16254
58.440 25.775383
58.445 25.932077
