!@!!GADDS PLOTSO FILE: Chi integration type
!@!!Title/SampleName: map-d8
!@!!Comment: ?
!@!!User: Bruker Instrument Administrator
!@!!Site: University of Illinois Chicago
!@!!Frame: map-d8_01_000.gfrm
!@!!Wavelengths    1.54184   1.54056   1.54439
!@!!Frame angles: 2Theta: 63.000 Omega: 50.000 Phi: 0.000 Chi: 90.000
!@!!Integration range: 2Theta: 53.000 to 73.000  Gamma: -105.000 to -75.000
!@!!Integration method: bin normalized
!@!N
!@!SS
!@!M
!@!L 0.0 0.0 0.0 0.0
!@!XDegrees
!@!YCounts
53.000 9.138781
53.005 8.662924
53.010 8.774461
53.015 9.093688
53.020 9.181073
53.025 8.784821
53.030 8.865197
53.035 9.504241
53.040 9.894615
53.045 9.785322
53.050 9.473346
53.055 9.39174
53.060 9.524457
53.065 9.358357
53.070 9.194142
53.075 9.149165
53.080 8.821745
53.085 9.002338
53.090 9.355476
53.095 9.486654
53.100 9.251644
53.105 9.255819
53.110 9.452097
53.115 9.87547
53.120 9.546988
53.125 9.529901
53.130 9.427881
53.135 9.704547
53.140 9.571968
53.145 9.183417
53.150 9.305215
53.155 9.249384
53.160 9.222726
53.165 9.11728
53.170 8.767992
53.175 8.784937
53.180 8.874409
53.185 9.276952
53.190 9.39127
53.195 9.449374
53.200 9.728957
53.205 9.860978
53.210 10.013783
53.215 10.421655
53.220 10.160639
53.225 10.484359
53.230 10.213759
53.235 10.435122
53.240 10.53893
53.245 10.179513
53.250 9.696574
53.255 9.586995
53.260 9.683883
53.265 9.875531
53.270 9.854665
53.275 10.463099
53.280 10.566125
53.285 10.755812
53.290 10.626003
53.295 10.535811
53.300 10.515853
53.305 10.214328
53.310 10.092119
53.315 10.360162
53.320 10.444669
53.325 10.874416
53.330 10.660869
53.335 10.524845
53.340 10.832514
53.345 10.510172
53.350 10.212563
53.355 9.787522
53.360 9.422586
53.365 9.961017
53.370 10.094531
53.375 9.343083
53.380 9.155457
53.385 9.273064
53.390 9.40025
53.395 9.161057
53.400 9.222308
53.405 9.577885
53.410 10.239123
53.415 10.459048
53.420 10.34839
53.425 10.404909
53.430 10.807239
53.435 10.975091
53.440 11.149369
53.445 11.148985
53.450 11.350949
53.455 11.529214
53.460 11.810975
53.465 11.445562
53.470 10.900529
53.475 10.070597
53.480 10.094772
53.485 10.76836
53.490 10.995791
53.495 10.76977
53.500 10.943226
53.505 11.622385
53.510 12.075673
53.515 11.773616
53.520 11.164215
53.525 10.808282
53.530 10.78966
53.535 11.054228
53.540 10.828377
53.545 10.476068
53.550 10.022297
53.555 9.959334
53.560 10.185678
53.565 10.052312
53.570 9.61749
53.575 10.060596
53.580 10.392147
53.585 10.83446
53.590 10.823948
53.595 10.583789
53.600 11.157553
53.605 11.049765
53.610 10.727573
53.615 10.437675
53.620 10.475303
53.625 10.904898
53.630 11.225012
53.635 11.363269
53.640 11.606495
53.645 11.88412
53.650 12.476526
53.655 12.032822
53.660 11.767982
53.665 11.589192
53.670 11.248762
53.675 11.024474
53.680 10.983404
53.685 10.735508
53.690 11.038504
53.695 10.914635
53.700 10.505857
53.705 10.257854
53.710 10.091059
53.715 9.979115
53.720 10.425697
53.725 10.388384
53.730 10.800294
53.735 10.791478
53.740 11.260613
53.745 11.625854
53.750 11.636071
53.755 11.373556
53.760 11.282248
53.765 11.001628
53.770 11.122432
53.775 10.676598
53.780 10.620197
53.785 10.975342
53.790 11.396405
53.795 11.609702
53.800 11.88386
53.805 11.920671
53.810 12.110689
53.815 11.755712
53.820 11.416909
53.825 10.978108
53.830 10.768764
53.835 10.676773
53.840 10.510721
53.845 10.524203
53.850 10.541113
53.855 10.751753
53.860 11.059427
53.865 10.871102
53.870 11.015967
53.875 11.424124
53.880 11.369802
53.885 11.318691
53.890 11.395283
53.895 11.137779
53.900 11.192305
53.905 11.215416
53.910 11.114964
53.915 11.245096
53.920 11.207992
53.925 11.599605
53.930 12.045561
53.935 12.112926
53.940 12.099998
53.945 12.293562
53.950 12.566246
53.955 12.34983
53.960 12.032597
53.965 12.149374
53.970 12.159741
53.975 12.07845
53.980 12.035396
53.985 12.033914
53.990 12.672951
53.995 12.713889
54.000 12.544839
54.005 12.389597
54.010 12.329192
54.015 12.164543
54.020 11.602007
54.025 10.769991
54.030 10.267394
54.035 10.213357
54.040 10.127892
54.045 10.095971
54.050 9.969284
54.055 10.120728
54.060 10.407074
54.065 10.57167
54.070 10.730526
54.075 10.86766
54.080 10.997603
54.085 11.397452
54.090 11.445843
54.095 11.610087
54.100 11.793429
54.105 11.742599
54.110 12.154879
54.115 12.184845
54.120 12.264414
54.125 11.976676
54.130 11.404773
54.135 11.444053
54.140 11.493015
54.145 11.023155
54.150 10.851897
54.155 11.13881
54.160 11.670608
54.165 11.960915
54.170 11.775385
54.175 11.701642
54.180 12.005154
54.185 11.909063
54.190 11.43231
54.195 11.411859
54.200 11.983477
54.205 12.051752
54.210 11.936825
54.215 11.544316
54.220 11.807055
54.225 12.341075
54.230 12.390745
54.235 12.003243
54.240 11.358294
54.245 11.434321
54.250 11.524765
54.255 11.530659
54.260 11.420889
54.265 11.226666
54.270 11.157215
54.275 11.785889
54.280 11.884666
54.285 11.449574
54.290 11.318515
54.295 11.27839
54.300 11.05033
54.305 11.109038
54.310 11.111765
54.315 11.287936
54.320 11.615729
54.325 11.879184
54.330 12.428106
54.335 12.842089
54.340 12.886304
54.345 12.470533
54.350 12.014003
54.355 12.14485
54.360 11.30221
54.365 10.739354
54.370 10.323104
54.375 10.673411
54.380 11.484375
54.385 11.744587
54.390 11.422785
54.395 11.743106
54.400 12.189923
54.405 12.009155
54.410 11.666056
54.415 11.452222
54.420 11.447481
54.425 11.481184
54.430 11.475631
54.435 11.250596
54.440 11.294607
54.445 10.979952
54.450 10.952165
54.455 11.027164
54.460 11.200548
54.465 10.852556
54.470 10.78317
54.475 10.978546
54.480 11.033144
54.485 10.933884
54.490 11.042433
54.495 11.252345
54.500 11.70451
54.505 11.853796
54.510 11.665887
54.515 12.128799
54.520 12.549364
54.525 12.168188
54.530 11.710728
54.535 11.042347
54.540 10.758468
54.545 10.923279
54.550 10.862535
54.555 10.53474
54.560 10.339795
54.565 10.396068
54.570 11.021322
54.575 11.290624
54.580 11.374663
54.585 11.231061
54.590 11.343039
54.595 12.124634
54.600 12.437042
54.605 12.71023
54.610 12.807407
54.615 12.935559
54.620 13.401647
54.625 13.280008
54.630 13.16503
54.635 13.091615
54.640 12.832709
54.645 12.840519
54.650 12.724218
54.655 12.123923
54.660 12.235188
54.665 12.386625
54.670 12.278418
54.675 12.774387
54.680 12.815949
54.685 12.645012
54.690 13.012005
54.695 12.858522
54.700 12.921899
54.705 13.306793
54.710 13.032979
54.715 12.094897
54.720 12.047416
54.725 11.990959
54.730 12.310557
54.735 12.061481
54.740 11.933412
54.745 12.182901
54.750 13.04344
54.755 13.416803
54.760 13.519276
54.765 13.477342
54.770 14.068509
54.775 13.941066
54.780 13.772937
54.785 13.66774
54.790 13.429581
54.795 13.686182
54.800 13.616569
54.805 13.739505
54.810 13.738684
54.815 13.863967
54.820 14.251279
54.825 14.456538
54.830 13.917491
54.835 13.34063
54.840 12.757895
54.845 12.732322
54.850 11.875276
54.855 11.336258
54.860 10.963755
54.865 11.020459
54.870 11.347486
54.875 11.635334
54.880 12.203574
54.885 13.166989
54.890 13.009688
54.895 12.784489
54.900 13.380534
54.905 12.999274
54.910 12.634502
54.915 12.538137
54.920 12.308833
54.925 12.764386
54.930 12.749937
54.935 12.272897
54.940 12.450996
54.945 12.330379
54.950 12.113357
54.955 12.094205
54.960 12.400289
54.965 12.394507
54.970 12.41091
54.975 12.818028
54.980 13.0187
54.985 12.998772
54.990 12.780572
54.995 12.853388
55.000 12.591589
55.005 12.885878
55.010 12.692329
55.015 12.571595
55.020 12.511501
55.025 12.997025
55.030 12.864541
55.035 13.312787
55.040 13.37873
55.045 13.229138
55.050 13.340511
55.055 12.95331
55.060 12.897038
55.065 12.631737
55.070 11.802625
55.075 11.576599
55.080 11.635245
55.085 12.033321
55.090 12.328666
55.095 12.419619
55.100 12.83587
55.105 13.102147
55.110 13.341877
55.115 13.258809
55.120 12.919559
55.125 12.65662
55.130 12.347608
55.135 12.843314
55.140 12.829212
55.145 12.433998
55.150 12.505972
55.155 12.583473
55.160 12.858482
55.165 12.842296
55.170 12.851428
55.175 13.156953
55.180 13.54949
55.185 13.542295
55.190 13.090306
55.195 13.181733
55.200 12.867263
55.205 12.595007
55.210 12.644386
55.215 12.648779
55.220 12.807969
55.225 12.944099
55.230 12.916487
55.235 13.438864
55.240 13.098081
55.245 12.97144
55.250 12.488573
55.255 11.917763
55.260 11.971353
55.265 11.742371
55.270 11.355892
55.275 11.507982
55.280 11.574628
55.285 11.961348
55.290 12.162821
55.295 12.253072
55.300 11.874208
55.305 11.912625
55.310 12.009059
55.315 11.710448
55.320 11.792047
55.325 12.309952
55.330 12.692579
55.335 13.028156
55.340 12.963231
55.345 12.70833
55.350 12.846422
55.355 12.842603
55.360 12.51564
55.365 12.483743
55.370 12.758675
55.375 13.324806
55.380 13.702859
55.385 13.875823
55.390 13.929247
55.395 13.662848
55.400 13.456017
55.405 13.450245
55.410 13.465357
55.415 13.025271
55.420 12.904168
55.425 13.339268
55.430 14.21722
55.435 14.226644
55.440 13.855348
55.445 13.905246
55.450 14.271015
55.455 14.390551
55.460 13.973366
55.465 13.909734
55.470 14.399852
55.475 14.511101
55.480 14.343176
55.485 14.575994
55.490 14.985768
55.495 15.062051
55.500 14.602556
55.505 14.407671
55.510 14.275891
55.515 14.310969
55.520 13.926403
55.525 13.473708
55.530 13.380839
55.535 13.82676
55.540 14.157814
55.545 14.52372
55.550 15.104212
55.555 14.821136
55.560 14.491176
55.565 14.173957
55.570 13.736146
55.575 13.251343
55.580 12.922949
55.585 12.89407
55.590 13.239026
55.595 14.012056
55.600 13.705703
55.605 13.191035
55.610 12.823741
55.615 12.341644
55.620 12.122366
55.625 11.600539
55.630 11.107047
55.635 11.796072
55.640 12.225091
55.645 12.948511
55.650 12.938493
55.655 13.083357
55.660 13.446898
55.665 13.701415
55.670 13.707903
55.675 13.333462
55.680 12.967239
55.685 13.366618
55.690 13.2633
55.695 13.089396
55.700 12.606723
55.705 12.533748
55.710 13.180294
55.715 13.532287
55.720 13.474381
55.725 13.67942
55.730 13.810162
55.735 13.790465
55.740 13.357065
55.745 12.74872
55.750 12.789214
55.755 12.497794
55.760 12.478183
55.765 12.654428
55.770 13.211667
55.775 14.200234
55.780 14.223827
55.785 13.741047
55.790 13.465045
55.795 12.945333
55.800 12.422213
55.805 11.802279
55.810 10.907644
55.815 10.822148
55.820 11.265697
55.825 11.611389
55.830 12.20615
55.835 13.056975
55.840 13.462952
55.845 14.476494
55.850 14.646008
55.855 14.553667
55.860 14.351585
55.865 13.823593
55.870 13.455122
55.875 13.442088
55.880 13.184616
55.885 12.983935
55.890 12.588362
55.895 12.803414
55.900 12.830569
55.905 12.793607
55.910 12.742241
55.915 12.622323
55.920 13.285911
55.925 13.600586
55.930 13.619492
55.935 14.094862
55.940 13.680462
55.945 13.185038
55.950 13.48884
55.955 13.526064
55.960 13.333473
55.965 12.863417
55.970 12.240254
55.975 12.695626
55.980 13.658045
55.985 13.221992
55.990 13.581582
55.995 13.815432
56.000 14.250526
56.005 14.543231
56.010 14.346526
56.015 13.610806
56.020 13.706706
56.025 13.137118
56.030 13.380246
56.035 13.730576
56.040 13.913072
56.045 14.07984
56.050 14.395296
56.055 14.660979
56.060 14.743567
56.065 14.701957
56.070 14.509374
56.075 14.061404
56.080 14.018891
56.085 14.3658
56.090 14.584325
56.095 14.47156
56.100 14.233271
56.105 14.189389
56.110 14.854376
56.115 15.115816
56.120 14.613689
56.125 14.56317
56.130 14.490355
56.135 14.343638
56.140 14.573476
56.145 14.372275
56.150 14.236547
56.155 14.10048
56.160 13.749002
56.165 13.64659
56.170 13.507056
56.175 13.572778
56.180 13.666121
56.185 13.620704
56.190 13.73894
56.195 13.361917
56.200 13.969156
56.205 14.014287
56.210 14.05317
56.215 14.741139
56.220 15.613393
56.225 16.184444
56.230 16.561155
56.235 16.590357
56.240 16.938492
56.245 16.629284
56.250 15.404737
56.255 14.639579
56.260 14.067785
56.265 13.991916
56.270 13.538119
56.275 13.254713
56.280 12.728948
56.285 12.821882
56.290 13.110652
56.295 13.205037
56.300 13.792466
56.305 13.486428
56.310 13.592082
56.315 14.044744
56.320 14.207432
56.325 14.057354
56.330 14.090888
56.335 14.324188
56.340 14.851212
56.345 14.902907
56.350 14.681874
56.355 15.215366
56.360 15.528879
56.365 15.083347
56.370 15.076962
56.375 14.413211
56.380 14.329544
56.385 14.814388
56.390 14.251813
56.395 14.501058
56.400 14.835857
56.405 14.203892
56.410 14.71409
56.415 14.982282
56.420 15.222152
56.425 15.296194
56.430 14.78702
56.435 14.410308
56.440 14.954529
56.445 14.536422
56.450 14.364003
56.455 14.244759
56.460 14.266466
56.465 14.62288
56.470 14.577855
56.475 14.358826
56.480 14.519307
56.485 14.334679
56.490 15.389378
56.495 15.777179
56.500 15.878606
56.505 16.448853
56.510 17.074362
56.515 17.671104
56.520 16.74052
56.525 15.362715
56.530 15.818448
56.535 15.768294
56.540 15.186563
56.545 14.598663
56.550 14.208558
56.555 14.84285
56.560 14.672215
56.565 13.932307
56.570 13.625127
56.575 14.148824
56.580 13.7892
56.585 13.640836
56.590 13.360262
56.595 13.333652
56.600 13.614987
56.605 13.87711
56.610 13.819502
56.615 14.80409
56.620 15.065266
56.625 15.360117
56.630 15.28121
56.635 15.493637
56.640 15.686496
56.645 16.085899
56.650 15.585626
56.655 15.555411
56.660 15.683757
56.665 15.634966
56.670 15.058081
56.675 15.020783
56.680 14.599536
56.685 14.91617
56.690 15.161243
56.695 14.743295
56.700 14.810243
56.705 15.164616
56.710 15.420485
56.715 16.02984
56.720 16.347527
56.725 16.14819
56.730 16.557926
56.735 16.322092
56.740 16.185284
56.745 15.197702
56.750 14.649071
56.755 14.722782
56.760 14.850521
56.765 14.927554
56.770 15.007357
56.775 15.369787
56.780 16.185936
56.785 15.658158
56.790 15.42789
56.795 15.906048
56.800 16.564571
56.805 16.008755
56.810 15.591409
56.815 15.303087
56.820 15.198591
56.825 14.339737
56.830 13.489326
56.835 13.197453
56.840 13.804689
56.845 13.773691
56.850 13.888129
56.855 14.33896
56.860 14.807241
56.865 14.669559
56.870 15.242529
56.875 15.625659
56.880 15.655519
56.885 15.381747
56.890 15.05683
56.895 15.222349
56.900 14.860338
56.905 13.760255
56.910 12.951267
56.915 12.973531
56.920 13.475045
56.925 13.9674
56.930 14.413692
56.935 14.984221
56.940 15.240388
56.945 15.94896
56.950 16.372875
56.955 16.149137
56.960 16.265984
56.965 16.138931
56.970 16.724682
56.975 17.011343
56.980 16.636549
56.985 16.284716
56.990 16.393623
56.995 16.349628
57.000 16.405436
57.005 15.847043
57.010 15.461986
57.015 15.0621
57.020 15.785251
57.025 15.406434
57.030 14.897066
57.035 14.450735
57.040 14.276009
57.045 14.664779
57.050 14.727517
57.055 14.225137
57.060 14.288778
57.065 13.934767
57.070 14.460698
57.075 14.883229
57.080 14.905212
57.085 15.136168
57.090 15.102667
57.095 15.030849
57.100 15.644164
57.105 15.49503
57.110 15.521851
57.115 15.651367
57.120 15.305755
57.125 15.450927
57.130 15.435027
57.135 15.408907
57.140 15.380233
57.145 15.032354
57.150 15.285934
57.155 15.967032
57.160 16.551083
57.165 17.206587
57.170 17.117935
57.175 17.080311
57.180 17.628998
57.185 18.009977
57.190 17.498297
57.195 16.68421
57.200 16.094984
57.205 15.789145
57.210 15.938718
57.215 15.434518
57.220 14.773943
57.225 14.216458
57.230 14.079322
57.235 14.004306
57.240 14.091845
57.245 13.843617
57.250 13.759171
57.255 13.864803
57.260 14.223013
57.265 14.687448
57.270 15.137559
57.275 14.951116
57.280 15.05201
57.285 14.982621
57.290 15.067494
57.295 15.245602
57.300 15.353202
57.305 15.627571
57.310 16.11569
57.315 16.067177
57.320 15.634068
57.325 16.276949
57.330 16.857033
57.335 16.946932
57.340 16.596394
57.345 16.354702
57.350 16.184515
57.355 16.336651
57.360 15.621106
57.365 15.436873
57.370 15.453325
57.375 15.685094
57.380 15.886442
57.385 15.977589
57.390 16.341639
57.395 16.427038
57.400 15.99984
57.405 15.779593
57.410 15.571586
57.415 15.800378
57.420 16.319475
57.425 16.477678
57.430 16.342569
57.435 16.416893
57.440 16.431234
57.445 16.300718
57.450 16.461418
57.455 16.41571
57.460 16.193464
57.465 16.311083
57.470 16.206663
57.475 15.651775
57.480 15.310726
57.485 14.765281
57.490 14.304372
57.495 14.065832
57.500 13.921746
57.505 13.957242
57.510 14.29582
57.515 14.628519
57.520 14.738955
57.525 14.511784
57.530 14.416367
57.535 13.864433
57.540 13.864267
57.545 14.374504
57.550 14.571961
57.555 14.640179
57.560 15.482531
57.565 16.07325
57.570 16.638632
57.575 16.807573
57.580 16.370676
57.585 15.965242
57.590 15.991343
57.595 15.542405
57.600 15.258505
57.605 15.273112
57.610 15.334671
57.615 15.21686
57.620 15.129497
57.625 14.896791
57.630 14.930263
57.635 15.176328
57.640 15.411209
57.645 16.293287
57.650 16.422842
57.655 16.654699
57.660 16.823616
57.665 17.090841
57.670 17.262947
57.675 16.858723
57.680 16.381519
57.685 16.827644
57.690 17.050892
57.695 17.078129
57.700 16.559114
57.705 16.071859
57.710 16.23093
57.715 16.13382
57.720 16.286503
57.725 16.713165
57.730 17.067223
57.735 17.15839
57.740 17.089952
57.745 16.756052
57.750 16.65024
57.755 16.070667
57.760 15.395602
57.765 15.118264
57.770 15.159792
57.775 15.144641
57.780 15.058951
57.785 14.578265
57.790 14.772975
57.795 14.95444
57.800 15.172592
57.805 15.471992
57.810 15.657159
57.815 16.035385
57.820 16.231852
57.825 15.783854
57.830 15.509076
57.835 14.76519
57.840 14.511063
57.845 14.632406
57.850 13.877184
57.855 13.654936
57.860 14.276099
57.865 14.473635
57.870 15.553001
57.875 15.857075
57.880 15.398436
57.885 15.845592
57.890 16.577524
57.895 16.760698
57.900 17.055382
57.905 16.41704
57.910 16.111704
57.915 16.224268
57.920 16.723751
57.925 17.046312
57.930 17.117617
57.935 17.06765
57.940 17.676767
57.945 17.630489
57.950 18.100296
57.955 17.684443
57.960 17.059977
57.965 16.868359
57.970 16.639029
57.975 16.766642
57.980 17.309771
57.985 17.016106
57.990 16.675953
57.995 15.977903
58.000 15.745073
58.005 15.531935
58.010 15.099065
58.015 14.969551
58.020 15.307917
58.025 15.542192
58.030 16.640127
58.035 16.801867
58.040 17.221384
58.045 17.081846
58.050 17.00963
58.055 16.606237
58.060 16.84679
58.065 16.44832
58.070 16.671074
58.075 16.590952
58.080 17.337236
58.085 17.538746
58.090 17.894276
58.095 18.01339
58.100 17.805939
58.105 17.561974
58.110 17.269245
58.115 16.584953
58.120 16.493299
58.125 16.662537
58.130 16.350416
58.135 16.312143
58.140 16.562344
58.145 16.483662
58.150 16.515196
58.155 16.075207
58.160 15.537206
58.165 15.134791
58.170 15.239162
58.175 14.936487
58.180 14.948102
58.185 14.926081
58.190 14.873166
58.195 14.926323
58.200 14.782516
58.205 14.680368
58.210 15.244414
58.215 14.963059
58.220 14.963749
58.225 15.495469
58.230 15.500538
58.235 15.770154
58.240 15.772504
58.245 15.866529
58.250 16.106768
58.255 16.503401
58.260 15.943418
58.265 15.94837
58.270 15.694177
58.275 15.575312
58.280 15.093671
58.285 15.910154
58.290 16.622286
58.295 17.298189
58.300 17.497225
58.305 17.847635
58.310 17.819414
58.315 17.729649
58.320 16.845198
58.325 16.221561
58.330 15.908035
58.335 16.233295
58.340 16.168427
58.345 16.598721
58.350 16.897478
58.355 16.934542
58.360 16.426191
58.365 16.404594
58.370 16.506901
58.375 16.421324
58.380 16.105217
58.385 16.578199
58.390 17.406778
58.395 17.428648
58.400 18.019123
58.405 18.117105
58.410 18.184759
58.415 17.993423
58.420 17.130278
58.425 16.625853
58.430 17.004759
58.435 16.252035
58.440 16.088577
58.445 16.112514
58.450 15.990929
58.455 16.152035
