!@!!GADDS PLOTSO FILE: Chi integration type
!@!!Title/SampleName: map-ee
!@!!Comment: ?
!@!!User: Bruker Instrument Administrator
!@!!Site: University of Illinois Chicago
!@!!Frame: map-ee_01_000.gfrm
!@!!Wavelengths    1.54184   1.54056   1.54439
!@!!Frame angles: 2Theta: 63.000 Omega: 50.000 Phi: 0.000 Chi: 90.000
!@!!Integration range: 2Theta: 53.000 to 73.000  Gamma: -105.000 to -75.000
!@!!Integration method: bin normalized
!@!N
!@!SS
!@!M
!@!L 0.0 0.0 0.0 0.0
!@!XDegrees
!@!YCounts
53.000 6.660182
53.005 6.876969
53.010 6.527281
53.015 6.331362
53.020 6.417059
53.025 6.290448
53.030 5.993545
53.035 5.69327
53.040 5.168283
53.045 5.372389
53.050 5.757374
53.055 5.815257
53.060 6.247554
53.065 6.522491
53.070 6.684754
53.075 6.901998
53.080 6.667841
53.085 6.158015
53.090 6.226797
53.095 6.425776
53.100 6.691778
53.105 6.627766
53.110 6.523949
53.115 6.751044
53.120 6.898783
53.125 6.744185
53.130 6.360741
53.135 6.532294
53.140 7.046987
53.145 7.357934
53.150 7.436986
53.155 7.078389
53.160 6.867695
53.165 6.897738
53.170 6.297067
53.175 5.611522
53.180 5.354412
53.185 5.806707
53.190 6.466082
53.195 6.460263
53.200 6.630567
53.205 6.998533
53.210 7.302078
53.215 6.953807
53.220 6.822548
53.225 6.756384
53.230 6.967192
53.235 6.940109
53.240 7.019331
53.245 7.121787
53.250 7.171277
53.255 6.934368
53.260 6.731059
53.265 6.405729
53.270 6.663176
53.275 6.871451
53.280 6.670782
53.285 6.323197
53.290 6.295355
53.295 6.479494
53.300 6.792635
53.305 6.77021
53.310 6.985956
53.315 7.329218
53.320 7.835315
53.325 8.165819
53.330 8.195015
53.335 7.88767
53.340 7.397222
53.345 6.723513
53.350 6.767509
53.355 6.451498
53.360 6.771923
53.365 6.568908
53.370 6.492612
53.375 6.499629
53.380 6.865976
53.385 6.895443
53.390 7.180587
53.395 7.095339
53.400 7.538808
53.405 7.79524
53.410 8.008594
53.415 8.080847
53.420 7.979959
53.425 7.869192
53.430 7.554173
53.435 7.636518
53.440 7.598935
53.445 7.593643
53.450 7.719564
53.455 7.910939
53.460 7.97317
53.465 7.533288
53.470 7.185762
53.475 7.264451
53.480 7.107397
53.485 7.18692
53.490 7.213734
53.495 7.385671
53.500 7.6327
53.505 7.375319
53.510 7.465584
53.515 7.298092
53.520 6.985685
53.525 6.855854
53.530 7.182455
53.535 7.306973
53.540 7.700428
53.545 7.683444
53.550 7.806921
53.555 7.44603
53.560 6.890635
53.565 6.565397
53.570 6.291763
53.575 6.109672
53.580 6.16594
53.585 6.224108
53.590 6.644657
53.595 6.708307
53.600 6.624524
53.605 7.005583
53.610 6.993119
53.615 7.344617
53.620 7.585094
53.625 7.584189
53.630 7.847202
53.635 8.038736
53.640 8.031127
53.645 8.077892
53.650 8.029003
53.655 8.041632
53.660 8.244151
53.665 7.789381
53.670 7.2184
53.675 7.156489
53.680 7.023723
53.685 6.846072
53.690 6.472836
53.695 6.162956
53.700 6.434816
53.705 6.921742
53.710 6.803264
53.715 6.494947
53.720 6.633249
53.725 6.778389
53.730 6.690584
53.735 6.696046
53.740 6.426816
53.745 6.546042
53.750 6.762617
53.755 6.64657
53.760 6.724753
53.765 7.063138
53.770 7.10315
53.775 7.468998
53.780 7.622124
53.785 7.250703
53.790 7.321448
53.795 7.705111
53.800 7.663525
53.805 8.043627
53.810 7.796464
53.815 7.557236
53.820 7.691979
53.825 7.965065
53.830 8.270973
53.835 8.517493
53.840 8.052413
53.845 8.101946
53.850 8.304619
53.855 8.292069
53.860 7.718181
53.865 7.441681
53.870 7.452486
53.875 7.654529
53.880 7.607764
53.885 7.581327
53.890 7.190489
53.895 7.10822
53.900 6.743591
53.905 6.520046
53.910 6.702185
53.915 6.608456
53.920 6.670559
53.925 6.594398
53.930 6.497149
53.935 6.36338
53.940 6.558568
53.945 6.254288
53.950 6.311723
53.955 6.325049
53.960 6.357223
53.965 6.287806
53.970 6.643887
53.975 6.820676
53.980 6.982743
53.985 6.728008
53.990 7.123817
53.995 7.419921
54.000 7.614038
54.005 7.625408
54.010 7.462006
54.015 7.929097
54.020 8.176691
54.025 8.522109
54.030 9.108393
54.035 8.898296
54.040 8.555614
54.045 8.600043
54.050 8.636523
54.055 8.426825
54.060 7.6394
54.065 7.232986
54.070 7.786563
54.075 7.763461
54.080 7.581468
54.085 7.287898
54.090 7.453149
54.095 7.849802
54.100 7.997703
54.105 7.836191
54.110 7.638494
54.115 7.626918
54.120 7.667493
54.125 7.682383
54.130 7.731571
54.135 7.725621
54.140 7.830389
54.145 7.86191
54.150 7.864281
54.155 8.067462
54.160 8.342384
54.165 8.391025
54.170 8.305648
54.175 8.156054
54.180 8.149667
54.185 8.124475
54.190 8.106704
54.195 7.792582
54.200 7.631553
54.205 7.641871
54.210 7.867102
54.215 8.4925
54.220 8.674683
54.225 8.464999
54.230 8.086007
54.235 8.36711
54.240 8.354581
54.245 8.291399
54.250 7.640672
54.255 7.509847
54.260 7.956503
54.265 8.575935
54.270 8.46218
54.275 8.673874
54.280 8.651862
54.285 9.116741
54.290 9.319044
54.295 9.153713
54.300 8.628692
54.305 8.48455
54.310 8.44835
54.315 8.523043
54.320 8.239017
54.325 7.835127
54.330 8.16891
54.335 8.49879
54.340 8.486249
54.345 8.724176
54.350 8.903317
54.355 8.987179
54.360 8.832842
54.365 8.461028
54.370 8.407651
54.375 7.942269
54.380 7.361724
54.385 7.1759
54.390 7.402117
54.395 7.778655
54.400 7.767443
54.405 7.646069
54.410 8.195708
54.415 8.366652
54.420 8.177524
54.425 8.014009
54.430 8.146528
54.435 8.264533
54.440 8.40947
54.445 8.236609
54.450 7.735465
54.455 7.4547
54.460 7.522877
54.465 7.235921
54.470 7.304921
54.475 7.21738
54.480 7.55442
54.485 8.033894
54.490 8.27214
54.495 8.589911
54.500 9.237821
54.505 9.818678
54.510 10.369549
54.515 10.391832
54.520 10.423444
54.525 10.282124
54.530 10.051628
54.535 9.615487
54.540 9.054388
54.545 8.659082
54.550 8.441915
54.555 8.553154
54.560 8.543689
54.565 8.291796
54.570 8.339185
54.575 8.357798
54.580 8.026606
54.585 8.018712
54.590 7.903157
54.595 7.905528
54.600 8.235153
54.605 8.099591
54.610 8.388062
54.615 8.334155
54.620 8.284243
54.625 8.427576
54.630 8.322784
54.635 8.180661
54.640 8.276748
54.645 8.175582
54.650 8.210568
54.655 8.054894
54.660 8.459268
54.665 8.872672
54.670 8.95
54.675 8.695668
54.680 8.776175
54.685 9.012331
54.690 9.411508
54.695 8.890447
54.700 8.280969
54.705 8.208711
54.710 8.106544
54.715 7.986412
54.720 7.743723
54.725 7.381051
54.730 7.586514
54.735 7.514375
54.740 7.73711
54.745 7.733776
54.750 7.701921
54.755 7.613501
54.760 7.523018
54.765 7.441107
54.770 7.693882
54.775 7.905374
54.780 8.418149
54.785 8.519079
54.790 8.492748
54.795 8.731749
54.800 8.508278
54.805 8.328787
54.810 8.332452
54.815 8.190511
54.820 8.653833
54.825 9.125022
54.830 9.301618
54.835 9.394134
54.840 9.156794
54.845 8.464504
54.850 8.056487
54.855 7.639312
54.860 7.146834
54.865 6.864661
54.870 7.220823
54.875 7.548874
54.880 7.789967
54.885 8.023015
54.890 7.896807
54.895 8.023563
54.900 7.927616
54.905 7.740915
54.910 7.849814
54.915 7.812952
54.920 8.434803
54.925 8.914301
54.930 9.115899
54.935 9.056073
54.940 9.247547
54.945 9.760366
54.950 10.469254
54.955 9.883157
54.960 9.699394
54.965 9.953843
54.970 9.680346
54.975 9.391327
54.980 8.775827
54.985 8.277893
54.990 8.401784
54.995 8.402882
55.000 8.257415
55.005 8.636312
55.010 8.402671
55.015 8.854873
55.020 9.003438
55.025 9.131779
55.030 8.740831
55.035 8.922709
55.040 9.058514
55.045 9.228503
55.050 8.566298
55.055 7.958563
55.060 7.88972
55.065 8.124778
55.070 8.230317
55.075 7.962211
55.080 7.970357
55.085 8.47147
55.090 9.301279
55.095 9.390862
55.100 9.778818
55.105 9.802212
55.110 10.101497
55.115 10.255368
55.120 9.865811
55.125 9.423981
55.130 9.120941
55.135 8.30137
55.140 8.001204
55.145 7.724913
55.150 7.968747
55.155 8.140399
55.160 8.974277
55.165 9.378987
55.170 9.675595
55.175 9.567923
55.180 10.006848
55.185 9.806643
55.190 9.478445
55.195 8.772243
55.200 8.828178
55.205 8.986446
55.210 9.512538
55.215 9.089491
55.220 9.144835
55.225 9.623855
55.230 9.136553
55.235 8.777357
55.240 8.69357
55.245 8.625546
55.250 8.692807
55.255 8.373451
55.260 8.504637
55.265 8.800095
55.270 8.800254
55.275 8.623337
55.280 8.895699
55.285 8.938532
55.290 8.668532
55.295 8.666006
55.300 9.414404
55.305 9.769906
55.310 9.911757
55.315 9.578449
55.320 9.322048
55.325 9.20895
55.330 8.520653
55.335 7.931151
55.340 7.391393
55.345 6.94419
55.350 6.67802
55.355 7.00654
55.360 7.304571
55.365 7.224967
55.370 6.912681
55.375 6.72741
55.380 7.094325
55.385 7.388127
55.390 7.20681
55.395 7.397993
55.400 7.583158
55.405 8.415699
55.410 8.966946
55.415 8.643917
55.420 8.498409
55.425 8.839578
55.430 8.83237
55.435 8.926375
55.440 8.72752
55.445 8.655458
55.450 8.936159
55.455 9.17948
55.460 8.82472
55.465 8.883654
55.470 9.212734
55.475 9.457704
55.480 9.546227
55.485 9.191485
55.490 8.741539
55.495 8.73431
55.500 8.121518
55.505 8.036628
55.510 7.636209
55.515 7.624835
55.520 8.01943
55.525 8.373241
55.530 8.509728
55.535 9.145972
55.540 8.857539
55.545 9.040064
55.550 9.485286
55.555 9.55565
55.560 9.895524
55.565 9.926927
55.570 10.19863
55.575 10.664861
55.580 10.809667
55.585 10.272093
55.590 10.323724
55.595 10.632477
55.600 10.400802
55.605 9.721754
55.610 9.994107
55.615 10.131257
55.620 10.315845
55.625 10.06165
55.630 9.896873
55.635 10.345672
55.640 10.259204
55.645 10.18344
55.650 9.859751
55.655 9.662519
55.660 9.810802
55.665 9.349814
55.670 9.383504
55.675 9.598921
55.680 9.179597
55.685 9.440659
55.690 9.819116
55.695 9.92612
55.700 9.818077
55.705 9.108413
55.710 9.047415
55.715 8.994351
55.720 9.059979
55.725 9.091384
55.730 9.350551
55.735 9.477918
55.740 9.54535
55.745 9.403796
55.750 9.720895
55.755 9.496191
55.760 9.102774
55.765 8.964973
55.770 9.624218
55.775 9.797642
55.780 10.20606
55.785 10.44847
55.790 10.371666
55.795 10.640655
55.800 10.808025
55.805 10.908808
55.810 11.131963
55.815 11.149691
55.820 11.155803
55.825 11.611903
55.830 11.635119
55.835 11.590518
55.840 11.427061
55.845 11.22821
55.850 10.937526
55.855 10.582478
55.860 10.346953
55.865 10.155771
55.870 9.723322
55.875 9.924605
55.880 9.903055
55.885 9.755926
55.890 9.427742
55.895 9.743917
55.900 9.77552
55.905 9.907801
55.910 9.254688
55.915 9.188411
55.920 9.743002
55.925 10.19621
55.930 10.059243
55.935 9.969474
55.940 10.047857
55.945 10.949033
55.950 11.367002
55.955 11.25871
55.960 11.026577
55.965 10.837509
55.970 11.069539
55.975 11.457228
55.980 10.764672
55.985 10.082355
55.990 10.039663
55.995 9.777175
56.000 10.315702
56.005 10.29013
56.010 10.060016
56.015 10.606292
56.020 10.876378
56.025 11.130921
56.030 11.503699
56.035 10.953575
56.040 10.913716
56.045 10.836937
56.050 10.519432
56.055 10.431177
56.060 10.379254
56.065 10.493411
56.070 10.540493
56.075 10.222642
56.080 10.026783
56.085 10.016149
56.090 9.70793
56.095 9.361428
56.100 8.933535
56.105 9.249655
56.110 9.13249
56.115 9.420505
56.120 9.727545
56.125 10.118204
56.130 10.293906
56.135 10.358597
56.140 10.17243
56.145 10.460949
56.150 10.327171
56.155 9.979611
56.160 9.75508
56.165 9.471023
56.170 9.398939
56.175 9.213504
56.180 8.882719
56.185 8.81535
56.190 8.989008
56.195 8.710835
56.200 9.144023
56.205 9.222248
56.210 9.191532
56.215 9.006763
56.220 9.014802
56.225 9.261992
56.230 10.005358
56.235 10.152769
56.240 10.766775
56.245 11.237752
56.250 11.571779
56.255 11.569407
56.260 11.501852
56.265 11.370117
56.270 11.431099
56.275 11.28715
56.280 11.233208
56.285 11.194283
56.290 11.288254
56.295 10.964009
56.300 10.387707
56.305 9.860715
56.310 9.491825
56.315 9.343571
56.320 9.207986
56.325 9.356872
56.330 9.710189
56.335 10.083815
56.340 10.210787
56.345 10.160775
56.350 10.410115
56.355 10.799218
56.360 10.534997
56.365 10.418609
56.370 10.399712
56.375 10.351665
56.380 10.269638
56.385 9.923479
56.390 9.559739
56.395 9.322258
56.400 9.123972
56.405 9.380939
56.410 9.447192
56.415 9.434865
56.420 9.544689
56.425 9.555363
56.430 9.545306
56.435 9.162943
56.440 8.83432
56.445 8.655994
56.450 8.947737
56.455 8.585838
56.460 8.666662
56.465 8.845095
56.470 8.96852
56.475 9.594336
56.480 10.453488
56.485 10.617773
56.490 10.87179
56.495 10.987473
56.500 11.221802
56.505 11.288748
56.510 10.556968
56.515 9.651273
56.520 9.680931
56.525 9.856023
56.530 9.729966
56.535 9.879693
56.540 9.993242
56.545 10.377487
56.550 10.526633
56.555 10.425861
56.560 10.312623
56.565 10.207551
56.570 10.035072
56.575 10.335287
56.580 10.627747
56.585 11.008303
56.590 11.087334
56.595 11.037185
56.600 11.091986
56.605 10.899709
56.610 10.81073
56.615 10.396049
56.620 10.471277
56.625 10.279202
56.630 10.740385
56.635 11.357934
56.640 11.151058
56.645 11.163201
56.650 11.722887
56.655 11.904056
56.660 12.127275
56.665 11.618482
56.670 10.945046
56.675 10.94689
56.680 11.009861
56.685 10.555958
56.690 10.663231
56.695 11.024253
56.700 11.512178
56.705 12.194233
56.710 12.136093
56.715 11.843263
56.720 12.145741
56.725 12.036119
56.730 11.995746
56.735 11.858269
56.740 11.934465
56.745 12.027645
56.750 11.849196
56.755 11.461921
56.760 11.395208
56.765 11.162868
56.770 11.077946
56.775 11.309825
56.780 11.719969
56.785 12.058224
56.790 12.143681
56.795 11.734596
56.800 11.959742
56.805 11.912596
56.810 11.322556
56.815 11.123871
56.820 11.120443
56.825 11.479574
56.830 11.458655
56.835 11.215386
56.840 11.264883
56.845 11.350013
56.850 11.211244
56.855 10.732522
56.860 10.794252
56.865 11.104271
56.870 11.222306
56.875 10.645913
56.880 10.577918
56.885 10.368471
56.890 10.285582
56.895 9.865921
56.900 9.504977
56.905 9.658627
56.910 10.304435
56.915 10.356041
56.920 10.369665
56.925 10.829395
56.930 11.215516
56.935 11.778485
56.940 11.499791
56.945 11.406474
56.950 11.543728
56.955 11.456913
56.960 11.024491
56.965 10.575376
56.970 10.394376
56.975 10.819639
56.980 11.07797
56.985 11.142789
56.990 11.75438
56.995 12.421268
57.000 12.814837
57.005 13.012599
57.010 12.417423
57.015 11.713745
57.020 11.736441
57.025 11.500847
57.030 10.900027
57.035 11.01369
57.040 10.643257
57.045 10.789019
57.050 11.315199
57.055 11.344893
57.060 11.526137
57.065 11.921586
57.070 11.933047
57.075 12.171494
57.080 12.526842
57.085 12.17774
57.090 11.834185
57.095 11.521043
57.100 11.553605
57.105 11.022777
57.110 10.654373
57.115 10.626151
57.120 10.815682
57.125 11.216902
57.130 11.078327
57.135 10.872955
57.140 11.206812
57.145 11.702584
57.150 11.789003
57.155 11.43643
57.160 10.887767
57.165 10.734169
57.170 10.947555
57.175 10.753811
57.180 10.464011
57.185 10.062004
57.190 10.046913
57.195 10.365526
57.200 10.37138
57.205 10.179497
57.210 10.382015
57.215 10.321369
57.220 10.827099
57.225 11.238953
57.230 11.427382
57.235 11.515372
57.240 11.371833
57.245 11.447328
57.250 11.517426
57.255 11.651903
57.260 11.700376
57.265 11.646425
57.270 11.791642
57.275 11.818242
57.280 11.955014
57.285 12.003518
57.290 11.414524
57.295 11.140591
57.300 11.336258
57.305 11.4157
57.310 11.462023
57.315 10.959085
57.320 10.937687
57.325 11.290157
57.330 11.727564
57.335 11.535685
57.340 11.273916
57.345 11.220053
57.350 11.529672
57.355 11.72976
57.360 12.042539
57.365 11.716797
57.370 11.70679
57.375 11.934922
57.380 12.149854
57.385 12.002452
57.390 11.649759
57.395 11.404166
57.400 11.385669
57.405 11.453342
57.410 11.167436
57.415 11.627043
57.420 12.198207
57.425 12.532739
57.430 12.767283
57.435 13.217809
57.440 13.628463
57.445 13.8673
57.450 13.319221
57.455 12.792847
57.460 12.750143
57.465 12.613853
57.470 12.384832
57.475 11.96807
57.480 12.090488
57.485 12.474062
57.490 12.558311
57.495 12.421815
57.500 12.422738
57.505 12.369212
57.510 12.357725
57.515 12.072894
57.520 11.590696
57.525 11.159949
57.530 10.963459
57.535 11.026162
57.540 11.335299
57.545 11.411341
57.550 11.58231
57.555 12.342835
57.560 13.294953
57.565 13.366142
57.570 13.141033
57.575 12.950606
57.580 12.419049
57.585 11.985062
57.590 11.741544
57.595 11.547619
57.600 11.732186
57.605 11.95561
57.610 11.95472
57.615 12.236222
57.620 12.397642
57.625 12.684507
57.630 12.438152
57.635 12.407119
57.640 12.34264
57.645 12.245338
57.650 12.660387
57.655 12.689873
57.660 12.166348
57.665 12.184361
57.670 12.615658
57.675 12.727497
57.680 12.574482
57.685 12.412181
57.690 12.244361
57.695 12.622147
57.700 12.291115
57.705 11.83085
57.710 12.156028
57.715 12.232206
57.720 12.293983
57.725 12.641533
57.730 12.714319
57.735 12.940489
57.740 12.902594
57.745 12.569482
57.750 13.168413
57.755 13.544098
57.760 13.298017
57.765 13.450573
57.770 13.615272
57.775 13.438086
57.780 13.52637
57.785 13.302816
57.790 13.175973
57.795 13.335153
57.800 12.63647
57.805 12.503524
57.810 12.667593
57.815 12.276384
57.820 12.004452
57.825 11.952607
57.830 11.933776
57.835 12.511058
57.840 13.171769
57.845 13.707582
57.850 14.217985
57.855 14.099521
57.860 14.363473
57.865 14.451938
57.870 13.895777
57.875 13.312295
57.880 13.134334
57.885 12.998979
57.890 13.077851
57.895 13.177447
57.900 13.255761
57.905 13.33027
57.910 13.601087
57.915 13.693385
57.920 13.938128
57.925 14.268722
57.930 14.345043
57.935 14.2006
57.940 14.21536
57.945 13.979989
57.950 13.628344
57.955 13.125039
57.960 12.90383
57.965 12.472413
57.970 12.274189
57.975 12.630747
57.980 12.524932
57.985 12.523134
57.990 12.723181
57.995 12.530732
58.000 12.749138
58.005 12.731854
58.010 12.482821
58.015 12.496981
58.020 12.527746
58.025 12.990401
58.030 13.063386
58.035 13.133286
58.040 13.412473
58.045 13.387475
58.050 13.574172
58.055 13.657211
58.060 13.568295
58.065 13.288516
58.070 13.258154
58.075 13.403402
58.080 13.604329
58.085 13.685818
58.090 13.527668
58.095 13.565735
58.100 13.705554
58.105 13.713426
58.110 13.478479
58.115 13.249737
58.120 12.848012
58.125 12.509528
58.130 12.031332
58.135 11.981938
58.140 11.88797
58.145 12.178912
58.150 12.801832
58.155 13.738083
58.160 14.178052
58.165 14.54871
58.170 14.898546
58.175 15.397283
58.180 15.516194
58.185 15.32846
58.190 14.76353
58.195 14.892006
58.200 15.16034
58.205 15.314838
58.210 15.287378
58.215 15.453051
58.220 15.48478
58.225 15.647222
58.230 15.385623
58.235 15.273476
58.240 15.544436
58.245 15.172808
58.250 14.554857
58.255 14.396458
58.260 14.34375
58.265 14.462568
58.270 14.420307
58.275 13.91205
58.280 14.346566
58.285 14.145331
58.290 13.920573
58.295 14.277031
58.300 14.509686
58.305 14.836606
58.310 15.362632
58.315 15.961543
58.320 16.494795
58.325 17.070545
58.330 17.341055
58.335 17.708681
58.340 17.691809
58.345 16.965616
58.350 16.899906
58.355 17.10848
58.360 17.558329
58.365 17.213236
58.370 17.178242
58.375 17.297653
58.380 17.555946
58.385 17.763763
58.390 18.068907
58.395 17.805639
58.400 17.35434
58.405 17.228472
58.410 17.488735
58.415 17.569458
58.420 17.787546
58.425 18.297787
58.430 18.621452
58.435 19.698511
58.440 20.260862
58.445 20.51149
58.450 20.943703
58.455 21.137087
58.460 21.490835
58.465 21.947037
58.470 21.572104
58.475 21.669104
58.480 21.891096
58.485 22.408237
58.490 23.558783
58.495 23.910004
58.500 24.389849
58.505 24.891691
58.510 25.405125
58.515 25.671862
58.520 24.835009
58.525 24.144577
58.530 23.923262
58.535 23.767204
58.540 24.078032
58.545 24.301844
58.550 24.25481
58.555 25.479067
58.560 26.642756
58.565 27.251793
58.570 27.68445
58.575 27.805685
58.580 27.731668
58.585 28.181334
58.590 27.98176
58.595 27.827709
58.600 28.397387
58.605 28.87837
58.610 29.058493
