!@!!GADDS PLOTSO FILE: Chi integration type
!@!!Title/SampleName: map-51
!@!!Comment: ?
!@!!User: Bruker Instrument Administrator
!@!!Site: University of Illinois Chicago
!@!!Frame: map-51_01_000.gfrm
!@!!Wavelengths    1.54184   1.54056   1.54439
!@!!Frame angles: 2Theta: 63.000 Omega: 50.000 Phi: 0.000 Chi: 90.000
!@!!Integration range: 2Theta: 53.000 to 73.000  Gamma: -105.000 to -75.000
!@!!Integration method: bin normalized
!@!N
!@!SS
!@!M
!@!L 0.0 0.0 0.0 0.0
!@!XDegrees
!@!YCounts
53.000 9.359651
53.005 9.009494
53.010 9.12706
53.015 9.478094
53.020 9.508617
53.025 9.140254
53.030 9.193424
53.035 9.48626
53.040 9.146571
53.045 8.8982
53.050 8.218738
53.055 8.08782
53.060 8.313251
53.065 8.896343
53.070 8.814698
53.075 8.984892
53.080 8.653312
53.085 8.535542
53.090 8.698867
53.095 8.893564
53.100 8.706586
53.105 8.871491
53.110 9.260505
53.115 9.669907
53.120 9.81434
53.125 9.637359
53.130 9.502038
53.135 9.886491
53.140 9.719172
53.145 9.646671
53.150 9.4632
53.155 9.438283
53.160 9.548942
53.165 9.555632
53.170 9.112411
53.175 9.227863
53.180 9.27294
53.185 9.371348
53.190 9.447052
53.195 9.015511
53.200 8.885367
53.205 9.302116
53.210 9.429207
53.215 9.34692
53.220 9.683621
53.225 9.781219
53.230 10.19498
53.235 10.256861
53.240 10.223483
53.245 9.910798
53.250 10.00097
53.255 9.861878
53.260 9.61939
53.265 9.241875
53.270 9.629866
53.275 9.337194
53.280 9.215611
53.285 9.795719
53.290 9.673091
53.295 9.778461
53.300 9.833924
53.305 9.346439
53.310 9.429066
53.315 9.34217
53.320 8.926856
53.325 9.319136
53.330 9.053997
53.335 8.784865
53.340 8.615094
53.345 8.590755
53.350 8.472424
53.355 7.843385
53.360 8.032698
53.365 8.79551
53.370 8.936219
53.375 9.536626
53.380 9.940767
53.385 10.172665
53.390 10.677307
53.395 10.217993
53.400 10.01973
53.405 10.481582
53.410 10.385504
53.415 10.429805
53.420 10.111147
53.425 10.427992
53.430 10.625051
53.435 10.477023
53.440 10.234714
53.445 9.712297
53.450 9.607219
53.455 9.898464
53.460 9.351482
53.465 9.881569
53.470 9.981204
53.475 10.10106
53.480 10.233445
53.485 10.048002
53.490 9.952971
53.495 9.754492
53.500 10.063503
53.505 10.221185
53.510 10.551431
53.515 11.19615
53.520 10.986547
53.525 10.824245
53.530 10.881389
53.535 10.402674
53.540 10.560493
53.545 10.055306
53.550 9.319765
53.555 9.429564
53.560 9.462467
53.565 9.441787
53.570 9.483993
53.575 9.607827
53.580 10.533162
53.585 11.101543
53.590 11.458188
53.595 11.882771
53.600 11.725357
53.605 11.632856
53.610 10.967144
53.615 10.340487
53.620 10.264762
53.625 10.101383
53.630 10.199579
53.635 10.354147
53.640 10.863012
53.645 10.945895
53.650 10.767051
53.655 10.604478
53.660 10.616806
53.665 10.161655
53.670 9.702806
53.675 9.705976
53.680 10.093987
53.685 10.306904
53.690 10.320807
53.695 10.485354
53.700 10.991088
53.705 10.987918
53.710 10.524129
53.715 10.309634
53.720 10.195899
53.725 10.136559
53.730 9.976265
53.735 9.780572
53.740 9.753667
53.745 10.230989
53.750 10.200158
53.755 10.270073
53.760 10.465988
53.765 10.87337
53.770 11.276174
53.775 10.956238
53.780 10.475551
53.785 10.448618
53.790 10.526049
53.795 10.741591
53.800 10.063143
53.805 9.763901
53.810 10.133686
53.815 10.467907
53.820 10.724765
53.825 10.934027
53.830 10.927911
53.835 11.015146
53.840 10.860932
53.845 10.961019
53.850 10.959434
53.855 10.62298
53.860 10.08617
53.865 9.889168
53.870 9.894178
53.875 9.656678
53.880 9.524016
53.885 9.539956
53.890 9.688929
53.895 9.62675
53.900 9.490602
53.905 9.822021
53.910 9.902652
53.915 9.661422
53.920 9.737657
53.925 9.400713
53.930 9.284292
53.935 9.302549
53.940 9.075011
53.945 9.408195
53.950 9.6014
53.955 9.902756
53.960 10.596288
53.965 11.221115
53.970 11.535963
53.975 11.52407
53.980 11.355509
53.985 11.489612
53.990 11.942476
53.995 12.211093
54.000 11.803303
54.005 11.646168
54.010 11.944544
54.015 11.935783
54.020 11.188172
54.025 10.460078
54.030 10.135015
54.035 10.062037
54.040 10.513475
54.045 10.175722
54.050 9.993419
54.055 10.359639
54.060 10.310961
54.065 10.398907
54.070 10.607212
54.075 10.171632
54.080 10.632853
54.085 11.013673
54.090 10.672665
54.095 10.782535
54.100 10.329457
54.105 10.296496
54.110 10.670807
54.115 10.246294
54.120 9.665424
54.125 9.753227
54.130 10.103446
54.135 10.309236
54.140 9.999862
54.145 9.671835
54.150 9.917048
54.155 10.104492
54.160 9.868811
54.165 9.432884
54.170 9.75392
54.175 10.280875
54.180 10.653531
54.185 11.331063
54.190 11.795697
54.195 12.030643
54.200 12.418968
54.205 11.990599
54.210 11.665208
54.215 11.351638
54.220 11.101686
54.225 11.050259
54.230 10.751928
54.235 11.241737
54.240 11.280908
54.245 11.165657
54.250 11.092819
54.255 11.031646
54.260 10.891124
54.265 10.884503
54.270 10.919609
54.275 10.963275
54.280 11.219353
54.285 11.251732
54.290 11.324924
54.295 11.424294
54.300 11.592594
54.305 11.351686
54.310 11.07042
54.315 10.739594
54.320 10.452333
54.325 10.384562
54.330 10.3768
54.335 9.565054
54.340 9.103019
54.345 9.660595
54.350 10.154821
54.355 10.163996
54.360 10.021217
54.365 10.31257
54.370 11.172855
54.375 11.483652
54.380 10.672228
54.385 10.72626
54.390 11.22292
54.395 11.502594
54.400 11.340045
54.405 11.38927
54.410 11.351089
54.415 11.446665
54.420 10.861579
54.425 10.347184
54.430 10.401676
54.435 10.39187
54.440 9.6958
54.445 9.965745
54.450 9.747076
54.455 9.909549
54.460 9.916829
54.465 9.740938
54.470 9.685973
54.475 9.636907
54.480 9.81417
54.485 10.575723
54.490 11.115301
54.495 11.199992
54.500 11.175905
54.505 11.240735
54.510 11.378206
54.515 11.253779
54.520 10.772721
54.525 10.492249
54.530 10.326834
54.535 10.719901
54.540 10.897569
54.545 11.089776
54.550 11.192986
54.555 11.30627
54.560 11.22492
54.565 11.196165
54.570 10.713967
54.575 10.330843
54.580 10.362398
54.585 10.52356
54.590 10.474945
54.595 10.101615
54.600 9.696115
54.605 10.17054
54.610 10.443786
54.615 10.676261
54.620 10.396301
54.625 10.795567
54.630 11.380861
54.635 12.254192
54.640 12.254668
54.645 12.318248
54.650 11.886795
54.655 12.194681
54.660 12.217876
54.665 12.170138
54.670 11.942268
54.675 12.400493
54.680 12.084674
54.685 12.072988
54.690 12.00786
54.695 12.299834
54.700 12.430828
54.705 11.940383
54.710 10.935576
54.715 11.229399
54.720 11.569341
54.725 11.344389
54.730 11.334046
54.735 11.212311
54.740 11.263387
54.745 11.375008
54.750 11.377953
54.755 11.225117
54.760 11.128861
54.765 10.715904
54.770 10.850002
54.775 11.321115
54.780 11.876106
54.785 11.318018
54.790 11.21654
54.795 11.216651
54.800 10.950455
54.805 11.07532
54.810 11.551434
54.815 12.021906
54.820 12.179322
54.825 12.608812
54.830 12.473458
54.835 13.026058
54.840 12.885639
54.845 12.643956
54.850 13.205493
54.855 12.783344
54.860 12.379764
54.865 12.312844
54.870 11.868413
54.875 11.515243
54.880 10.8702
54.885 10.358065
54.890 10.248475
54.895 10.52241
54.900 10.500979
54.905 10.560766
54.910 10.560594
54.915 10.594769
54.920 10.475335
54.925 10.71349
54.930 10.418206
54.935 10.162871
54.940 10.233883
54.945 10.776143
54.950 11.194171
54.955 11.38415
54.960 10.962078
54.965 10.905146
54.970 10.824336
54.975 10.982323
54.980 10.572413
54.985 10.464444
54.990 10.797588
54.995 11.406565
55.000 12.208166
55.005 12.75732
55.010 12.622135
55.015 12.771607
55.020 12.753716
55.025 12.916847
55.030 12.630628
55.035 11.917109
55.040 11.846026
55.045 12.043895
55.050 11.724685
55.055 11.615723
55.060 11.678132
55.065 11.523067
55.070 11.795877
55.075 11.284344
55.080 11.047545
55.085 10.935513
55.090 10.743752
55.095 10.628389
55.100 10.766511
55.105 11.215252
55.110 11.84761
55.115 12.067401
55.120 12.237562
55.125 12.139802
55.130 12.19085
55.135 12.38675
55.140 12.371044
55.145 12.184936
55.150 11.851069
55.155 11.842911
55.160 11.99855
55.165 11.93763
55.170 11.513022
55.175 11.222339
55.180 11.097069
55.185 11.708256
55.190 11.714064
55.195 11.64353
55.200 12.122585
55.205 12.423647
55.210 12.317991
55.215 12.766728
55.220 12.403662
55.225 12.362993
55.230 12.008246
55.235 11.467645
55.240 11.445936
55.245 11.709853
55.250 11.524254
55.255 11.36511
55.260 11.233219
55.265 11.381833
55.270 11.399961
55.275 11.024169
55.280 10.918137
55.285 10.663381
55.290 11.068093
55.295 11.278878
55.300 11.243969
55.305 11.596748
55.310 11.678908
55.315 11.356634
55.320 11.569903
55.325 11.577686
55.330 12.109515
55.335 12.248469
55.340 12.267894
55.345 12.273413
55.350 12.471907
55.355 12.422153
55.360 12.724728
55.365 12.206869
55.370 12.018218
55.375 11.554095
55.380 11.615249
55.385 11.705231
55.390 11.190969
55.395 10.712934
55.400 10.784171
55.405 10.690104
55.410 10.505157
55.415 10.365648
55.420 10.412585
55.425 11.139729
55.430 11.100801
55.435 11.284682
55.440 11.488455
55.445 11.603907
55.450 11.849285
55.455 12.089586
55.460 12.046844
55.465 12.086196
55.470 12.073084
55.475 11.780525
55.480 11.88121
55.485 12.129941
55.490 12.241142
55.495 12.181034
55.500 12.496956
55.505 12.733988
55.510 13.218121
55.515 13.361335
55.520 12.619982
55.525 12.085492
55.530 11.944983
55.535 11.709847
55.540 11.395654
55.545 10.961427
55.550 10.646552
55.555 10.713712
55.560 11.079563
55.565 11.580007
55.570 11.642049
55.575 12.055727
55.580 12.214541
55.585 12.467793
55.590 12.842415
55.595 12.698818
55.600 12.10476
55.605 12.107141
55.610 12.215279
55.615 12.708364
55.620 12.847628
55.625 12.842417
55.630 13.222219
55.635 13.352998
55.640 13.375871
55.645 13.385021
55.650 13.324344
55.655 13.396504
55.660 13.223353
55.665 12.213511
55.670 12.194485
55.675 12.526676
55.680 12.32044
55.685 12.741603
55.690 13.077754
55.695 13.121248
55.700 14.0733
55.705 14.30796
55.710 13.811925
55.715 13.418713
55.720 12.725718
55.725 12.779195
55.730 12.609006
55.735 11.695886
55.740 11.26124
55.745 11.011791
55.750 10.770244
55.755 10.625184
55.760 10.566848
55.765 10.676903
55.770 10.969949
55.775 11.516028
55.780 11.992227
55.785 12.212595
55.790 11.955254
55.795 11.920287
55.800 12.218273
55.805 12.938723
55.810 12.841296
55.815 13.07937
55.820 13.540599
55.825 13.450159
55.830 13.501854
55.835 13.515804
55.840 13.434291
55.845 13.765216
55.850 14.115604
55.855 14.326781
55.860 14.255843
55.865 14.357301
55.870 14.053012
55.875 14.267368
55.880 13.737493
55.885 13.084802
55.890 13.13107
55.895 13.219123
55.900 13.068545
55.905 13.052304
55.910 12.856913
55.915 13.687421
55.920 13.686396
55.925 13.136264
55.930 13.285192
55.935 13.141126
55.940 13.649045
55.945 13.724075
55.950 14.07452
55.955 14.257056
55.960 13.935281
55.965 13.564835
55.970 13.498686
55.975 12.445613
55.980 11.994138
55.985 10.722242
55.990 11.422871
55.995 12.585193
56.000 12.991376
56.005 13.178201
56.010 14.120984
56.015 14.49518
56.020 14.957759
56.025 14.361352
56.030 13.951671
56.035 13.633564
56.040 13.54571
56.045 13.144567
56.050 13.060454
56.055 13.632786
56.060 14.005681
56.065 14.055857
56.070 14.289704
56.075 14.424752
56.080 14.845985
56.085 15.008291
56.090 14.674108
56.095 14.790883
56.100 14.845871
56.105 14.926454
56.110 14.724957
56.115 14.409883
56.120 14.055895
56.125 13.259649
56.130 12.789372
56.135 12.731245
56.140 12.676855
56.145 12.65966
56.150 12.481264
56.155 12.409581
56.160 12.779287
56.165 13.288654
56.170 13.518747
56.175 13.379518
56.180 13.192545
56.185 13.052282
56.190 12.817926
56.195 12.293293
56.200 11.64391
56.205 11.853621
56.210 11.795498
56.215 11.659113
56.220 12.256749
56.225 12.798988
56.230 13.325624
56.235 14.090364
56.240 13.98088
56.245 14.347753
56.250 14.301832
56.255 13.951558
56.260 14.144834
56.265 13.966829
56.270 13.379556
56.275 13.60406
56.280 13.579159
56.285 13.466003
56.290 13.657966
56.295 13.373919
56.300 12.8859
56.305 12.731273
56.310 12.265097
56.315 12.20135
56.320 12.613583
56.325 12.435567
56.330 12.746713
56.335 12.772345
56.340 12.791728
56.345 13.433955
56.350 13.809669
56.355 13.792116
56.360 13.578016
56.365 13.585375
56.370 13.754155
56.375 13.902638
56.380 13.723287
56.385 13.36779
56.390 13.198348
56.395 12.998101
56.400 12.666688
56.405 12.69598
56.410 12.642564
56.415 12.187365
56.420 12.487965
56.425 12.888434
56.430 12.699618
56.435 12.817194
56.440 12.689598
56.445 12.183869
56.450 12.088468
56.455 11.551043
56.460 11.74619
56.465 11.876677
56.470 12.291184
56.475 12.765637
56.480 13.284526
56.485 14.06199
56.490 15.456679
56.495 16.006298
56.500 16.08474
56.505 15.465942
56.510 15.018387
56.515 15.129774
56.520 14.488799
56.525 13.092785
56.530 12.356709
56.535 12.902132
56.540 13.382571
56.545 13.610382
56.550 13.903527
56.555 13.737228
56.560 13.940966
56.565 13.957029
56.570 13.122512
56.575 12.708343
56.580 12.505292
56.585 11.731112
56.590 11.604383
56.595 11.997246
56.600 12.232108
56.605 12.45599
56.610 12.665862
56.615 12.805748
56.620 12.830963
56.625 13.104002
56.630 12.79947
56.635 12.856901
56.640 13.017653
56.645 12.708103
56.650 13.001705
56.655 13.618346
56.660 14.245603
56.665 14.716995
56.670 14.689196
56.675 14.826331
56.680 14.759538
56.685 14.946027
56.690 14.899422
56.695 14.028803
56.700 13.846814
56.705 13.890263
56.710 14.630159
56.715 14.934481
56.720 14.792089
56.725 15.155102
56.730 15.644313
56.735 16.147243
56.740 16.570482
56.745 16.257488
56.750 15.714343
56.755 15.558402
56.760 15.103604
56.765 14.730973
56.770 13.96227
56.775 13.447927
56.780 13.782273
56.785 13.99787
56.790 14.174438
56.795 13.958994
56.800 14.582362
56.805 15.050795
56.810 15.440835
56.815 15.590712
56.820 15.384057
56.825 15.320218
56.830 15.203278
56.835 14.464111
56.840 14.50523
56.845 13.568578
56.850 13.04138
56.855 12.628057
56.860 12.669024
56.865 13.322083
56.870 13.409506
56.875 12.769084
56.880 12.637194
56.885 12.840182
56.890 13.012925
56.895 12.708097
56.900 12.132891
56.905 12.309946
56.910 12.642782
56.915 13.110355
56.920 12.982345
56.925 12.833924
56.930 12.818725
56.935 13.008919
56.940 12.506398
56.945 12.598511
56.950 12.356235
56.955 12.708776
56.960 12.689116
56.965 13.489382
56.970 13.877811
56.975 14.605589
56.980 14.989819
56.985 14.982162
56.990 14.445748
56.995 14.340919
57.000 13.371804
57.005 13.163294
57.010 13.349776
57.015 13.638512
57.020 14.146019
57.025 14.857959
57.030 14.946081
57.035 15.372768
57.040 14.500047
57.045 13.533084
57.050 12.985591
57.055 12.987265
57.060 13.085841
57.065 13.035389
57.070 13.110279
57.075 13.278707
57.080 13.470623
57.085 13.467555
57.090 12.92949
57.095 13.231959
57.100 13.26341
57.105 13.228816
57.110 13.81876
57.115 13.921997
57.120 13.852435
57.125 14.006273
57.130 13.4956
57.135 13.942819
57.140 13.976337
57.145 13.59152
57.150 13.592296
57.155 13.935857
57.160 13.754225
57.165 14.433564
57.170 14.686534
57.175 14.520783
57.180 14.645424
57.185 15.172926
57.190 15.002487
57.195 15.065287
57.200 14.522923
57.205 14.4376
57.210 15.021988
57.215 14.904322
57.220 14.473654
57.225 14.344953
57.230 14.222482
57.235 14.009257
57.240 13.818234
57.245 13.755013
57.250 13.615495
57.255 13.453413
57.260 13.859857
57.265 14.078842
57.270 13.644326
57.275 13.658574
57.280 13.387147
57.285 13.728341
57.290 14.105328
57.295 13.481815
57.300 13.167386
57.305 13.389301
57.310 13.072003
57.315 12.984478
57.320 12.847565
57.325 12.696375
57.330 13.134877
57.335 13.351151
57.340 13.500499
57.345 13.941819
57.350 14.231878
57.355 14.195581
57.360 14.335781
57.365 14.263285
57.370 14.101281
57.375 14.318638
57.380 14.194336
57.385 13.828776
57.390 14.017293
57.395 13.725386
57.400 13.817501
57.405 13.450331
57.410 13.25714
57.415 13.825191
57.420 14.34935
57.425 14.387648
57.430 14.297784
57.435 14.124693
57.440 14.064755
57.445 13.673018
57.450 13.211772
57.455 12.361465
57.460 12.274896
57.465 12.450895
57.470 12.964355
57.475 13.255939
57.480 13.570506
57.485 13.909432
57.490 14.648194
57.495 14.702781
57.500 14.915093
57.505 15.013404
57.510 14.879123
57.515 14.8281
57.520 14.339067
57.525 14.138499
57.530 14.384101
57.535 14.214617
57.540 14.083619
57.545 14.029012
57.550 13.88487
57.555 13.954437
57.560 13.855639
57.565 13.820232
57.570 13.880187
57.575 13.852407
57.580 13.785679
57.585 13.435418
57.590 14.197012
57.595 14.363955
57.600 14.423011
57.605 14.436265
57.610 15.26658
57.615 15.988653
57.620 16.434141
57.625 15.802943
57.630 15.540991
57.635 15.383942
57.640 15.13096
57.645 14.453056
57.650 14.451149
57.655 14.652317
57.660 14.871891
57.665 15.177567
57.670 15.514675
57.675 16.075775
57.680 16.5502
57.685 16.353617
57.690 16.112312
57.695 16.317968
57.700 16.126566
57.705 15.837084
57.710 15.242509
57.715 15.052003
57.720 15.122279
57.725 15.154915
57.730 14.659605
57.735 14.487141
57.740 14.140464
57.745 14.22009
57.750 14.389341
57.755 14.303782
57.760 14.195206
57.765 14.39525
57.770 14.74403
57.775 15.000658
57.780 14.923216
57.785 14.966814
57.790 14.735383
57.795 14.794538
57.800 14.444824
57.805 14.348263
57.810 14.168316
57.815 14.103033
57.820 14.111546
57.825 14.339893
57.830 14.66054
57.835 15.112158
57.840 15.191873
57.845 15.520199
57.850 15.813471
57.855 15.715646
57.860 15.705878
57.865 16.017921
57.870 16.068447
57.875 16.129366
57.880 16.170511
57.885 15.882373
57.890 15.684301
57.895 15.521995
57.900 15.497346
57.905 15.598671
57.910 15.700959
57.915 15.120456
57.920 14.929556
57.925 15.193624
57.930 15.480595
57.935 15.409634
57.940 15.100515
57.945 14.596686
57.950 14.900453
57.955 15.411221
57.960 15.356531
57.965 14.526149
57.970 14.673265
57.975 15.387056
57.980 16.239876
57.985 16.17651
57.990 15.725732
57.995 16.034071
58.000 16.307819
58.005 15.582715
58.010 14.947931
58.015 14.759275
58.020 14.73696
58.025 14.39827
58.030 14.553885
58.035 14.963385
58.040 14.9336
58.045 15.055367
58.050 15.233161
58.055 15.492139
58.060 15.838049
58.065 15.927467
58.070 16.084263
58.075 16.003126
58.080 15.794652
58.085 14.850137
58.090 14.441364
58.095 14.173501
58.100 13.596649
58.105 13.515138
58.110 13.69674
58.115 13.791768
58.120 14.305853
58.125 14.599176
58.130 15.084982
58.135 15.222862
58.140 14.86167
58.145 14.508463
58.150 14.500664
58.155 14.685135
58.160 14.540027
58.165 14.100766
58.170 14.254016
58.175 14.33534
58.180 14.311967
58.185 14.189256
58.190 14.570518
58.195 14.913835
58.200 15.619514
58.205 16.035778
58.210 16.49412
58.215 16.361469
58.220 16.491062
58.225 16.584286
58.230 16.492672
58.235 16.074215
58.240 16.192646
58.245 16.661572
58.250 17.203634
58.255 17.216894
58.260 16.652193
58.265 17.012249
58.270 17.144831
58.275 16.382338
58.280 16.529919
58.285 16.965473
58.290 17.560526
58.295 18.040888
58.300 17.713306
58.305 17.481184
58.310 17.799662
58.315 17.682671
58.320 17.585636
58.325 16.816872
58.330 16.245512
58.335 16.19075
58.340 16.015472
58.345 16.18206
58.350 15.778011
58.355 15.893528
58.360 16.324768
58.365 16.608259
58.370 16.619362
58.375 16.736284
58.380 16.480539
58.385 16.209936
58.390 16.031483
58.395 16.143875
58.400 15.950064
58.405 16.01524
58.410 15.897332
58.415 16.032681
58.420 17.072021
58.425 17.302767
58.430 17.464668
58.435 17.642885
58.440 17.824192
58.445 17.793146
58.450 18.132359
58.455 17.528862
58.460 17.566336
58.465 17.784925
58.470 17.601673
58.475 17.498117
58.480 17.15765
