!@!!GADDS PLOTSO FILE: Chi integration type
!@!!Title/SampleName: map-dc
!@!!Comment: ?
!@!!User: Bruker Instrument Administrator
!@!!Site: University of Illinois Chicago
!@!!Frame: map-dc_01_000.gfrm
!@!!Wavelengths    1.54184   1.54056   1.54439
!@!!Frame angles: 2Theta: 63.000 Omega: 50.000 Phi: 0.000 Chi: 90.000
!@!!Integration range: 2Theta: 53.000 to 73.000  Gamma: -105.000 to -75.000
!@!!Integration method: bin normalized
!@!N
!@!SS
!@!M
!@!L 0.0 0.0 0.0 0.0
!@!XDegrees
!@!YCounts
53.000 9.778277
53.005 9.561723
53.010 9.541598
53.015 9.414877
53.020 9.667836
53.025 9.682533
53.030 9.514562
53.035 9.789974
53.040 9.737243
53.045 9.849358
53.050 10.116864
53.055 10.183828
53.060 10.372381
53.065 10.396609
53.070 10.335144
53.075 10.626683
53.080 10.817284
53.085 10.479924
53.090 10.815932
53.095 10.614246
53.100 10.309099
53.105 10.205587
53.110 10.026807
53.115 9.641359
53.120 9.435456
53.125 8.601584
53.130 8.920006
53.135 9.486104
53.140 9.495705
53.145 9.440672
53.150 9.605497
53.155 10.44475
53.160 10.620459
53.165 10.541587
53.170 10.256096
53.175 10.367062
53.180 10.237457
53.185 9.890887
53.190 9.20809
53.195 9.190496
53.200 8.795706
53.205 8.744148
53.210 8.698654
53.215 8.997631
53.220 9.345031
53.225 9.337864
53.230 9.433743
53.235 9.90758
53.240 9.887807
53.245 9.836916
53.250 9.32058
53.255 9.468927
53.260 9.945732
53.265 10.014303
53.270 10.053453
53.275 10.30099
53.280 10.443105
53.285 10.777494
53.290 10.392849
53.295 10.26729
53.300 10.412958
53.305 10.366442
53.310 10.295128
53.315 10.774278
53.320 10.686266
53.325 10.400403
53.330 10.0016
53.335 9.634455
53.340 9.58731
53.345 9.129159
53.350 8.996456
53.355 9.388328
53.360 9.795386
53.365 9.567092
53.370 9.788171
53.375 9.748527
53.380 10.145786
53.385 10.161407
53.390 10.259654
53.395 10.514447
53.400 10.937685
53.405 11.161117
53.410 11.253419
53.415 10.610527
53.420 10.842044
53.425 10.432987
53.430 10.079959
53.435 9.792548
53.440 9.345321
53.445 9.856332
53.450 9.951374
53.455 10.199179
53.460 10.489306
53.465 10.292175
53.470 10.661776
53.475 10.758447
53.480 10.536831
53.485 10.46002
53.490 9.9033
53.495 9.735951
53.500 10.069398
53.505 10.278625
53.510 10.143827
53.515 9.843667
53.520 9.918547
53.525 10.196755
53.530 10.272769
53.535 10.08871
53.540 10.212967
53.545 10.313446
53.550 10.335999
53.555 10.665484
53.560 10.640773
53.565 10.875334
53.570 10.516825
53.575 10.289065
53.580 10.409332
53.585 10.406693
53.590 10.441278
53.595 10.531817
53.600 10.778462
53.605 11.229508
53.610 11.156882
53.615 11.214429
53.620 11.829368
53.625 11.759491
53.630 11.805512
53.635 11.362839
53.640 10.912883
53.645 10.728773
53.650 10.605004
53.655 9.940763
53.660 9.410908
53.665 8.995052
53.670 9.359191
53.675 10.247102
53.680 10.281507
53.685 10.050232
53.690 10.532009
53.695 10.70064
53.700 10.626697
53.705 10.688929
53.710 10.525414
53.715 10.466439
53.720 10.997849
53.725 11.131063
53.730 11.548987
53.735 11.342052
53.740 11.116695
53.745 11.299603
53.750 11.486312
53.755 11.119033
53.760 11.198593
53.765 11.638469
53.770 11.844839
53.775 11.753157
53.780 11.500445
53.785 11.543325
53.790 11.165144
53.795 10.69049
53.800 10.247158
53.805 9.970453
53.810 9.805437
53.815 10.161653
53.820 10.521436
53.825 11.433003
53.830 11.801841
53.835 11.702221
53.840 12.051368
53.845 12.043432
53.850 11.711779
53.855 11.515429
53.860 10.769151
53.865 10.631364
53.870 10.658835
53.875 10.858811
53.880 11.006272
53.885 11.511343
53.890 11.536907
53.895 11.701067
53.900 11.629311
53.905 11.637394
53.910 11.035552
53.915 10.705815
53.920 10.492013
53.925 10.158829
53.930 10.169866
53.935 10.528224
53.940 10.345744
53.945 10.600545
53.950 10.563538
53.955 10.164665
53.960 10.176702
53.965 9.92974
53.970 9.590964
53.975 9.493855
53.980 9.729216
53.985 10.02808
53.990 10.346602
53.995 10.792757
54.000 11.08277
54.005 11.236523
54.010 11.488798
54.015 11.659369
54.020 11.771809
54.025 11.912575
54.030 11.769513
54.035 11.704166
54.040 12.088691
54.045 12.083813
54.050 11.551779
54.055 11.45542
54.060 11.430489
54.065 11.403404
54.070 11.745028
54.075 11.378355
54.080 11.43907
54.085 11.523686
54.090 11.273464
54.095 11.417801
54.100 11.744255
54.105 11.419219
54.110 11.363851
54.115 11.474256
54.120 11.87708
54.125 12.316415
54.130 11.876729
54.135 11.516445
54.140 11.575098
54.145 11.758694
54.150 11.717763
54.155 11.398323
54.160 10.877531
54.165 10.644311
54.170 11.089663
54.175 10.895237
54.180 10.755579
54.185 10.520195
54.190 10.250784
54.195 10.345245
54.200 10.329201
54.205 10.16839
54.210 10.399468
54.215 9.984348
54.220 9.965998
54.225 10.458783
54.230 10.74175
54.235 11.008782
54.240 10.841763
54.245 11.210945
54.250 11.748205
54.255 11.77189
54.260 12.056965
54.265 11.946322
54.270 11.91308
54.275 12.166747
54.280 11.876451
54.285 11.717851
54.290 11.972473
54.295 11.441686
54.300 11.429504
54.305 11.726962
54.310 11.246653
54.315 11.04675
54.320 10.707257
54.325 10.519962
54.330 10.771517
54.335 10.758031
54.340 10.601633
54.345 10.991271
54.350 11.319818
54.355 11.869494
54.360 11.365341
54.365 11.683722
54.370 12.065209
54.375 11.744784
54.380 11.357428
54.385 10.907188
54.390 10.585197
54.395 10.73098
54.400 10.378124
54.405 10.2356
54.410 10.885338
54.415 11.229143
54.420 11.319724
54.425 11.60438
54.430 11.956122
54.435 12.268291
54.440 12.186916
54.445 11.932869
54.450 12.037488
54.455 12.172714
54.460 11.984577
54.465 11.765208
54.470 11.280169
54.475 10.819871
54.480 11.265927
54.485 11.651964
54.490 11.578077
54.495 11.184956
54.500 10.974664
54.505 10.781219
54.510 10.942434
54.515 11.260205
54.520 10.749596
54.525 10.843383
54.530 10.935419
54.535 10.811705
54.540 11.130467
54.545 10.826164
54.550 10.35263
54.555 10.658695
54.560 10.741803
54.565 10.728132
54.570 10.922725
54.575 11.013979
54.580 10.667974
54.585 10.573437
54.590 10.505579
54.595 10.684288
54.600 11.121422
54.605 10.852909
54.610 10.721596
54.615 10.737631
54.620 10.585453
54.625 10.468899
54.630 10.310939
54.635 10.116879
54.640 10.232154
54.645 10.520883
54.650 11.161765
54.655 11.342464
54.660 11.483236
54.665 11.578297
54.670 11.915796
54.675 12.099225
54.680 12.10726
54.685 11.986163
54.690 12.560254
54.695 13.198941
54.700 13.597175
54.705 13.750998
54.710 13.822817
54.715 13.806241
54.720 13.60686
54.725 12.953326
54.730 12.667876
54.735 12.370824
54.740 12.180247
54.745 12.461976
54.750 12.94282
54.755 12.9667
54.760 13.220619
54.765 13.280664
54.770 13.763677
54.775 13.889066
54.780 13.615671
54.785 13.431931
54.790 13.141382
54.795 13.062476
54.800 12.876681
54.805 12.466933
54.810 12.056114
54.815 11.767903
54.820 11.90788
54.825 11.778793
54.830 11.240637
54.835 11.498978
54.840 11.583293
54.845 12.016862
54.850 12.322367
54.855 12.767439
54.860 13.335744
54.865 13.583779
54.870 13.163361
54.875 13.137552
54.880 12.98624
54.885 12.471765
54.890 11.86224
54.895 12.065541
54.900 12.213848
54.905 12.748791
54.910 13.091764
54.915 13.686126
54.920 13.778418
54.925 13.878991
54.930 13.563847
54.935 13.268998
54.940 12.926638
54.945 12.921807
54.950 12.593686
54.955 12.391717
54.960 12.217411
54.965 12.160644
54.970 12.495073
54.975 12.753891
54.980 12.281522
54.985 12.060911
54.990 12.120423
54.995 11.926569
55.000 12.000181
55.005 11.906624
55.010 11.799117
55.015 12.287804
55.020 12.44341
55.025 12.386597
55.030 12.188244
55.035 12.07929
55.040 11.9613
55.045 12.282906
55.050 12.093116
55.055 11.966228
55.060 12.346055
55.065 12.565861
55.070 12.7576
55.075 12.618981
55.080 12.641376
55.085 12.604522
55.090 12.452145
55.095 12.645501
55.100 12.161102
55.105 12.281181
55.110 12.243845
55.115 12.613209
55.120 12.317989
55.125 12.486367
55.130 12.41117
55.135 13.23524
55.140 13.323512
55.145 13.439711
55.150 13.680057
55.155 14.038848
55.160 14.075476
55.165 14.088899
55.170 13.695383
55.175 13.310137
55.180 12.734505
55.185 12.525323
55.190 12.523697
55.195 12.427814
55.200 12.128047
55.205 12.245897
55.210 12.520109
55.215 12.292042
55.220 11.906159
55.225 11.954349
55.230 11.934475
55.235 12.651098
55.240 12.526812
55.245 12.788746
55.250 13.093109
55.255 12.877645
55.260 13.015635
55.265 13.555797
55.270 13.097548
55.275 12.896633
55.280 12.783548
55.285 12.757998
55.290 13.090137
55.295 12.552666
55.300 12.293583
55.305 11.877663
55.310 11.940319
55.315 11.861824
55.320 11.94115
55.325 11.9463
55.330 11.83078
55.335 11.432497
55.340 11.46165
55.345 11.358368
55.350 11.691978
55.355 11.426978
55.360 11.181781
55.365 12.014683
55.370 12.732171
55.375 13.159578
55.380 13.627351
55.385 13.842404
55.390 14.309316
55.395 14.674338
55.400 14.234335
55.405 13.973525
55.410 14.028417
55.415 13.631894
55.420 13.306812
55.425 12.934669
55.430 13.173412
55.435 12.756071
55.440 12.482928
55.445 11.918894
55.450 12.152794
55.455 12.297082
55.460 12.297007
55.465 12.106601
55.470 12.416768
55.475 12.460347
55.480 12.549292
55.485 12.446548
55.490 12.512826
55.495 12.483304
55.500 12.460371
55.505 12.387447
55.510 12.83683
55.515 13.030511
55.520 12.58413
55.525 12.604027
55.530 12.391351
55.535 12.604575
55.540 12.998528
55.545 12.721833
55.550 12.507057
55.555 12.711824
55.560 13.0378
55.565 13.70636
55.570 13.518645
55.575 13.643964
55.580 13.498546
55.585 13.460365
55.590 13.036468
55.595 12.560339
55.600 11.714665
55.605 11.604007
55.610 11.426986
55.615 11.352883
55.620 11.542225
55.625 11.774044
55.630 12.50487
55.635 13.615567
55.640 13.793431
55.645 13.232005
55.650 13.308373
55.655 13.03734
55.660 12.895792
55.665 12.109131
55.670 10.975206
55.675 10.849973
55.680 11.749492
55.685 11.649133
55.690 12.040459
55.695 12.119535
55.700 12.090341
55.705 12.374393
55.710 12.025908
55.715 12.247497
55.720 12.485134
55.725 12.309607
55.730 12.427571
55.735 12.699309
55.740 12.799851
55.745 12.987054
55.750 12.992184
55.755 12.662686
55.760 12.647012
55.765 12.654944
55.770 12.883484
55.775 13.217773
55.780 13.074209
55.785 12.621117
55.790 13.189894
55.795 13.313544
55.800 13.178087
55.805 13.044735
55.810 13.28933
55.815 13.750668
55.820 13.967003
55.825 13.965399
55.830 14.278303
55.835 14.428534
55.840 15.038933
55.845 14.500698
55.850 13.824696
55.855 13.564198
55.860 12.955053
55.865 12.583919
55.870 12.110599
55.875 11.68376
55.880 11.722427
55.885 12.116483
55.890 12.320297
55.895 12.918909
55.900 13.176532
55.905 13.128738
55.910 12.961302
55.915 13.477304
55.920 14.000816
55.925 14.212833
55.930 14.074862
55.935 14.536522
55.940 14.51303
55.945 15.094568
55.950 14.895635
55.955 14.392595
55.960 13.938963
55.965 13.492677
55.970 13.472845
55.975 13.242019
55.980 12.736471
55.985 12.154111
55.990 12.669455
55.995 13.063938
56.000 12.754205
56.005 12.555223
56.010 12.736051
56.015 13.270809
56.020 13.67816
56.025 13.538639
56.030 14.036194
56.035 14.924794
56.040 15.040884
56.045 14.690999
56.050 14.011366
56.055 14.310186
56.060 14.454363
56.065 14.333515
56.070 13.748484
56.075 14.334723
56.080 15.309466
56.085 15.821838
56.090 15.301412
56.095 13.987182
56.100 13.854187
56.105 13.478399
56.110 12.831943
56.115 12.347216
56.120 11.98679
56.125 12.248363
56.130 13.137988
56.135 13.298673
56.140 13.33701
56.145 13.380709
56.150 13.602039
56.155 13.841304
56.160 14.038685
56.165 14.14793
56.170 14.5012
56.175 14.746219
56.180 14.798492
56.185 13.966521
56.190 13.717974
56.195 13.595515
56.200 13.053138
56.205 12.926435
56.210 12.993328
56.215 13.321027
56.220 13.76714
56.225 13.880509
56.230 14.235212
56.235 14.301319
56.240 14.322787
56.245 14.507319
56.250 14.272
56.255 14.313396
56.260 13.845157
56.265 13.417463
56.270 13.429146
56.275 13.393282
56.280 12.366443
56.285 12.165831
56.290 12.521403
56.295 12.898187
56.300 12.910667
56.305 12.742769
56.310 13.094336
56.315 14.055152
56.320 14.323526
56.325 13.35989
56.330 13.154559
56.335 13.368369
56.340 13.733068
56.345 13.731204
56.350 13.695585
56.355 14.29181
56.360 15.129785
56.365 15.280551
56.370 14.788507
56.375 14.500297
56.380 14.128099
56.385 13.682951
56.390 13.12221
56.395 12.959976
56.400 13.237365
56.405 14.087813
56.410 13.900266
56.415 13.759052
56.420 14.579181
56.425 15.209206
56.430 14.754185
56.435 14.215942
56.440 13.932415
56.445 14.108726
56.450 13.816235
56.455 12.999241
56.460 12.779552
56.465 13.321291
56.470 13.544999
56.475 13.761167
56.480 14.605289
56.485 14.975266
56.490 15.58559
56.495 15.502556
56.500 15.168792
56.505 14.822603
56.510 14.159086
56.515 13.70766
56.520 13.836407
56.525 13.636637
56.530 13.824162
56.535 14.444195
56.540 14.734845
56.545 14.675437
56.550 14.703431
56.555 14.738192
56.560 14.879095
56.565 14.901246
56.570 15.116307
56.575 15.584517
56.580 15.994389
56.585 15.945745
56.590 15.675364
56.595 15.552258
56.600 15.69888
56.605 14.935549
56.610 14.371859
56.615 14.067187
56.620 13.973813
56.625 13.944966
56.630 14.105319
56.635 14.401651
56.640 14.975198
56.645 15.390866
56.650 15.425262
56.655 15.318216
56.660 14.705245
56.665 14.488145
56.670 14.109935
56.675 13.183609
56.680 12.924437
56.685 13.523978
56.690 13.801812
56.695 14.024715
56.700 13.747006
56.705 13.206544
56.710 13.379805
56.715 13.308502
56.720 12.568149
56.725 11.94078
56.730 12.415135
56.735 13.073714
56.740 14.303996
56.745 14.616007
56.750 14.882508
56.755 15.508767
56.760 15.895926
56.765 16.189695
56.770 16.138903
56.775 15.95393
56.780 16.354773
56.785 16.409918
56.790 16.434923
56.795 16.322237
56.800 16.16679
56.805 16.010014
56.810 15.816565
56.815 16.05846
56.820 15.612461
56.825 15.391786
56.830 15.238134
56.835 14.43975
56.840 14.316444
56.845 13.805806
56.850 13.403628
56.855 13.65166
56.860 14.268535
56.865 14.951335
56.870 15.081772
56.875 14.909486
56.880 14.965443
56.885 15.007453
56.890 14.946568
56.895 14.514729
56.900 14.259506
56.905 14.576309
56.910 14.675164
56.915 15.169952
56.920 14.72371
56.925 14.54637
56.930 14.935207
56.935 14.921917
56.940 14.380897
56.945 14.325254
56.950 14.307013
56.955 14.285928
56.960 14.246199
56.965 14.173107
56.970 13.891317
56.975 14.30875
56.980 13.939198
56.985 13.807795
56.990 14.581647
56.995 14.651495
57.000 14.075106
57.005 14.217895
57.010 13.895453
57.015 13.938586
57.020 13.866758
57.025 13.532103
57.030 13.434746
57.035 13.435373
57.040 13.158711
57.045 13.116731
57.050 13.539232
57.055 14.047909
57.060 14.235981
57.065 14.709402
57.070 15.330534
57.075 15.972934
57.080 16.757914
57.085 16.545425
57.090 15.908607
57.095 15.911618
57.100 15.749214
57.105 15.216535
57.110 15.024775
57.115 14.96517
57.120 15.367851
57.125 15.41401
57.130 15.381897
57.135 15.249953
57.140 16.17532
57.145 15.748953
57.150 15.419544
57.155 14.767926
57.160 14.787897
57.165 14.93105
57.170 15.126359
57.175 14.429379
57.180 14.312013
57.185 14.075428
57.190 14.353273
57.195 14.190717
57.200 13.723394
57.205 13.670584
57.210 13.968667
57.215 14.207
57.220 14.313061
57.225 14.734303
57.230 14.8451
57.235 15.115108
57.240 15.141575
57.245 14.885353
57.250 15.061095
57.255 15.032302
57.260 14.993603
57.265 15.082887
57.270 14.719821
57.275 14.766186
57.280 14.812279
57.285 14.833106
57.290 14.566788
57.295 14.514977
57.300 14.564773
57.305 14.57021
57.310 14.122551
57.315 14.309668
57.320 14.512374
57.325 14.626698
57.330 14.375739
57.335 14.832751
57.340 15.576754
57.345 15.858687
57.350 15.79754
57.355 15.782166
57.360 15.933288
57.365 15.808807
57.370 15.574991
57.375 15.338166
57.380 15.308722
57.385 15.115667
57.390 14.941463
57.395 15.334771
57.400 15.722881
57.405 15.756789
57.410 15.723916
57.415 15.732615
57.420 15.857807
57.425 15.647248
57.430 15.303918
57.435 15.227335
57.440 15.506072
57.445 15.256865
57.450 15.493422
57.455 15.73544
57.460 16.354548
57.465 16.094303
57.470 15.675853
57.475 15.24932
57.480 15.612358
57.485 15.44638
57.490 15.331837
57.495 15.161954
57.500 15.239891
57.505 15.547598
57.510 16.060598
57.515 15.919567
57.520 15.570593
57.525 16.025591
57.530 15.550967
57.535 15.530242
57.540 15.473872
57.545 15.031222
57.550 15.038943
57.555 15.245371
57.560 15.083161
57.565 15.006137
57.570 15.183413
57.575 14.928346
57.580 14.695392
57.585 14.565978
57.590 14.466337
57.595 14.304767
57.600 15.056822
57.605 15.089829
57.610 15.036404
57.615 15.131183
57.620 15.543557
57.625 15.345917
57.630 15.652458
57.635 15.768459
57.640 15.861041
57.645 16.379408
57.650 16.645838
57.655 16.755978
57.660 17.089773
57.665 16.57081
57.670 16.244671
57.675 16.171904
57.680 15.609431
57.685 15.85954
57.690 16.431831
57.695 17.055578
57.700 17.230518
57.705 16.986835
57.710 16.978142
57.715 16.920364
57.720 16.462917
57.725 15.571977
57.730 15.027773
57.735 15.118322
57.740 15.213008
57.745 15.061369
57.750 15.482446
57.755 15.732729
57.760 15.615135
57.765 15.2722
57.770 14.583979
57.775 14.732144
57.780 14.953938
57.785 14.391887
57.790 14.6099
57.795 14.302112
57.800 14.354542
57.805 14.319141
57.810 14.292332
57.815 14.470316
57.820 14.264993
57.825 14.18292
57.830 14.096605
57.835 14.093843
57.840 14.45882
57.845 14.523312
57.850 14.501979
57.855 14.389704
57.860 14.103534
57.865 14.600736
57.870 14.830058
57.875 15.002477
57.880 14.88615
57.885 15.294101
57.890 15.370185
57.895 15.51362
57.900 15.176338
57.905 14.935555
57.910 14.617434
57.915 14.036683
57.920 14.337939
57.925 14.166821
57.930 13.840587
57.935 13.911975
57.940 14.500982
57.945 15.083794
57.950 16.038918
57.955 15.912756
57.960 16.271936
57.965 16.391485
57.970 16.614983
57.975 15.778267
57.980 15.485297
57.985 15.208009
57.990 15.022346
57.995 15.434009
58.000 15.731586
58.005 16.031771
58.010 15.973839
58.015 15.824584
58.020 15.63801
58.025 15.490754
58.030 15.297974
58.035 15.252281
58.040 15.265761
58.045 15.306931
58.050 15.233254
58.055 15.217282
58.060 15.316983
58.065 15.770586
58.070 16.052961
58.075 15.609529
58.080 15.767961
58.085 15.402189
58.090 14.995872
58.095 14.795077
58.100 14.476092
58.105 14.903369
58.110 15.191476
58.115 15.029645
58.120 15.358501
58.125 15.980466
58.130 16.213373
58.135 15.746314
58.140 14.975417
58.145 15.584099
58.150 16.141142
58.155 16.190077
58.160 15.76312
58.165 15.316752
58.170 15.383129
58.175 15.610626
58.180 15.18784
58.185 14.894809
58.190 14.855851
58.195 15.003853
58.200 15.909369
58.205 16.596941
58.210 16.492193
58.215 16.095419
58.220 16.027676
58.225 16.042679
58.230 16.223415
58.235 15.220428
58.240 14.539877
58.245 14.081908
58.250 13.816578
58.255 13.848779
58.260 13.952611
58.265 13.876892
58.270 14.748853
58.275 15.410285
58.280 15.606529
58.285 16.257214
58.290 16.473499
58.295 16.56946
58.300 16.866346
58.305 16.927822
58.310 16.611858
58.315 16.665171
58.320 17.007082
58.325 17.359123
58.330 17.501547
58.335 17.06127
58.340 16.644903
58.345 16.662657
58.350 16.783335
58.355 16.268749
58.360 16.370651
58.365 16.591408
58.370 16.859404
58.375 16.999966
58.380 16.906034
58.385 16.580278
58.390 16.750893
58.395 16.593178
58.400 16.568148
58.405 16.392582
58.410 16.235868
58.415 16.496073
58.420 16.694412
58.425 16.577932
58.430 16.498442
58.435 15.994547
58.440 15.615888
58.445 15.775794
58.450 15.771523
58.455 15.726977
