!@!!GADDS PLOTSO FILE: Chi integration type
!@!!Title/SampleName: map-172
!@!!Comment: ?
!@!!User: Bruker Instrument Administrator
!@!!Site: University of Illinois Chicago
!@!!Frame: map-172_01_000.gfrm
!@!!Wavelengths    1.54184   1.54056   1.54439
!@!!Frame angles: 2Theta: 63.000 Omega: 50.000 Phi: 0.000 Chi: 90.000
!@!!Integration range: 2Theta: 53.000 to 73.000  Gamma: -105.000 to -75.000
!@!!Integration method: bin normalized
!@!N
!@!SS
!@!M
!@!L 0.0 0.0 0.0 0.0
!@!XDegrees
!@!YCounts
53.000 4.74171
53.005 4.793628
53.010 4.886411
53.015 4.834521
53.020 4.907572
53.025 5.024716
53.030 4.663597
53.035 4.435505
53.040 4.436468
53.045 4.401941
53.050 4.437215
53.055 4.243867
53.060 4.242773
53.065 3.958324
53.070 3.6279
53.075 3.490643
53.080 3.437622
53.085 3.638551
53.090 3.70039
53.095 3.637569
53.100 3.971956
53.105 4.086059
53.110 4.151737
53.115 4.085597
53.120 3.924147
53.125 3.833106
53.130 3.921716
53.135 3.806756
53.140 3.6328
53.145 3.622609
53.150 3.803891
53.155 3.759824
53.160 3.689757
53.165 3.573744
53.170 3.682368
53.175 3.627944
53.180 3.536196
53.185 3.375777
53.190 3.38455
53.195 3.789392
53.200 3.766552
53.205 3.603168
53.210 3.79434
53.215 3.902339
53.220 4.312824
53.225 4.231001
53.230 4.113806
53.235 4.322504
53.240 4.44017
53.245 4.354278
53.250 3.912454
53.255 3.715486
53.260 3.803486
53.265 3.979837
53.270 3.889207
53.275 3.771251
53.280 4.012271
53.285 3.850282
53.290 3.785084
53.295 3.474355
53.300 3.310012
53.305 3.433623
53.310 3.227977
53.315 3.155304
53.320 3.176688
53.325 3.25133
53.330 3.644081
53.335 3.687004
53.340 3.597773
53.345 3.767368
53.350 3.736202
53.355 3.63374
53.360 3.919868
53.365 3.918702
53.370 3.984696
53.375 3.984224
53.380 4.082292
53.385 4.447125
53.390 4.4863
53.395 4.106578
53.400 3.847111
53.405 3.754181
53.410 3.751244
53.415 3.478575
53.420 3.607722
53.425 3.51134
53.430 3.434993
53.435 3.48157
53.440 3.555745
53.445 3.553316
53.450 3.753876
53.455 3.589769
53.460 3.904561
53.465 4.203994
53.470 4.43028
53.475 4.177069
53.480 4.099657
53.485 3.883222
53.490 3.79641
53.495 3.379511
53.500 3.437486
53.505 3.518549
53.510 3.594911
53.515 3.795835
53.520 3.899378
53.525 4.112121
53.530 4.045311
53.535 3.605579
53.540 3.483266
53.545 3.488295
53.550 3.066056
53.555 2.985986
53.560 2.736073
53.565 2.970247
53.570 3.054828
53.575 2.956034
53.580 3.097011
53.585 3.369675
53.590 3.508332
53.595 4.000387
53.600 4.007774
53.605 4.166322
53.610 4.148785
53.615 4.212457
53.620 4.189086
53.625 3.698825
53.630 3.391173
53.635 3.58502
53.640 3.71432
53.645 3.900553
53.650 4.022518
53.655 4.020523
53.660 4.37611
53.665 4.17415
53.670 3.973787
53.675 3.73273
53.680 3.855453
53.685 3.574885
53.690 3.488042
53.695 3.488978
53.700 3.446782
53.705 3.823924
53.710 3.877997
53.715 3.587606
53.720 3.746245
53.725 3.747915
53.730 3.518577
53.735 3.469913
53.740 3.250671
53.745 3.652352
53.750 3.741923
53.755 3.8283
53.760 3.96402
53.765 4.135172
53.770 4.208895
53.775 4.070864
53.780 3.865711
53.785 3.753133
53.790 3.885879
53.795 3.736153
53.800 3.68722
53.805 3.857598
53.810 3.597211
53.815 3.493299
53.820 3.541932
53.825 3.770724
53.830 4.057432
53.835 3.931137
53.840 3.859893
53.845 3.993095
53.850 3.910247
53.855 3.63245
53.860 3.457696
53.865 3.66639
53.870 4.00199
53.875 4.164877
53.880 4.428522
53.885 4.656351
53.890 4.805755
53.895 4.807955
53.900 4.482516
53.905 4.243653
53.910 4.03568
53.915 3.863607
53.920 3.994609
53.925 4.169209
53.930 4.113063
53.935 4.069476
53.940 4.129315
53.945 3.964683
53.950 4.150052
53.955 3.819532
53.960 3.543035
53.965 3.70113
53.970 3.690557
53.975 3.696813
53.980 3.658224
53.985 3.635086
53.990 3.864314
53.995 3.958249
54.000 3.884099
54.005 3.755277
54.010 3.685563
54.015 3.621728
54.020 3.234421
54.025 2.997535
54.030 3.288073
54.035 3.589893
54.040 3.853792
54.045 4.049343
54.050 4.23264
54.055 4.346068
54.060 4.317373
54.065 4.272105
54.070 4.095849
54.075 3.882854
54.080 3.874864
54.085 3.958917
54.090 4.24437
54.095 4.545238
54.100 4.66117
54.105 4.924705
54.110 5.379871
54.115 5.487885
54.120 5.449571
54.125 5.22727
54.130 4.983606
54.135 4.687514
54.140 4.405345
54.145 3.95144
54.150 3.985952
54.155 4.020439
54.160 4.186251
54.165 4.151855
54.170 4.142935
54.175 4.477375
54.180 4.438655
54.185 4.269533
54.190 4.463937
54.195 4.590501
54.200 4.717879
54.205 4.611411
54.210 4.361413
54.215 4.336656
54.220 4.323616
54.225 4.090743
54.230 4.078507
54.235 4.391299
54.240 4.554572
54.245 4.617549
54.250 4.797889
54.255 4.925924
54.260 4.969128
54.265 4.530963
54.270 4.111775
54.275 4.225105
54.280 4.500878
54.285 4.495646
54.290 4.506559
54.295 4.326963
54.300 4.35027
54.305 4.352084
54.310 4.293867
54.315 4.091798
54.320 4.025994
54.325 4.021235
54.330 3.993464
54.335 4.070483
54.340 4.12369
54.345 3.956839
54.350 3.788013
54.355 3.746901
54.360 3.467603
54.365 3.494953
54.370 3.84617
54.375 3.953096
54.380 4.204265
54.385 4.412618
54.390 4.5678
54.395 4.698515
54.400 4.610245
54.405 4.367339
54.410 4.347386
54.415 4.153677
54.420 4.082092
54.425 4.1376
54.430 4.061274
54.435 3.99777
54.440 4.101094
54.445 4.061685
54.450 4.541671
54.455 4.663074
54.460 4.927955
54.465 5.211021
54.470 5.293156
54.475 5.495513
54.480 5.482662
54.485 4.968619
54.490 4.827693
54.495 4.46227
54.500 4.259622
54.505 4.137762
54.510 3.692835
54.515 3.730067
54.520 3.519819
54.525 3.729487
54.530 4.002317
54.535 4.350126
54.540 4.690574
54.545 4.702387
54.550 4.734047
54.555 4.866667
54.560 4.664337
54.565 4.460422
54.570 4.233109
54.575 4.004419
54.580 4.025841
54.585 4.022697
54.590 4.168736
54.595 4.334465
54.600 4.382005
54.605 4.421887
54.610 4.526837
54.615 4.594021
54.620 4.781276
54.625 4.69981
54.630 4.561963
54.635 4.477472
54.640 4.110866
54.645 3.748558
54.650 3.754999
54.655 3.661463
54.660 3.851252
54.665 3.775593
54.670 3.696155
54.675 4.024478
54.680 4.208077
54.685 4.044836
54.690 3.815441
54.695 3.432693
54.700 3.501801
54.705 3.727249
54.710 3.72308
54.715 3.750763
54.720 3.939103
54.725 4.20475
54.730 4.437826
54.735 4.247093
54.740 3.935873
54.745 3.871071
54.750 3.61109
54.755 3.045087
54.760 3.081416
54.765 3.225772
54.770 3.421373
54.775 3.812478
54.780 3.819919
54.785 3.925133
54.790 4.291759
54.795 4.150531
54.800 4.104654
54.805 3.736487
54.810 3.467494
54.815 3.700763
54.820 4.168576
54.825 4.185788
54.830 4.065687
54.835 4.222083
54.840 4.370075
54.845 4.435235
54.850 4.400999
54.855 4.095498
54.860 4.10736
54.865 4.096748
54.870 4.184467
54.875 4.279044
54.880 4.765018
54.885 4.978139
54.890 4.952979
54.895 5.189613
54.900 5.282059
54.905 5.013904
54.910 4.725868
54.915 4.466146
54.920 4.273906
54.925 4.30209
54.930 4.260573
54.935 4.166704
54.940 4.247161
54.945 4.055217
54.950 4.008624
54.955 3.995851
54.960 3.822087
54.965 3.548878
54.970 3.384409
54.975 3.252096
54.980 3.19201
54.985 3.073574
54.990 3.256616
54.995 3.219906
55.000 3.35887
55.005 3.656729
55.010 3.985924
55.015 4.172895
55.020 3.94146
55.025 3.662564
55.030 3.831363
55.035 3.838322
55.040 3.907346
55.045 4.133889
55.050 4.060319
55.055 4.114887
55.060 4.617651
55.065 4.619215
55.070 4.497728
55.075 4.312722
55.080 3.988261
55.085 4.087928
55.090 4.076537
55.095 3.868821
55.100 3.918574
55.105 4.044188
55.110 4.178486
55.115 4.273558
55.120 4.232701
55.125 4.062124
55.130 3.936649
55.135 3.885766
55.140 3.648023
55.145 3.597714
55.150 3.776323
55.155 3.745389
55.160 3.793861
55.165 3.874478
55.170 4.188201
55.175 4.552292
55.180 4.741952
55.185 4.693972
55.190 4.992363
55.195 4.980968
55.200 4.633287
55.205 4.491721
55.210 4.191046
55.215 4.031822
55.220 3.850929
55.225 3.527263
55.230 3.417855
55.235 3.351676
55.240 3.157401
55.245 3.363287
55.250 3.219208
55.255 3.128652
55.260 3.050096
55.265 3.22065
55.270 3.529535
55.275 3.470062
55.280 3.579792
55.285 3.738759
55.290 3.73946
55.295 4.019211
55.300 4.106091
55.305 4.153809
55.310 4.243095
55.315 4.101536
55.320 4.003992
55.325 4.209167
55.330 4.143414
55.335 3.962688
55.340 3.748441
55.345 3.764291
55.350 3.905205
55.355 4.259545
55.360 4.156667
55.365 4.25263
55.370 4.395229
55.375 4.806965
55.380 4.675139
55.385 4.585968
55.390 4.5094
55.395 4.776718
55.400 4.598534
55.405 4.443678
55.410 4.43222
55.415 4.428491
55.420 4.246697
55.425 4.219769
55.430 4.088752
55.435 4.365426
55.440 4.566552
55.445 4.828236
55.450 5.160006
55.455 5.074686
55.460 4.690874
55.465 4.629258
55.470 4.510994
55.475 4.197136
55.480 3.930925
55.485 3.965857
55.490 4.088671
55.495 4.327378
55.500 4.090243
55.505 3.881283
55.510 3.689317
55.515 3.293162
55.520 2.94403
55.525 3.114691
55.530 3.012206
55.535 3.314538
55.540 3.525144
55.545 3.81133
55.550 4.055774
55.555 4.111627
55.560 4.25425
55.565 4.467556
55.570 4.382895
55.575 4.194081
55.580 4.191276
55.585 4.296427
55.590 4.145759
55.595 3.774278
55.600 3.385453
55.605 3.266363
55.610 3.74982
55.615 3.556371
55.620 3.639929
55.625 3.946883
55.630 4.432103
55.635 4.65097
55.640 4.491445
55.645 4.430609
55.650 4.503498
55.655 4.601006
55.660 4.019617
55.665 3.697543
55.670 3.655945
55.675 3.787813
55.680 3.798559
55.685 3.620441
55.690 3.672651
55.695 3.860687
55.700 4.152741
55.705 4.619796
55.710 4.788163
55.715 4.830103
55.720 5.102427
55.725 5.052231
55.730 5.215752
55.735 5.023242
55.740 4.802708
55.745 4.770641
55.750 4.83248
55.755 4.882957
55.760 4.853922
55.765 4.552702
55.770 4.743006
55.775 4.438668
55.780 4.328235
55.785 4.274735
55.790 4.171548
55.795 4.245231
55.800 4.084198
55.805 3.98273
55.810 4.004668
55.815 3.667416
55.820 3.719281
55.825 3.717674
55.830 4.057912
55.835 4.396783
55.840 4.443162
55.845 4.806242
55.850 5.425711
55.855 5.267623
55.860 5.292032
55.865 5.298674
55.870 5.518468
55.875 5.856483
55.880 5.472775
55.885 5.170234
55.890 5.123801
55.895 5.111999
55.900 5.269768
55.905 5.19174
55.910 5.011171
55.915 5.071688
55.920 5.195713
55.925 5.394209
55.930 5.358711
55.935 5.025628
55.940 4.865719
55.945 4.803103
55.950 4.628563
55.955 4.400117
55.960 4.507863
55.965 4.172112
55.970 4.462757
55.975 4.432904
55.980 4.66331
55.985 4.754185
55.990 4.953362
55.995 5.128104
56.000 5.304676
56.005 4.821102
56.010 4.633004
56.015 4.56415
56.020 4.614795
56.025 4.535953
56.030 4.377894
56.035 4.552422
56.040 4.824722
56.045 4.763594
56.050 4.744868
56.055 4.684417
56.060 4.463603
56.065 4.367235
56.070 4.294857
56.075 4.318075
56.080 4.05584
56.085 3.936964
56.090 3.999521
56.095 4.244545
56.100 4.262313
56.105 4.109635
56.110 4.199649
56.115 4.299387
56.120 4.261657
56.125 4.389192
56.130 4.481051
56.135 4.290395
56.140 4.565316
56.145 4.719795
56.150 4.736387
56.155 4.82389
56.160 4.569734
56.165 4.557264
56.170 4.648422
56.175 4.178006
56.180 4.040431
56.185 4.243852
56.190 4.427357
56.195 4.643981
56.200 4.66294
56.205 4.727074
56.210 4.979616
56.215 4.802317
56.220 4.687548
56.225 4.335582
56.230 4.255584
56.235 4.384711
56.240 4.53469
56.245 4.752664
56.250 5.186449
56.255 5.287767
56.260 5.38267
56.265 5.299247
56.270 5.141132
56.275 5.375726
56.280 5.340247
56.285 5.27635
56.290 5.154233
56.295 5.148825
56.300 4.944577
56.305 4.731185
56.310 4.26575
56.315 4.184783
56.320 4.408245
56.325 4.773946
56.330 4.758344
56.335 4.897422
56.340 5.0225
56.345 5.17729
56.350 4.837922
56.355 4.195355
56.360 3.900982
56.365 3.991792
56.370 4.211965
56.375 4.380438
56.380 4.244496
56.385 4.443297
56.390 4.598124
56.395 4.681694
56.400 4.809276
56.405 4.749167
56.410 4.544602
56.415 4.765941
56.420 4.698513
56.425 4.550997
56.430 4.188868
56.435 3.782197
56.440 3.601531
56.445 3.695535
56.450 3.598381
56.455 3.745406
56.460 4.096226
56.465 4.334805
56.470 4.49937
56.475 4.52972
56.480 4.59736
56.485 4.533101
56.490 4.838374
56.495 5.24802
56.500 5.363086
56.505 5.518822
56.510 5.319086
56.515 5.222018
56.520 5.081281
56.525 4.531892
56.530 4.319382
56.535 4.286128
56.540 4.171586
56.545 4.419758
56.550 4.663586
56.555 4.760686
56.560 4.834126
56.565 4.939369
56.570 5.122694
56.575 5.155437
56.580 5.065612
56.585 4.96624
56.590 4.956671
56.595 5.095402
56.600 4.925286
56.605 4.767496
56.610 4.62919
56.615 4.548849
56.620 4.817955
56.625 4.95646
56.630 4.55822
56.635 4.375763
56.640 4.314185
56.645 4.230123
56.650 4.165809
56.655 4.170475
56.660 4.445911
56.665 4.770866
56.670 4.792869
56.675 4.721692
56.680 5.045267
56.685 5.003923
56.690 4.835901
56.695 4.678578
56.700 4.344291
56.705 4.378523
56.710 4.198848
56.715 4.012683
56.720 3.829455
56.725 3.529727
56.730 3.643865
56.735 3.952236
56.740 4.13695
56.745 4.414167
56.750 4.340023
56.755 4.482615
56.760 4.573483
56.765 4.443317
56.770 4.467888
56.775 4.509291
56.780 4.461727
56.785 4.513419
56.790 4.362339
56.795 4.574702
56.800 4.696032
56.805 4.847723
56.810 5.155265
56.815 5.530514
56.820 5.628836
56.825 5.767179
56.830 5.377592
56.835 4.977129
56.840 4.865222
56.845 4.345596
56.850 4.109114
56.855 4.228425
56.860 4.011132
56.865 4.231998
56.870 4.866475
56.875 4.763685
56.880 5.03222
56.885 5.193225
56.890 5.121926
56.895 5.477274
56.900 5.444307
56.905 5.085615
56.910 5.154315
56.915 5.22534
56.920 5.11285
56.925 5.166564
56.930 5.225737
56.935 5.245924
56.940 5.207588
56.945 5.085075
56.950 5.180716
56.955 5.226391
56.960 5.341138
56.965 5.065358
56.970 5.453591
56.975 5.606797
56.980 5.749412
56.985 5.574106
56.990 5.54588
56.995 5.373119
57.000 5.293711
57.005 5.086656
57.010 5.293818
57.015 5.445012
57.020 5.493648
57.025 5.360826
57.030 5.438981
57.035 5.661872
57.040 5.441374
57.045 5.0693
57.050 4.758002
57.055 4.814914
57.060 4.765686
57.065 4.549521
57.070 4.136202
57.075 4.366201
57.080 4.456671
57.085 4.487766
57.090 4.303033
57.095 4.525554
57.100 4.734398
57.105 4.864834
57.110 4.754304
57.115 4.679838
57.120 4.909042
57.125 5.146507
57.130 5.167245
57.135 5.0209
57.140 4.926384
57.145 5.007903
57.150 4.724771
57.155 4.424765
57.160 4.355319
57.165 4.521858
57.170 4.512978
57.175 4.407094
57.180 4.357765
57.185 4.317421
57.190 4.383066
57.195 4.513438
57.200 4.252338
57.205 4.469795
57.210 4.457548
57.215 4.399002
57.220 4.813294
57.225 4.968742
57.230 4.802984
57.235 4.898542
57.240 4.841117
57.245 4.89815
57.250 5.236865
57.255 5.062829
57.260 4.888752
57.265 4.838461
57.270 4.967687
57.275 4.83285
57.280 5.062201
57.285 4.93046
57.290 4.862932
57.295 4.998713
57.300 5.06366
57.305 5.134563
57.310 5.444626
57.315 5.470749
57.320 5.331318
57.325 5.547915
57.330 5.77698
57.335 5.825263
57.340 5.468298
57.345 5.239589
57.350 5.047137
57.355 5.055189
57.360 4.649663
57.365 4.380546
57.370 4.375401
57.375 4.804873
57.380 4.974004
57.385 4.885231
57.390 5.131172
57.395 5.226927
57.400 5.311327
57.405 5.332656
57.410 5.060102
57.415 4.72066
57.420 4.84025
57.425 4.935408
57.430 5.118413
57.435 5.048813
57.440 5.146595
57.445 5.273562
57.450 5.662657
57.455 5.592086
57.460 5.678039
57.465 5.59946
57.470 5.700859
57.475 5.839516
57.480 5.790337
57.485 5.497059
57.490 5.466305
57.495 5.654375
57.500 5.432491
57.505 5.118069
57.510 4.789881
57.515 4.865196
57.520 4.653666
57.525 4.392971
57.530 4.371806
57.535 4.508597
57.540 4.729053
57.545 4.837966
57.550 4.769632
57.555 5.176425
57.560 5.273744
57.565 5.155019
57.570 5.393126
57.575 5.491484
57.580 5.786037
57.585 6.033086
57.590 6.468474
57.595 6.572487
57.600 6.377063
57.605 6.388288
57.610 6.130986
57.615 6.26497
57.620 6.190706
57.625 5.772205
57.630 5.729981
57.635 5.68201
57.640 5.326406
57.645 5.079002
57.650 4.698026
57.655 5.128865
57.660 5.18588
57.665 4.917052
57.670 5.034712
57.675 5.177361
57.680 5.400178
57.685 5.295437
57.690 4.861545
57.695 5.130649
57.700 5.372928
57.705 5.594871
57.710 5.728018
57.715 5.550226
57.720 5.618149
57.725 5.494577
57.730 4.79587
57.735 4.675748
57.740 4.651799
57.745 5.042851
57.750 5.447461
57.755 5.445708
57.760 5.755864
57.765 6.188856
57.770 6.191967
57.775 5.904757
57.780 5.535429
57.785 5.276094
57.790 5.195592
57.795 4.783794
57.800 4.901588
57.805 5.202131
57.810 4.941772
57.815 4.951194
57.820 5.176243
57.825 5.185521
57.830 5.269865
57.835 4.958154
57.840 4.65058
57.845 4.735774
57.850 4.721229
57.855 4.759778
57.860 4.966194
57.865 5.114408
57.870 5.378356
57.875 5.498676
57.880 5.684299
57.885 5.588416
57.890 5.374411
57.895 5.534139
57.900 5.773925
57.905 5.622946
57.910 5.81067
57.915 5.734392
57.920 5.887702
57.925 5.931464
57.930 5.479278
57.935 5.345389
57.940 5.417541
57.945 5.60898
57.950 5.782808
57.955 5.72412
57.960 5.765152
57.965 5.751187
57.970 5.672655
57.975 5.638783
57.980 5.421245
57.985 5.337923
57.990 5.309122
57.995 5.248449
58.000 5.412381
58.005 5.372477
58.010 5.194756
58.015 4.981061
58.020 4.959962
58.025 4.82323
58.030 4.948584
58.035 5.038585
58.040 5.035536
58.045 5.105336
58.050 5.146763
58.055 5.34603
58.060 5.548219
58.065 5.409976
58.070 5.133008
58.075 5.217388
58.080 5.124492
58.085 5.122944
58.090 4.828071
58.095 4.912235
58.100 5.321607
58.105 5.596174
58.110 5.587669
58.115 5.771551
58.120 5.82152
58.125 5.733072
58.130 5.799744
58.135 5.639591
58.140 5.665037
58.145 6.029802
58.150 6.259655
58.155 6.299084
58.160 6.526492
58.165 6.423738
58.170 6.501478
58.175 6.308908
58.180 5.811777
58.185 5.51124
58.190 5.720883
58.195 5.99492
58.200 6.048514
58.205 6.177436
58.210 6.254892
58.215 6.561451
58.220 6.524657
58.225 6.43109
58.230 6.088691
58.235 6.200363
58.240 6.294056
58.245 6.403154
58.250 6.162703
58.255 6.421616
58.260 5.887145
58.265 5.684554
58.270 5.324633
58.275 4.96944
58.280 5.299218
58.285 5.566473
58.290 5.418487
58.295 5.754212
58.300 6.077897
58.305 6.493678
58.310 6.571585
58.315 6.162936
58.320 6.236406
58.325 6.284935
58.330 6.483665
58.335 6.246568
58.340 5.824236
58.345 6.012834
58.350 6.039046
58.355 5.807939
58.360 5.669457
58.365 5.370875
58.370 5.481696
58.375 5.796496
58.380 5.62687
58.385 5.920424
58.390 6.43435
58.395 6.672898
58.400 6.621085
58.405 6.455936
58.410 6.188834
58.415 5.974485
58.420 5.455785
58.425 5.020052
58.430 4.963034
58.435 4.975526
58.440 5.416771
58.445 5.290833
58.450 5.321377
58.455 5.473265
58.460 5.871714
58.465 6.034234
58.470 6.341322
58.475 6.016998
58.480 6.430605
58.485 6.609461
58.490 6.7974
58.495 6.645323
58.500 7.022304
58.505 7.07087
58.510 7.126973
58.515 7.219075
58.520 7.278517
58.525 7.206647
58.530 7.10323
58.535 6.630862
58.540 6.470891
58.545 6.288905
58.550 6.319386
58.555 6.662502
58.560 7.118609
58.565 7.359128
58.570 7.661244
58.575 8.428889
58.580 8.864552
58.585 8.838013
58.590 8.684943
58.595 8.656918
58.600 8.778315
58.605 8.732258
58.610 8.624919
58.615 8.946705
58.620 9.126329
58.625 9.425548
58.630 9.217918
58.635 8.802088
58.640 8.827078
58.645 8.768138
58.650 8.71682
58.655 8.770669
58.660 8.1985
58.665 8.684674
58.670 9.117039
58.675 9.155251
58.680 8.996556
58.685 8.795963
58.690 8.97723
58.695 9.396913
58.700 9.55678
58.705 9.568877
58.710 9.501971
58.715 9.681778
58.720 10.227239
58.725 10.210713
58.730 10.047955
58.735 9.274764
58.740 9.358477
58.745 9.517938
58.750 9.334629
58.755 8.787238
58.760 9.09188
58.765 8.829232
