!@!!GADDS PLOTSO FILE: Chi integration type
!@!!Title/SampleName: map-2a
!@!!Comment: ?
!@!!User: Bruker Instrument Administrator
!@!!Site: University of Illinois Chicago
!@!!Frame: map-2a_01_000.gfrm
!@!!Wavelengths    1.54184   1.54056   1.54439
!@!!Frame angles: 2Theta: 63.000 Omega: 50.000 Phi: 0.000 Chi: 90.000
!@!!Integration range: 2Theta: 53.000 to 73.000  Gamma: -105.000 to -75.000
!@!!Integration method: bin normalized
!@!N
!@!SS
!@!M
!@!L 0.0 0.0 0.0 0.0
!@!XDegrees
!@!YCounts
53.000 7.06787
53.005 6.878699
53.010 7.015562
53.015 7.129122
53.020 6.949844
53.025 7.006495
53.030 7.100013
53.035 7.272975
53.040 7.41221
53.045 7.657989
53.050 7.907959
53.055 7.954548
53.060 7.840695
53.065 7.611982
53.070 7.666392
53.075 7.541666
53.080 7.28075
53.085 7.638025
53.090 7.706553
53.095 7.416021
53.100 7.441084
53.105 7.624475
53.110 7.812726
53.115 7.664629
53.120 7.234257
53.125 7.167509
53.130 7.486817
53.135 7.402647
53.140 7.072218
53.145 7.082816
53.150 7.126321
53.155 7.083297
53.160 7.16037
53.165 7.092856
53.170 6.717504
53.175 6.626688
53.180 6.34203
53.185 6.145863
53.190 6.194302
53.195 6.079014
53.200 6.606542
53.205 7.037358
53.210 7.167327
53.215 7.415133
53.220 7.49884
53.225 7.355395
53.230 7.486084
53.235 7.133898
53.240 7.155368
53.245 7.028769
53.250 7.370476
53.255 7.534853
53.260 8.120209
53.265 8.235843
53.270 8.03266
53.275 7.93749
53.280 7.981254
53.285 7.90927
53.290 8.204478
53.295 8.045403
53.300 8.011089
53.305 7.753879
53.310 8.011703
53.315 7.829589
53.320 7.71668
53.325 7.359167
53.330 7.455832
53.335 7.582852
53.340 8.005733
53.345 7.941881
53.350 7.961571
53.355 7.534037
53.360 7.405972
53.365 7.289348
53.370 7.0073
53.375 6.644915
53.380 6.522192
53.385 6.756971
53.390 6.911116
53.395 6.764779
53.400 6.730909
53.405 7.048344
53.410 7.408745
53.415 7.726651
53.420 7.859224
53.425 7.805562
53.430 8.008883
53.435 8.007392
53.440 7.910903
53.445 7.539283
53.450 7.181362
53.455 7.501257
53.460 7.746312
53.465 7.674292
53.470 7.589333
53.475 7.556262
53.480 7.558846
53.485 7.833858
53.490 7.692583
53.495 7.847381
53.500 8.375188
53.505 8.66855
53.510 8.734591
53.515 8.983049
53.520 8.724699
53.525 9.005383
53.530 8.874446
53.535 8.236367
53.540 8.039733
53.545 7.895988
53.550 7.978159
53.555 7.975167
53.560 7.674642
53.565 7.72908
53.570 7.836252
53.575 8.179129
53.580 8.534346
53.585 8.240969
53.590 7.935987
53.595 8.137247
53.600 7.982159
53.605 7.70331
53.610 7.167156
53.615 7.20479
53.620 7.697571
53.625 7.5831
53.630 7.050232
53.635 7.071434
53.640 7.707274
53.645 7.645427
53.650 7.386237
53.655 6.953999
53.660 6.837803
53.665 6.923216
53.670 6.953812
53.675 6.889968
53.680 7.165195
53.685 7.483886
53.690 7.662603
53.695 8.042218
53.700 8.687379
53.705 8.827002
53.710 8.891041
53.715 8.886377
53.720 8.790478
53.725 8.995674
53.730 8.656188
53.735 8.379193
53.740 8.074697
53.745 7.605907
53.750 7.399533
53.755 7.790147
53.760 8.113108
53.765 8.204936
53.770 8.156677
53.775 8.415664
53.780 8.925714
53.785 9.033411
53.790 8.687716
53.795 8.597069
53.800 8.922753
53.805 9.342297
53.810 9.262383
53.815 9.041735
53.820 8.987227
53.825 8.810697
53.830 8.439816
53.835 7.492373
53.840 6.880441
53.845 7.119183
53.850 6.934832
53.855 6.823439
53.860 6.886921
53.865 6.904026
53.870 6.993813
53.875 7.165079
53.880 7.460386
53.885 7.488527
53.890 7.474238
53.895 7.888796
53.900 8.409409
53.905 8.459384
53.910 8.168544
53.915 7.87155
53.920 7.823184
53.925 7.717276
53.930 7.446174
53.935 7.510782
53.940 7.561472
53.945 7.645773
53.950 7.548102
53.955 7.566188
53.960 7.298439
53.965 7.302693
53.970 7.525759
53.975 8.028658
53.980 8.557588
53.985 9.238098
53.990 9.845176
53.995 9.665854
54.000 9.38553
54.005 9.121699
54.010 8.921688
54.015 8.343936
54.020 7.965539
54.025 8.350365
54.030 8.625288
54.035 9.043658
54.040 9.194397
54.045 9.497895
54.050 9.326147
54.055 9.095777
54.060 8.848969
54.065 8.762797
54.070 8.561153
54.075 8.547643
54.080 8.652781
54.085 8.735088
54.090 8.671754
54.095 8.35494
54.100 8.311031
54.105 8.280645
54.110 7.90016
54.115 7.956213
54.120 8.059454
54.125 8.289546
54.130 8.62003
54.135 8.693716
54.140 8.434863
54.145 8.644094
54.150 8.703759
54.155 8.906744
54.160 8.383245
54.165 9.082918
54.170 9.18639
54.175 9.375192
54.180 9.27121
54.185 9.108692
54.190 9.143069
54.195 9.260387
54.200 8.800858
54.205 8.79743
54.210 8.910251
54.215 8.999119
54.220 9.020308
54.225 9.155484
54.230 9.221763
54.235 9.540527
54.240 9.241202
54.245 8.94478
54.250 8.801785
54.255 9.121723
54.260 9.724906
54.265 9.354206
54.270 9.116748
54.275 9.162541
54.280 9.374197
54.285 9.546358
54.290 9.36356
54.295 9.090794
54.300 9.345842
54.305 9.55912
54.310 9.416673
54.315 9.530531
54.320 9.483118
54.325 9.10341
54.330 9.208657
54.335 8.962137
54.340 9.082208
54.345 9.344869
54.350 9.490324
54.355 9.273838
54.360 8.869452
54.365 8.754684
54.370 8.973013
54.375 8.741259
54.380 8.438213
54.385 8.124957
54.390 8.261112
54.395 8.834195
54.400 8.950389
54.405 9.013431
54.410 9.219687
54.415 9.754544
54.420 9.955949
54.425 9.984342
54.430 9.527233
54.435 9.320539
54.440 9.091969
54.445 8.873414
54.450 8.597211
54.455 8.415316
54.460 8.200052
54.465 8.409236
54.470 8.517233
54.475 8.598826
54.480 8.716458
54.485 8.637384
54.490 8.781331
54.495 8.944153
54.500 8.947944
54.505 9.735606
54.510 9.744635
54.515 9.725776
54.520 9.548931
54.525 9.744803
54.530 9.794673
54.535 10.046233
54.540 10.236425
54.545 9.961443
54.550 9.503542
54.555 9.828944
54.560 9.915283
54.565 9.701221
54.570 8.918365
54.575 7.937386
54.580 7.768973
54.585 8.091828
54.590 7.998285
54.595 8.356179
54.600 8.282839
54.605 8.277225
54.610 8.743861
54.615 9.259411
54.620 9.585446
54.625 9.222886
54.630 9.031282
54.635 9.153286
54.640 9.35599
54.645 9.432764
54.650 9.515752
54.655 9.508623
54.660 9.714908
54.665 9.820476
54.670 9.89862
54.675 9.64273
54.680 9.074399
54.685 8.779806
54.690 8.572523
54.695 8.555787
54.700 8.392358
54.705 8.46785
54.710 8.792348
54.715 8.902822
54.720 9.159626
54.725 9.335843
54.730 9.63541
54.735 9.799473
54.740 9.704118
54.745 9.631655
54.750 9.897409
54.755 9.76347
54.760 9.933061
54.765 9.872204
54.770 10.326663
54.775 10.870634
54.780 11.181795
54.785 10.980495
54.790 10.957543
54.795 10.890767
54.800 10.755158
54.805 10.470347
54.810 10.200056
54.815 9.669122
54.820 9.208908
54.825 8.833366
54.830 8.410985
54.835 7.98695
54.840 7.626227
54.845 8.05991
54.850 8.337309
54.855 8.766744
54.860 9.32141
54.865 9.383537
54.870 9.480906
54.875 9.421667
54.880 9.098256
54.885 9.212146
54.890 9.14525
54.895 8.708899
54.900 9.088767
54.905 8.77725
54.910 9.095265
54.915 9.625487
54.920 9.743355
54.925 9.67029
54.930 9.607935
54.935 9.39466
54.940 9.983438
54.945 9.711783
54.950 9.75985
54.955 10.073811
54.960 9.969597
54.965 10.425313
54.970 10.807141
54.975 10.76083
54.980 11.010694
54.985 10.903159
54.990 11.022137
54.995 10.873795
55.000 10.283937
55.005 10.103685
55.010 10.137117
55.015 9.794053
55.020 9.486586
55.025 9.652174
55.030 10.170455
55.035 10.417491
55.040 10.512647
55.045 10.711963
55.050 10.541658
55.055 10.824933
55.060 10.474046
55.065 10.488569
55.070 10.746692
55.075 10.097243
55.080 9.967045
55.085 9.869494
55.090 10.026276
55.095 10.320533
55.100 10.499496
55.105 10.590195
55.110 10.932819
55.115 11.188155
55.120 11.239173
55.125 10.907657
55.130 10.333945
55.135 9.586512
55.140 9.301358
55.145 9.163251
55.150 9.45991
55.155 9.503223
55.160 9.514087
55.165 9.474229
55.170 9.32338
55.175 9.279009
55.180 9.250918
55.185 8.550964
55.190 8.388723
55.195 8.53455
55.200 8.7164
55.205 8.866575
55.210 9.092504
55.215 9.329379
55.220 9.73477
55.225 9.703208
55.230 9.197577
55.235 8.937802
55.240 9.332611
55.245 9.26335
55.250 8.919967
55.255 8.310714
55.260 8.464174
55.265 8.827714
55.270 8.83717
55.275 8.431723
55.280 8.260236
55.285 8.674089
55.290 8.885024
55.295 9.094049
55.300 9.517976
55.305 9.654211
55.310 9.789594
55.315 9.636308
55.320 9.695686
55.325 9.768414
55.330 9.211967
55.335 8.930667
55.340 9.296379
55.345 9.386306
55.350 9.230062
55.355 8.776405
55.360 8.881728
55.365 9.183591
55.370 8.970618
55.375 8.490772
55.380 9.060768
55.385 9.475296
55.390 9.683805
55.395 9.857809
55.400 10.055124
55.405 10.181599
55.410 10.336307
55.415 9.960711
55.420 10.268158
55.425 10.267444
55.430 9.83751
55.435 10.045504
55.440 10.36755
55.445 10.177516
55.450 10.062628
55.455 10.065362
55.460 10.110043
55.465 10.310951
55.470 9.920853
55.475 10.057746
55.480 10.295117
55.485 9.898634
55.490 9.820544
55.495 10.098501
55.500 10.28872
55.505 10.942247
55.510 10.895522
55.515 11.037635
55.520 11.670044
55.525 11.483786
55.530 11.419097
55.535 11.128765
55.540 10.741061
55.545 10.531881
55.550 10.346508
55.555 9.856152
55.560 9.980837
55.565 10.153761
55.570 10.424024
55.575 10.466493
55.580 10.667455
55.585 10.75769
55.590 10.561652
55.595 10.46496
55.600 9.696916
55.605 9.595706
55.610 9.759306
55.615 9.575798
55.620 9.37825
55.625 9.41785
55.630 9.407866
55.635 9.535536
55.640 9.376536
55.645 9.148133
55.650 9.65645
55.655 10.043851
55.660 10.250668
55.665 10.469108
55.670 10.327946
55.675 10.2068
55.680 9.894646
55.685 9.7732
55.690 9.528347
55.695 9.505928
55.700 9.831095
55.705 9.986858
55.710 9.658449
55.715 10.03382
55.720 9.986162
55.725 10.126583
55.730 10.151356
55.735 10.061759
55.740 9.94698
55.745 10.214487
55.750 10.086992
55.755 10.009361
55.760 9.954855
55.765 9.758885
55.770 10.063391
55.775 10.31379
55.780 10.368683
55.785 10.018521
55.790 10.052398
55.795 10.037961
55.800 10.005348
55.805 9.64386
55.810 9.76473
55.815 10.024898
55.820 10.433144
55.825 10.400629
55.830 10.101794
55.835 10.764549
55.840 11.296131
55.845 11.278304
55.850 11.345029
55.855 11.09095
55.860 11.553698
55.865 11.998134
55.870 11.141016
55.875 10.372351
55.880 9.903251
55.885 10.101982
55.890 10.342662
55.895 10.169699
55.900 9.717021
55.905 10.090966
55.910 11.128949
55.915 11.143537
55.920 11.203942
55.925 11.082143
55.930 11.304052
55.935 11.626953
55.940 11.50701
55.945 11.669815
55.950 11.984911
55.955 11.544482
55.960 11.38464
55.965 11.077202
55.970 10.972208
55.975 11.14625
55.980 10.525907
55.985 9.999224
55.990 10.236262
55.995 9.905347
56.000 9.942949
56.005 9.921418
56.010 9.38919
56.015 9.52014
56.020 9.795437
56.025 9.632686
56.030 9.918133
56.035 10.053231
56.040 9.722263
56.045 9.836294
56.050 9.824429
56.055 9.744204
56.060 9.873178
56.065 9.944461
56.070 9.954214
56.075 10.244365
56.080 10.422268
56.085 10.378274
56.090 10.61689
56.095 10.838018
56.100 10.76612
56.105 10.899487
56.110 11.16924
56.115 11.250906
56.120 11.622419
56.125 11.877448
56.130 11.433074
56.135 11.209949
56.140 11.448831
56.145 11.229977
56.150 10.678856
56.155 10.43962
56.160 10.533975
56.165 10.85883
56.170 11.451756
56.175 11.286195
56.180 11.501721
56.185 12.129004
56.190 11.93394
56.195 11.444315
56.200 11.733842
56.205 11.273702
56.210 11.613898
56.215 11.759115
56.220 11.307394
56.225 11.83921
56.230 12.213846
56.235 11.877402
56.240 11.94891
56.245 11.925999
56.250 12.072237
56.255 12.088157
56.260 11.696556
56.265 11.691238
56.270 11.544383
56.275 11.281742
56.280 10.576086
56.285 10.570089
56.290 11.06643
56.295 11.538591
56.300 11.534842
56.305 12.050279
56.310 12.38904
56.315 12.43819
56.320 11.601231
56.325 10.957451
56.330 10.424729
56.335 10.23335
56.340 10.196294
56.345 9.9771
56.350 10.266378
56.355 10.740374
56.360 11.026489
56.365 11.068254
56.370 11.188129
56.375 10.94984
56.380 11.011957
56.385 11.258812
56.390 11.443286
56.395 11.375554
56.400 11.507665
56.405 11.74879
56.410 11.345648
56.415 11.474329
56.420 11.122059
56.425 10.824024
56.430 10.617759
56.435 10.172664
56.440 9.902109
56.445 10.398019
56.450 10.207959
56.455 10.181565
56.460 10.757159
56.465 10.938419
56.470 11.182723
56.475 11.587451
56.480 11.607064
56.485 11.968803
56.490 11.873203
56.495 11.571601
56.500 11.697556
56.505 12.018833
56.510 11.957217
56.515 11.438506
56.520 11.20234
56.525 11.66137
56.530 12.116469
56.535 11.880496
56.540 11.343126
56.545 11.571282
56.550 11.797237
56.555 11.671656
56.560 11.371691
56.565 11.366424
56.570 11.811679
56.575 12.239627
56.580 12.211899
56.585 12.386404
56.590 12.854771
56.595 12.543557
56.600 12.305927
56.605 12.106207
56.610 11.86047
56.615 11.717085
56.620 11.559552
56.625 10.959726
56.630 10.851377
56.635 10.66277
56.640 10.725698
56.645 11.088144
56.650 11.169372
56.655 11.177258
56.660 11.281655
56.665 11.470131
56.670 11.440496
56.675 11.326011
56.680 11.302343
56.685 11.167613
56.690 11.485058
56.695 11.4987
56.700 11.372263
56.705 11.47051
56.710 11.309602
56.715 11.073879
56.720 11.072687
56.725 11.091194
56.730 11.939601
56.735 12.413164
56.740 12.458773
56.745 12.222429
56.750 12.251046
56.755 12.429279
56.760 12.194135
56.765 11.327358
56.770 10.831805
56.775 11.109452
56.780 11.43197
56.785 12.082135
56.790 12.097726
56.795 12.020166
56.800 12.429602
56.805 12.696822
56.810 12.683698
56.815 12.71691
56.820 12.270271
56.825 12.206129
56.830 12.184899
56.835 11.960719
56.840 11.954167
56.845 11.797852
56.850 11.724108
56.855 11.452262
56.860 11.472804
56.865 11.250238
56.870 10.913344
56.875 10.851006
56.880 10.762111
56.885 10.651455
56.890 10.725973
56.895 11.350764
56.900 11.74597
56.905 11.852061
56.910 11.761444
56.915 11.557803
56.920 11.456048
56.925 11.358448
56.930 10.679478
56.935 10.468345
56.940 10.665216
56.945 10.268126
56.950 10.703963
56.955 10.813772
56.960 10.730115
56.965 10.998317
56.970 11.085121
56.975 11.024801
56.980 10.8994
56.985 10.459374
56.990 10.502622
56.995 10.97695
57.000 11.167353
57.005 11.554873
57.010 11.627115
57.015 11.977362
57.020 12.280931
57.025 12.440984
57.030 12.05598
57.035 11.538894
57.040 11.085392
57.045 11.200438
57.050 12.075411
57.055 12.480417
57.060 12.140953
57.065 12.371243
57.070 12.867222
57.075 13.471066
57.080 12.938168
57.085 12.337536
57.090 12.045688
57.095 12.30865
57.100 12.118897
57.105 12.106383
57.110 12.175819
57.115 12.526312
57.120 12.107765
57.125 12.059396
57.130 11.763257
57.135 12.660598
57.140 12.676128
57.145 12.450365
57.150 12.295318
57.155 12.215029
57.160 12.524745
57.165 12.613077
57.170 11.787757
57.175 12.120744
57.180 12.560551
57.185 12.734264
57.190 12.953147
57.195 12.708184
57.200 12.751288
57.205 12.874055
57.210 12.046186
57.215 11.839369
57.220 11.992249
57.225 12.28242
57.230 12.441738
57.235 12.86745
57.240 12.776485
57.245 12.659299
57.250 13.027813
57.255 12.572428
57.260 12.495624
57.265 12.430649
57.270 12.120394
57.275 12.325284
57.280 12.957641
57.285 12.548372
57.290 12.88899
57.295 12.724538
57.300 13.084086
57.305 13.163882
57.310 13.444715
57.315 13.699937
57.320 13.81227
57.325 13.872531
57.330 13.592736
57.335 13.072165
57.340 12.921238
57.345 12.642687
57.350 12.255322
57.355 12.493633
57.360 12.211502
57.365 12.476105
57.370 12.965186
57.375 13.103177
57.380 13.012378
57.385 13.002101
57.390 13.196387
57.395 13.782574
57.400 13.637253
57.405 13.484135
57.410 13.386301
57.415 13.453563
57.420 13.497405
57.425 13.155688
57.430 12.955789
57.435 12.955888
57.440 12.62511
57.445 12.491104
57.450 12.877076
57.455 12.826244
57.460 12.60777
57.465 12.500923
57.470 12.341144
57.475 12.697561
57.480 13.161472
57.485 12.584476
57.490 13.083949
57.495 13.343529
57.500 13.333171
57.505 13.330769
57.510 13.332639
57.515 13.400647
57.520 13.326911
57.525 13.017056
57.530 12.701114
57.535 12.754288
57.540 12.779238
57.545 12.421408
57.550 11.827268
57.555 12.096637
57.560 12.353353
57.565 12.929847
57.570 12.797954
57.575 13.034372
57.580 13.479748
57.585 13.662098
57.590 13.876567
57.595 13.799262
57.600 13.847376
57.605 13.837617
57.610 13.697279
57.615 13.297735
57.620 13.296555
57.625 12.941882
57.630 12.902279
57.635 12.291245
57.640 12.245196
57.645 12.498992
57.650 12.446911
57.655 11.896324
57.660 11.73103
57.665 11.342734
57.670 11.624472
57.675 11.648527
57.680 11.32291
57.685 11.415579
57.690 11.766524
57.695 12.020282
57.700 12.422314
57.705 12.659346
57.710 12.751442
57.715 13.118574
57.720 13.745023
57.725 13.792747
57.730 13.539594
57.735 13.442533
57.740 13.52492
57.745 13.407868
57.750 12.944756
57.755 12.554224
57.760 12.66271
57.765 12.979589
57.770 13.072016
57.775 13.113542
57.780 13.458266
57.785 13.589104
57.790 13.580874
57.795 13.330792
57.800 12.8167
57.805 12.367834
57.810 12.201497
57.815 12.131039
57.820 11.934837
57.825 11.870337
57.830 12.098218
57.835 11.974189
57.840 11.836145
57.845 11.537697
57.850 11.580375
57.855 11.894233
57.860 11.974716
57.865 12.552488
57.870 12.971347
57.875 13.065094
57.880 12.761353
57.885 12.173511
57.890 12.016729
57.895 12.330372
57.900 12.506959
57.905 13.010203
57.910 13.207731
57.915 13.755019
57.920 14.283285
57.925 14.555411
57.930 14.531918
57.935 14.64335
57.940 14.180917
57.945 14.406798
57.950 14.282995
57.955 14.019407
57.960 13.872406
57.965 13.336225
57.970 12.890598
57.975 13.216353
57.980 13.075487
57.985 13.020813
57.990 13.010889
57.995 13.172719
58.000 13.601671
58.005 13.853064
58.010 13.743668
58.015 13.601006
58.020 13.682813
58.025 13.674628
58.030 13.409933
58.035 13.363546
58.040 13.145826
58.045 13.402264
58.050 13.667384
58.055 13.394095
58.060 13.562271
58.065 13.612621
58.070 13.119558
58.075 12.710814
58.080 12.45954
58.085 12.453374
58.090 13.145587
58.095 13.388465
58.100 13.810308
58.105 14.364141
58.110 14.946232
58.115 15.236375
58.120 15.216267
58.125 14.802099
58.130 14.509196
58.135 14.4619
58.140 14.547902
58.145 14.187361
58.150 14.235848
58.155 14.016149
58.160 13.76581
58.165 13.514896
58.170 13.166911
58.175 12.612615
58.180 12.624389
58.185 12.831753
58.190 13.05322
58.195 13.057779
58.200 13.260435
58.205 13.480182
58.210 13.889989
58.215 13.688557
58.220 13.405253
58.225 13.128211
58.230 13.552308
58.235 13.745458
58.240 13.675916
58.245 13.445512
58.250 13.602798
58.255 14.164562
58.260 14.627405
58.265 14.804296
58.270 15.019199
58.275 14.998733
58.280 15.483985
58.285 15.653811
58.290 14.995996
58.295 14.445784
58.300 14.080846
58.305 13.611217
58.310 13.756114
58.315 13.174623
58.320 12.666521
58.325 12.893856
58.330 12.888788
58.335 12.414041
58.340 12.489328
58.345 12.406873
58.350 12.503463
58.355 12.403373
58.360 12.718488
58.365 13.651314
58.370 13.709043
58.375 13.650491
58.380 13.5914
58.385 13.72024
58.390 14.127568
58.395 13.716967
58.400 13.503264
58.405 13.471103
58.410 13.39642
58.415 13.223777
58.420 12.711168
58.425 12.791485
58.430 12.98283
58.435 12.862324
58.440 13.028135
58.445 13.190694
58.450 13.399295
58.455 13.534392
58.460 12.940778
58.465 12.911203
58.470 12.971837
58.475 13.125821
58.480 13.232838
58.485 13.420664
58.490 13.932927
58.495 14.980406
58.500 14.943284
58.505 15.078631
58.510 15.081105
58.515 14.832277
58.520 14.586628
58.525 14.247583
58.530 13.889167
58.535 13.783746
58.540 13.10803
58.545 12.81614
58.550 12.829937
58.555 12.889864
58.560 13.069203
58.565 13.042569
58.570 13.384913
58.575 14.315431
58.580 14.52595
