!@!!GADDS PLOTSO FILE: Chi integration type
!@!!Title/SampleName: map-178
!@!!Comment: ?
!@!!User: Bruker Instrument Administrator
!@!!Site: University of Illinois Chicago
!@!!Frame: map-178_01_000.gfrm
!@!!Wavelengths    1.54184   1.54056   1.54439
!@!!Frame angles: 2Theta: 63.000 Omega: 50.000 Phi: 0.000 Chi: 90.000
!@!!Integration range: 2Theta: 53.000 to 73.000  Gamma: -105.000 to -75.000
!@!!Integration method: bin normalized
!@!N
!@!SS
!@!M
!@!L 0.0 0.0 0.0 0.0
!@!XDegrees
!@!YCounts
53.000 4.835192
53.005 4.880638
53.010 5.077174
53.015 4.888793
53.020 4.78994
53.025 5.112898
53.030 5.217276
53.035 5.612698
53.040 5.696443
53.045 5.40662
53.050 5.848818
53.055 5.858843
53.060 5.698961
53.065 5.813916
53.070 5.526443
53.075 5.609789
53.080 5.717703
53.085 5.675991
53.090 5.746441
53.095 6.186318
53.100 6.178625
53.105 6.438641
53.110 6.832268
53.115 7.28021
53.120 7.091976
53.125 7.102214
53.130 6.600103
53.135 6.170032
53.140 5.834185
53.145 5.50523
53.150 5.557361
53.155 5.846525
53.160 5.799761
53.165 5.946183
53.170 5.982586
53.175 5.87059
53.180 5.820403
53.185 5.596713
53.190 5.21848
53.195 5.074742
53.200 5.143794
53.205 5.101362
53.210 5.055866
53.215 4.528578
53.220 4.118616
53.225 4.604835
53.230 4.842551
53.235 4.633611
53.240 4.595907
53.245 4.783036
53.250 5.473179
53.255 5.767951
53.260 5.467942
53.265 5.161904
53.270 5.312014
53.275 5.642008
53.280 5.648186
53.285 5.618332
53.290 5.642417
53.295 6.058639
53.300 6.257012
53.305 6.368391
53.310 6.188175
53.315 6.063163
53.320 6.023988
53.325 5.769433
53.330 5.745356
53.335 5.615983
53.340 5.442626
53.345 5.496671
53.350 5.325187
53.355 5.724834
53.360 5.711284
53.365 5.678415
53.370 5.705924
53.375 5.709598
53.380 5.8979
53.385 5.506659
53.390 5.07907
53.395 5.4554
53.400 5.833998
53.405 5.785945
53.410 6.165498
53.415 6.288586
53.420 6.636513
53.425 6.681401
53.430 6.378755
53.435 6.331673
53.440 6.255856
53.445 6.026453
53.450 6.18209
53.455 6.258046
53.460 6.441889
53.465 6.57668
53.470 6.303248
53.475 6.320294
53.480 6.367804
53.485 6.18471
53.490 5.851487
53.495 5.596625
53.500 5.50747
53.505 5.889122
53.510 6.183425
53.515 6.186272
53.520 5.998081
53.525 6.173686
53.530 6.700339
53.535 6.7855
53.540 6.782091
53.545 6.919178
53.550 7.095992
53.555 7.213157
53.560 7.339478
53.565 7.107574
53.570 6.986411
53.575 6.740169
53.580 6.138951
53.585 6.146379
53.590 6.489632
53.595 6.227189
53.600 5.927647
53.605 5.762514
53.610 5.986509
53.615 6.14126
53.620 6.110519
53.625 6.09825
53.630 6.05891
53.635 6.327308
53.640 6.374041
53.645 6.201812
53.650 5.990343
53.655 5.779215
53.660 5.67938
53.665 5.830638
53.670 6.031995
53.675 5.967204
53.680 6.139248
53.685 6.229142
53.690 6.249576
53.695 6.040395
53.700 6.166461
53.705 6.143285
53.710 5.966008
53.715 6.02032
53.720 5.913167
53.725 5.984076
53.730 6.025605
53.735 5.724744
53.740 5.77099
53.745 5.918301
53.750 5.780852
53.755 5.767082
53.760 5.842315
53.765 6.163467
53.770 6.196533
53.775 6.181637
53.780 5.95962
53.785 5.961057
53.790 5.943911
53.795 5.580911
53.800 5.462552
53.805 5.629819
53.810 5.664311
53.815 5.834979
53.820 5.998568
53.825 5.901326
53.830 5.668008
53.835 5.342693
53.840 5.258869
53.845 5.37543
53.850 5.331
53.855 5.449767
53.860 5.621617
53.865 5.814384
53.870 5.989408
53.875 5.903605
53.880 6.183446
53.885 6.181168
53.890 6.445912
53.895 6.988336
53.900 7.014728
53.905 7.220737
53.910 7.104359
53.915 6.941146
53.920 6.786403
53.925 6.184976
53.930 5.681802
53.935 5.590995
53.940 5.322253
53.945 5.42277
53.950 5.228814
53.955 5.310283
53.960 5.654388
53.965 6.035954
53.970 6.243725
53.975 6.16664
53.980 6.446179
53.985 6.635943
53.990 6.566449
53.995 6.556678
54.000 6.273345
54.005 6.446514
54.010 6.485969
54.015 5.983546
54.020 5.844012
54.025 6.206839
54.030 6.162594
54.035 6.053134
54.040 5.744385
54.045 5.785543
54.050 5.90281
54.055 6.07641
54.060 6.032052
54.065 6.069649
54.070 6.276202
54.075 6.198049
54.080 6.033121
54.085 6.22064
54.090 5.950316
54.095 5.838138
54.100 5.778965
54.105 5.855786
54.110 6.056424
54.115 6.340746
54.120 6.132321
54.125 5.861494
54.130 5.464582
54.135 5.563668
54.140 5.534763
54.145 5.399821
54.150 5.236515
54.155 5.451061
54.160 6.254794
54.165 6.570496
54.170 6.589862
54.175 6.588304
54.180 6.30458
54.185 6.192795
54.190 5.805906
54.195 5.531457
54.200 5.815368
54.205 5.624023
54.210 5.904998
54.215 6.179833
54.220 6.34302
54.225 6.56898
54.230 6.658638
54.235 6.793229
54.240 6.438019
54.245 6.520453
54.250 6.587383
54.255 6.766018
54.260 6.508926
54.265 6.005575
54.270 5.855178
54.275 5.97402
54.280 5.708719
54.285 5.561701
54.290 5.855646
54.295 6.018013
54.300 6.398428
54.305 6.321546
54.310 6.187854
54.315 6.366575
54.320 6.326329
54.325 5.929088
54.330 6.173509
54.335 6.057369
54.340 6.420613
54.345 6.393747
54.350 6.283465
54.355 6.276736
54.360 6.218025
54.365 5.779077
54.370 5.80131
54.375 5.628002
54.380 5.712635
54.385 5.620982
54.390 5.509263
54.395 5.468606
54.400 5.529179
54.405 5.493983
54.410 5.613587
54.415 5.881935
54.420 6.218295
54.425 6.467135
54.430 6.585973
54.435 6.598954
54.440 6.323946
54.445 6.163679
54.450 5.770468
54.455 5.553677
54.460 5.434855
54.465 5.266196
54.470 5.712801
54.475 6.195827
54.480 6.340487
54.485 6.132926
54.490 5.944097
54.495 6.171311
54.500 6.547098
54.505 6.475302
54.510 5.951811
54.515 5.930729
54.520 6.078921
54.525 5.941183
54.530 5.660054
54.535 5.416903
54.540 5.455242
54.545 5.560633
54.550 5.862354
54.555 6.156327
54.560 6.298486
54.565 6.314134
54.570 6.27224
54.575 5.944721
54.580 6.200102
54.585 6.228344
54.590 6.667365
54.595 6.782766
54.600 6.738779
54.605 6.812412
54.610 6.515107
54.615 6.602619
54.620 6.596558
54.625 6.36672
54.630 6.324448
54.635 6.531338
54.640 6.71085
54.645 7.412961
54.650 7.293327
54.655 7.112985
54.660 6.904446
54.665 7.121202
54.670 7.078022
54.675 6.92517
54.680 6.423027
54.685 6.201246
54.690 6.420182
54.695 6.2067
54.700 5.820436
54.705 5.68211
54.710 5.684645
54.715 5.604371
54.720 5.327329
54.725 5.133589
54.730 5.267362
54.735 5.084325
54.740 5.175963
54.745 5.233878
54.750 5.651961
54.755 5.714159
54.760 5.727633
54.765 5.847304
54.770 6.167264
54.775 6.041841
54.780 6.426217
54.785 6.305825
54.790 6.544301
54.795 6.507462
54.800 6.004408
54.805 6.082497
54.810 6.037288
54.815 5.950765
54.820 6.000543
54.825 6.16376
54.830 6.293515
54.835 6.378533
54.840 6.060941
54.845 5.766187
54.850 5.397169
54.855 5.068212
54.860 5.043898
54.865 5.349613
54.870 5.758292
54.875 5.704755
54.880 6.265374
54.885 6.818287
54.890 6.937569
54.895 6.719327
54.900 6.768506
54.905 6.536351
54.910 6.747308
54.915 6.535437
54.920 6.374163
54.925 6.462413
54.930 6.645862
54.935 6.266922
54.940 6.446859
54.945 6.545466
54.950 6.569156
54.955 6.344941
54.960 6.334142
54.965 6.326556
54.970 6.965958
54.975 7.403673
54.980 7.39946
54.985 7.752834
54.990 7.817651
54.995 8.026073
55.000 8.05423
55.005 7.754258
55.010 7.437745
55.015 6.98853
55.020 6.572778
55.025 6.532972
55.030 6.38807
55.035 5.969602
55.040 5.735978
55.045 5.522241
55.050 6.075653
55.055 6.3865
55.060 6.360538
55.065 6.324862
55.070 6.403307
55.075 6.705351
55.080 7.004701
55.085 6.507309
55.090 6.471552
55.095 6.404368
55.100 6.49198
55.105 6.639417
55.110 6.514579
55.115 6.212523
55.120 5.994088
55.125 6.020934
55.130 6.177378
55.135 6.358285
55.140 6.373222
55.145 6.175229
55.150 6.596576
55.155 6.757189
55.160 6.704132
55.165 6.720656
55.170 6.744779
55.175 6.926215
55.180 7.225834
55.185 7.353743
55.190 7.681652
55.195 7.740577
55.200 7.628987
55.205 7.593397
55.210 7.416354
55.215 7.593437
55.220 7.596938
55.225 7.091656
55.230 6.731425
55.235 6.502246
55.240 6.330774
55.245 6.128614
55.250 5.620529
55.255 5.234631
55.260 5.377142
55.265 5.111593
55.270 5.301195
55.275 5.36414
55.280 5.517087
55.285 5.835172
55.290 6.0327
55.295 5.913775
55.300 5.893881
55.305 5.953161
55.310 5.724626
55.315 5.478534
55.320 5.370952
55.325 5.62208
55.330 6.049464
55.335 6.17676
55.340 6.270284
55.345 6.434358
55.350 6.482874
55.355 6.284593
55.360 6.075052
55.365 5.9118
55.370 5.935664
55.375 5.884766
55.380 5.891524
55.385 5.916584
55.390 5.972131
55.395 6.027372
55.400 6.068161
55.405 5.918447
55.410 5.970862
55.415 5.980027
55.420 6.087053
55.425 5.939068
55.430 5.584367
55.435 5.84589
55.440 5.848546
55.445 5.793631
55.450 5.637179
55.455 5.656006
55.460 5.857354
55.465 6.138489
55.470 5.897835
55.475 6.077899
55.480 6.097622
55.485 6.130804
55.490 6.109107
55.495 6.139587
55.500 6.334537
55.505 6.126076
55.510 5.783531
55.515 5.814415
55.520 5.918442
55.525 5.965873
55.530 5.655813
55.535 5.466893
55.540 5.508928
55.545 5.747515
55.550 5.695984
55.555 5.543822
55.560 5.473157
55.565 5.960802
55.570 6.229809
55.575 6.506669
55.580 6.305592
55.585 6.344082
55.590 6.568047
55.595 6.592726
55.600 6.313893
55.605 5.796327
55.610 5.843245
55.615 5.867548
55.620 6.051772
55.625 5.978684
55.630 6.045966
55.635 6.007062
55.640 6.188136
55.645 6.19604
55.650 6.214084
55.655 5.849056
55.660 5.679432
55.665 5.751328
55.670 5.751027
55.675 5.714529
55.680 5.447241
55.685 5.424813
55.690 5.440447
55.695 5.779241
55.700 5.743681
55.705 5.685781
55.710 5.776765
55.715 6.082107
55.720 6.495618
55.725 6.466547
55.730 6.423738
55.735 6.639167
55.740 6.751928
55.745 6.926047
55.750 6.795647
55.755 6.361638
55.760 6.423003
55.765 6.160237
55.770 5.740843
55.775 5.616948
55.780 5.453717
55.785 5.243729
55.790 5.244705
55.795 5.148179
55.800 5.117794
55.805 5.481899
55.810 5.609053
55.815 5.594901
55.820 5.81656
55.825 5.84808
55.830 6.071137
55.835 6.331438
55.840 6.014556
55.845 6.092356
55.850 5.857345
55.855 5.882175
55.860 5.895649
55.865 6.261731
55.870 6.045551
55.875 6.051855
55.880 5.951468
55.885 6.267158
55.890 6.115384
55.895 6.016513
55.900 5.866761
55.905 5.906524
55.910 6.23984
55.915 6.873667
55.920 7.048491
55.925 7.363877
55.930 7.391959
55.935 7.245635
55.940 6.994448
55.945 6.611317
55.950 6.361225
55.955 6.448903
55.960 6.621472
55.965 6.651945
55.970 6.990996
55.975 7.221312
55.980 7.178191
55.985 7.205208
55.990 6.786623
55.995 6.641152
56.000 6.506465
56.005 5.774414
56.010 6.066061
56.015 6.259785
56.020 6.425143
56.025 6.720978
56.030 7.079333
56.035 7.102521
56.040 7.44453
56.045 7.171226
56.050 6.496473
56.055 6.23504
56.060 5.886937
56.065 5.753488
56.070 6.026829
56.075 6.217605
56.080 6.165609
56.085 6.382617
56.090 6.412572
56.095 6.538693
56.100 6.504358
56.105 6.194049
56.110 6.087172
56.115 6.42445
56.120 6.625995
56.125 6.647112
56.130 6.4012
56.135 6.148603
56.140 6.159203
56.145 5.987412
56.150 5.961589
56.155 6.033975
56.160 5.932625
56.165 5.841586
56.170 6.027306
56.175 5.836102
56.180 5.962833
56.185 5.70836
56.190 5.767051
56.195 5.938025
56.200 6.113803
56.205 6.562086
56.210 6.877605
56.215 7.249075
56.220 7.25233
56.225 7.388897
56.230 7.488311
56.235 7.010148
56.240 6.775646
56.245 6.801438
56.250 6.739056
56.255 6.912346
56.260 6.627094
56.265 6.633807
56.270 6.78837
56.275 6.821582
56.280 6.630467
56.285 6.170546
56.290 5.960818
56.295 6.186355
56.300 6.274086
56.305 6.395284
56.310 6.590494
56.315 7.00654
56.320 7.387753
56.325 7.436054
56.330 7.545258
56.335 7.649413
56.340 7.536914
56.345 7.237077
56.350 6.855168
56.355 6.744239
56.360 6.600543
56.365 6.378264
56.370 6.369844
56.375 6.659235
56.380 7.013474
56.385 7.05357
56.390 6.790432
56.395 6.856856
56.400 7.002905
56.405 6.730244
56.410 6.480008
56.415 6.301639
56.420 6.09852
56.425 6.309473
56.430 6.224366
56.435 6.551696
56.440 6.779315
56.445 6.821343
56.450 6.816451
56.455 7.032531
56.460 7.476667
56.465 7.461883
56.470 7.292618
56.475 7.013137
56.480 7.006098
56.485 7.044371
56.490 6.921391
56.495 6.591026
56.500 6.697815
56.505 6.340397
56.510 6.338409
56.515 6.373058
56.520 6.321129
56.525 6.322483
56.530 6.431467
56.535 6.471888
56.540 6.837924
56.545 6.84715
56.550 6.669801
56.555 6.856886
56.560 6.674436
56.565 6.386693
56.570 6.252168
56.575 6.107042
56.580 6.345952
56.585 6.159393
56.590 5.940473
56.595 5.977127
56.600 6.053603
56.605 6.101739
56.610 6.15023
56.615 6.431221
56.620 6.822059
56.625 7.069872
56.630 7.336336
56.635 7.187368
56.640 7.212754
56.645 7.498056
56.650 7.299249
56.655 7.146226
56.660 6.959206
56.665 6.493817
56.670 6.68283
56.675 6.867186
56.680 6.724261
56.685 6.990287
56.690 7.58918
56.695 8.344162
56.700 9.134921
56.705 9.456844
56.710 9.573103
56.715 9.406509
56.720 9.149217
56.725 9.07839
56.730 8.836979
56.735 8.512079
56.740 8.130065
56.745 7.881201
56.750 8.270119
56.755 8.222426
56.760 8.218187
56.765 8.114134
56.770 7.760501
56.775 7.66153
56.780 7.431844
56.785 6.853334
56.790 6.741198
56.795 6.456808
56.800 6.202654
56.805 6.30022
56.810 6.380215
56.815 6.608397
56.820 6.582892
56.825 6.310851
56.830 5.94519
56.835 5.858169
56.840 5.871842
56.845 5.774521
56.850 5.659756
56.855 5.797213
56.860 6.060647
56.865 6.147447
56.870 6.70637
56.875 6.48689
56.880 6.541495
56.885 7.168211
56.890 7.139678
56.895 7.26931
56.900 7.134914
56.905 6.590724
56.910 7.029598
56.915 7.032175
56.920 6.482049
56.925 6.293448
56.930 6.080857
56.935 6.346534
56.940 6.404367
56.945 5.987309
56.950 6.161889
56.955 6.210592
56.960 6.281603
56.965 6.27106
56.970 6.008461
56.975 6.098527
56.980 6.034026
56.985 5.869434
56.990 5.78852
56.995 5.854305
57.000 6.147196
57.005 6.20881
57.010 6.706616
57.015 6.752145
57.020 6.661173
57.025 6.961786
57.030 7.013187
57.035 7.122332
57.040 7.518225
57.045 7.315312
57.050 7.444584
57.055 7.216728
57.060 6.853095
57.065 6.646819
57.070 6.317301
57.075 5.972989
57.080 5.762528
57.085 5.81267
57.090 6.208916
57.095 6.450712
57.100 6.6792
57.105 6.778385
57.110 7.242174
57.115 7.639272
57.120 7.479314
57.125 7.292889
57.130 7.217628
57.135 7.050701
57.140 7.070245
57.145 6.386296
57.150 6.08783
57.155 5.885401
57.160 5.738998
57.165 5.933366
57.170 6.232102
57.175 6.319991
57.180 6.425869
57.185 6.537094
57.190 6.609631
57.195 6.603159
57.200 6.522922
57.205 6.198391
57.210 6.284336
57.215 6.55997
57.220 6.406544
57.225 6.665269
57.230 6.653368
57.235 6.524592
57.240 6.777633
57.245 6.086235
57.250 5.680253
57.255 5.953442
57.260 5.755897
57.265 5.787396
57.270 5.676073
57.275 5.318145
57.280 5.872718
57.285 5.872104
57.290 5.855375
57.295 6.00985
57.300 6.094298
57.305 6.580472
57.310 6.688865
57.315 6.571783
57.320 6.564559
57.325 6.929437
57.330 7.038202
57.335 7.087725
57.340 6.8748
57.345 7.143492
57.350 7.679643
57.355 7.941864
57.360 7.610706
57.365 7.313082
57.370 7.126223
57.375 7.193299
57.380 7.254476
57.385 7.152657
57.390 7.331996
57.395 7.522616
57.400 7.542506
57.405 7.541111
57.410 7.652403
57.415 7.757346
57.420 7.665594
57.425 7.119583
57.430 7.165528
57.435 7.483193
57.440 7.605603
57.445 7.194367
57.450 6.864413
57.455 6.789787
57.460 7.084107
57.465 7.16586
57.470 7.061091
57.475 7.086925
57.480 7.516737
57.485 7.985802
57.490 7.952059
57.495 7.948876
57.500 7.899422
57.505 7.871962
57.510 7.732199
57.515 7.295552
57.520 7.002395
57.525 7.012701
57.530 6.870282
57.535 6.656845
57.540 6.455255
57.545 6.519084
57.550 6.371647
57.555 6.430379
57.560 6.36641
57.565 6.409901
57.570 6.645248
57.575 6.766804
57.580 6.472817
57.585 6.735071
57.590 6.589135
57.595 6.648405
57.600 6.88009
57.605 6.842297
57.610 6.770555
57.615 6.937237
57.620 7.119855
57.625 7.465602
57.630 7.473826
57.635 6.878221
57.640 6.658082
57.645 6.509829
57.650 6.39259
57.655 6.138191
57.660 5.638445
57.665 5.813656
57.670 6.435456
57.675 6.783241
57.680 6.947363
57.685 7.236071
57.690 7.280831
57.695 7.233252
57.700 6.996256
57.705 6.899128
57.710 7.234914
57.715 7.098447
57.720 6.943553
57.725 7.109924
57.730 7.40035
57.735 7.296862
57.740 6.83267
57.745 6.577859
57.750 6.687477
57.755 6.628301
57.760 6.50021
57.765 6.696198
57.770 6.781738
57.775 6.776323
57.780 6.763443
57.785 6.799942
57.790 6.766763
57.795 6.407533
57.800 6.211578
57.805 6.721781
57.810 7.13383
57.815 7.374914
57.820 7.282782
57.825 7.578594
57.830 7.856594
57.835 7.914876
57.840 7.229655
57.845 6.920921
57.850 6.671248
57.855 6.737037
57.860 6.656172
57.865 6.591255
57.870 6.595187
57.875 6.821031
57.880 7.138455
57.885 7.325578
57.890 7.248796
57.895 7.11874
57.900 7.092899
57.905 6.990945
57.910 7.006569
57.915 6.92708
57.920 6.971961
57.925 7.095985
57.930 7.345488
57.935 7.549015
57.940 7.525605
57.945 7.62698
57.950 7.146234
57.955 7.190703
57.960 7.188361
57.965 7.036481
57.970 6.701001
57.975 6.323851
57.980 5.985097
57.985 6.234034
57.990 5.907259
57.995 5.942346
58.000 6.037909
58.005 6.859334
58.010 7.409296
58.015 7.50272
58.020 7.16797
58.025 7.180398
58.030 6.995118
58.035 6.8797
58.040 6.366507
58.045 6.133165
58.050 6.136924
58.055 6.257154
58.060 6.490948
58.065 6.470696
58.070 6.498557
58.075 6.416468
58.080 6.380781
58.085 6.524338
58.090 6.732702
58.095 6.940659
58.100 7.207131
58.105 7.063273
58.110 7.449759
58.115 7.905704
58.120 7.688067
58.125 7.355547
58.130 7.135925
58.135 7.17243
58.140 7.617217
58.145 7.557547
58.150 7.405857
58.155 7.568446
58.160 7.648218
58.165 7.710202
58.170 7.437643
58.175 7.006532
58.180 6.446373
58.185 6.418132
58.190 6.707746
58.195 6.852053
58.200 6.675615
58.205 6.536053
58.210 6.537906
58.215 6.165759
58.220 6.082682
58.225 5.767381
58.230 5.847389
58.235 6.308791
58.240 6.642563
58.245 6.847538
58.250 7.342948
58.255 7.488085
58.260 8.108655
58.265 7.916227
58.270 7.712167
58.275 7.738654
58.280 8.052713
58.285 8.043036
58.290 7.717565
58.295 7.131458
58.300 7.064153
58.305 7.060482
58.310 7.093705
58.315 7.272653
58.320 7.239216
58.325 7.69228
58.330 7.8406
58.335 8.011796
58.340 8.094576
58.345 7.726006
58.350 7.255642
58.355 7.396909
58.360 7.118688
58.365 7.040109
58.370 6.898679
58.375 7.038245
58.380 7.107382
58.385 7.162949
58.390 7.124314
58.395 6.839966
58.400 7.107546
58.405 6.846515
58.410 6.741957
58.415 6.528698
58.420 6.464433
58.425 6.781456
58.430 7.160897
58.435 7.151577
58.440 7.279338
58.445 7.155785
58.450 7.270987
58.455 7.137301
58.460 7.097051
58.465 6.993316
58.470 7.194679
58.475 7.249174
58.480 7.728863
58.485 8.168723
58.490 8.465417
58.495 8.583559
58.500 8.390195
58.505 8.608782
58.510 8.644863
58.515 8.269433
58.520 7.887325
58.525 7.57111
58.530 7.270904
58.535 7.270566
58.540 7.228223
58.545 7.260939
58.550 7.356205
58.555 7.626181
58.560 7.75441
58.565 7.581285
58.570 7.306246
58.575 7.002047
58.580 7.108227
58.585 7.120051
58.590 6.869213
58.595 6.867022
58.600 6.931974
58.605 6.845529
58.610 6.882135
58.615 6.823081
58.620 6.969824
58.625 7.496633
58.630 7.628958
58.635 8.089211
58.640 8.722079
58.645 8.53597
58.650 8.395716
58.655 8.297583
58.660 7.897701
58.665 7.774184
58.670 7.585112
58.675 7.729562
58.680 8.187286
58.685 8.427594
58.690 8.457559
58.695 8.805398
58.700 8.932259
58.705 8.948277
58.710 8.870215
58.715 8.920938
58.720 9.292576
58.725 9.58935
58.730 9.277545
58.735 9.250042
58.740 9.370174
58.745 8.890999
58.750 8.474984
58.755 7.842964
58.760 7.35386
