!@!!GADDS PLOTSO FILE: Chi integration type
!@!!Title/SampleName: map-c6
!@!!Comment: ?
!@!!User: Bruker Instrument Administrator
!@!!Site: University of Illinois Chicago
!@!!Frame: map-c6_01_000.gfrm
!@!!Wavelengths    1.54184   1.54056   1.54439
!@!!Frame angles: 2Theta: 63.000 Omega: 50.000 Phi: 0.000 Chi: 90.000
!@!!Integration range: 2Theta: 53.000 to 73.000  Gamma: -105.000 to -75.000
!@!!Integration method: bin normalized
!@!N
!@!SS
!@!M
!@!L 0.0 0.0 0.0 0.0
!@!XDegrees
!@!YCounts
53.000 7.283666
53.005 7.461494
53.010 7.54972
53.015 7.505283
53.020 7.290037
53.025 7.183086
53.030 7.375491
53.035 7.384881
53.040 7.419377
53.045 6.955928
53.050 6.731295
53.055 7.393641
53.060 7.510687
53.065 7.566171
53.070 7.649828
53.075 7.699798
53.080 8.21675
53.085 8.107822
53.090 7.744153
53.095 8.14784
53.100 8.199815
53.105 8.01405
53.110 8.230674
53.115 8.141728
53.120 8.415083
53.125 8.183315
53.130 7.734591
53.135 7.958743
53.140 8.190158
53.145 8.19221
53.150 8.26179
53.155 8.187175
53.160 8.134613
53.165 8.410047
53.170 8.064978
53.175 8.133413
53.180 8.020549
53.185 7.751018
53.190 7.819647
53.195 8.010444
53.200 8.352143
53.205 8.712777
53.210 8.525588
53.215 8.722737
53.220 8.970231
53.225 8.966762
53.230 8.884627
53.235 8.68807
53.240 8.627583
53.245 8.600996
53.250 8.340459
53.255 8.346354
53.260 8.479149
53.265 8.357788
53.270 8.235064
53.275 8.0869
53.280 8.058467
53.285 8.22934
53.290 7.851987
53.295 7.851021
53.300 7.867692
53.305 7.990087
53.310 8.040805
53.315 8.067208
53.320 8.304526
53.325 8.278368
53.330 7.872002
53.335 7.664324
53.340 7.44077
53.345 7.795871
53.350 8.126513
53.355 7.914752
53.360 8.292159
53.365 8.623281
53.370 8.57132
53.375 8.663703
53.380 8.400013
53.385 8.135222
53.390 8.056471
53.395 7.492827
53.400 7.210477
53.405 7.215512
53.410 7.021092
53.415 7.087118
53.420 6.853884
53.425 7.233038
53.430 7.819671
53.435 8.370049
53.440 8.821719
53.445 9.150406
53.450 9.116899
53.455 9.289051
53.460 8.979907
53.465 8.550772
53.470 8.100671
53.475 7.461184
53.480 7.133233
53.485 7.514754
53.490 7.808044
53.495 8.003134
53.500 8.301867
53.505 8.576277
53.510 8.682586
53.515 8.852454
53.520 9.005402
53.525 8.49094
53.530 8.172494
53.535 8.12313
53.540 8.009203
53.545 8.241017
53.550 8.358971
53.555 8.39837
53.560 9.078015
53.565 9.469015
53.570 9.371348
53.575 9.426443
53.580 9.400048
53.585 9.076446
53.590 8.661319
53.595 8.318089
53.600 8.097069
53.605 7.966717
53.610 8.234336
53.615 8.464909
53.620 8.598801
53.625 9.196392
53.630 9.310461
53.635 9.516657
53.640 9.688043
53.645 9.576695
53.650 9.120803
53.655 9.085717
53.660 8.963081
53.665 8.743131
53.670 8.768881
53.675 8.86803
53.680 9.02978
53.685 9.157564
53.690 8.643043
53.695 8.203681
53.700 8.414307
53.705 8.230978
53.710 7.927
53.715 7.880573
53.720 7.83218
53.725 8.058219
53.730 8.174529
53.735 8.300026
53.740 8.508821
53.745 8.18346
53.750 7.981171
53.755 7.91941
53.760 8.112392
53.765 8.185204
53.770 8.205758
53.775 8.341104
53.780 8.566899
53.785 8.947206
53.790 9.087049
53.795 9.159205
53.800 9.128491
53.805 8.901321
53.810 8.853122
53.815 8.729472
53.820 8.367871
53.825 7.954418
53.830 7.50278
53.835 7.565594
53.840 7.558918
53.845 7.6295
53.850 7.665214
53.855 7.808218
53.860 8.424043
53.865 8.264638
53.870 7.904761
53.875 7.810796
53.880 7.753882
53.885 8.138858
53.890 8.118791
53.895 7.676866
53.900 8.211504
53.905 8.440242
53.910 8.726609
53.915 8.582591
53.920 8.545314
53.925 8.597236
53.930 8.986254
53.935 8.658475
53.940 8.616428
53.945 8.717645
53.950 8.502658
53.955 8.236767
53.960 8.907551
53.965 8.873933
53.970 8.957982
53.975 9.064075
53.980 9.169207
53.985 9.218059
53.990 9.001554
53.995 8.156266
54.000 8.056459
54.005 8.056402
54.010 7.704835
54.015 7.569844
54.020 8.046706
54.025 8.30217
54.030 8.642685
54.035 8.943046
54.040 8.832036
54.045 8.709696
54.050 8.315851
54.055 8.16449
54.060 8.402631
54.065 8.477343
54.070 8.582799
54.075 8.800809
54.080 9.302792
54.085 9.327663
54.090 9.229205
54.095 9.1522
54.100 8.744162
54.105 8.845948
54.110 8.422603
54.115 8.476885
54.120 8.331247
54.125 7.967875
54.130 7.398099
54.135 7.240904
54.140 7.256619
54.145 7.520577
54.150 7.781283
54.155 8.084909
54.160 8.427732
54.165 8.50414
54.170 8.434632
54.175 8.547272
54.180 8.465379
54.185 8.475646
54.190 8.736862
54.195 9.364372
54.200 10.294428
54.205 10.41303
54.210 10.248589
54.215 9.971777
54.220 10.077856
54.225 9.655511
54.230 9.334172
54.235 9.174632
54.240 9.506955
54.245 9.849377
54.250 9.996662
54.255 10.13405
54.260 9.882916
54.265 9.463595
54.270 9.408001
54.275 9.39348
54.280 9.397408
54.285 9.495397
54.290 9.42078
54.295 9.96746
54.300 10.228135
54.305 10.379813
54.310 10.610861
54.315 10.689928
54.320 10.659653
54.325 10.629659
54.330 10.466729
54.335 10.625434
54.340 10.055032
54.345 9.615901
54.350 9.411501
54.355 9.562076
54.360 9.891043
54.365 10.195301
54.370 10.45126
54.375 10.486574
54.380 10.791328
54.385 10.73764
54.390 10.29199
54.395 9.711658
54.400 9.237917
54.405 9.304961
54.410 9.184675
54.415 8.906463
54.420 9.019864
54.425 9.553641
54.430 9.694797
54.435 9.630405
54.440 9.262236
54.445 9.584627
54.450 9.810242
54.455 9.587205
54.460 9.58112
54.465 9.728313
54.470 9.943906
54.475 10.000563
54.480 9.852551
54.485 9.697046
54.490 9.477861
54.495 9.161241
54.500 9.005156
54.505 9.14745
54.510 9.280005
54.515 9.552523
54.520 9.689973
54.525 10.282411
54.530 10.695916
54.535 10.410835
54.540 10.290359
54.545 10.054508
54.550 9.642198
54.555 9.488297
54.560 9.577501
54.565 9.712989
54.570 9.995517
54.575 9.842673
54.580 10.131362
54.585 10.134758
54.590 9.850884
54.595 9.268022
54.600 9.05402
54.605 8.99472
54.610 8.760634
54.615 8.771684
54.620 9.310204
54.625 9.267141
54.630 9.100227
54.635 9.586965
54.640 9.391574
54.645 9.731475
54.650 9.492545
54.655 8.963723
54.660 9.291078
54.665 9.565653
54.670 9.374285
54.675 9.764632
54.680 10.080553
54.685 10.555802
54.690 11.166884
54.695 11.170105
54.700 10.983643
54.705 11.028878
54.710 10.41194
54.715 9.961698
54.720 9.353294
54.725 8.853948
54.730 8.895545
54.735 8.569669
54.740 8.788183
54.745 8.67226
54.750 8.559992
54.755 9.305045
54.760 9.463079
54.765 9.386197
54.770 9.562256
54.775 9.599284
54.780 9.858075
54.785 9.691957
54.790 9.292525
54.795 9.067235
54.800 8.822376
54.805 8.843715
54.810 8.467062
54.815 8.653557
54.820 8.488832
54.825 8.584689
54.830 8.971481
54.835 8.992593
54.840 8.856876
54.845 8.854419
54.850 8.874497
54.855 8.789531
54.860 8.52248
54.865 8.45208
54.870 8.815174
54.875 9.049567
54.880 9.614071
54.885 9.708691
54.890 9.953108
54.895 10.488694
54.900 10.772904
54.905 10.901794
54.910 11.307247
54.915 11.604674
54.920 11.579139
54.925 11.501251
54.930 10.982956
54.935 10.653604
54.940 10.533493
54.945 10.184402
54.950 10.110072
54.955 10.261944
54.960 10.740197
54.965 11.227678
54.970 11.514684
54.975 11.244161
54.980 11.323614
54.985 10.652696
54.990 10.497633
54.995 10.171915
55.000 9.751524
55.005 9.780247
55.010 10.292535
55.015 9.980689
55.020 9.750731
55.025 9.953828
55.030 10.049313
55.035 10.000627
55.040 9.698198
55.045 9.121565
55.050 9.590829
55.055 10.019495
55.060 9.88393
55.065 9.550204
55.070 9.509559
55.075 9.757755
55.080 9.801417
55.085 9.883166
55.090 10.013352
55.095 10.188541
55.100 10.606406
55.105 10.625431
55.110 10.671127
55.115 10.83001
55.120 10.578815
55.125 10.308707
55.130 10.115071
55.135 10.17018
55.140 9.992132
55.145 9.905539
55.150 9.870053
55.155 9.747275
55.160 10.110332
55.165 10.301318
55.170 10.204261
55.175 10.51556
55.180 10.387982
55.185 10.422891
55.190 10.464228
55.195 10.131434
55.200 10.110852
55.205 9.913386
55.210 9.555185
55.215 9.431356
55.220 9.276956
55.225 9.216596
55.230 9.210311
55.235 9.13099
55.240 9.367916
55.245 9.684399
55.250 9.692989
55.255 9.819283
55.260 9.731932
55.265 9.963135
55.270 10.419802
55.275 10.324717
55.280 10.421241
55.285 10.477274
55.290 10.654031
55.295 10.537631
55.300 9.89549
55.305 9.610281
55.310 9.338848
55.315 9.048272
55.320 9.36697
55.325 9.961679
55.330 10.425132
55.335 10.874868
55.340 10.906188
55.345 10.894461
55.350 10.798298
55.355 10.557631
55.360 10.045054
55.365 10.192661
55.370 9.921578
55.375 9.910226
55.380 10.264006
55.385 10.349835
55.390 10.129123
55.395 10.20853
55.400 9.920811
55.405 10.040475
55.410 10.237209
55.415 10.111764
55.420 10.096494
55.425 10.102096
55.430 10.114519
55.435 10.121724
55.440 10.330419
55.445 10.48843
55.450 10.915934
55.455 11.156953
55.460 10.816339
55.465 10.675973
55.470 10.919209
55.475 10.747813
55.480 10.057493
55.485 9.614928
55.490 9.945373
55.495 10.218212
55.500 10.015823
55.505 9.72927
55.510 9.953943
55.515 10.525346
55.520 10.293852
55.525 9.813491
55.530 9.689194
55.535 10.376083
55.540 10.889806
55.545 10.871163
55.550 10.895841
55.555 10.914275
55.560 10.677797
55.565 10.791109
55.570 10.117213
55.575 9.388228
55.580 9.165575
55.585 8.96103
55.590 9.275111
55.595 9.710975
55.600 9.686639
55.605 9.615782
55.610 9.445979
55.615 9.677878
55.620 9.998789
55.625 9.846457
55.630 9.838824
55.635 9.507914
55.640 9.530995
55.645 9.648479
55.650 9.886946
55.655 9.871477
55.660 9.856359
55.665 9.716407
55.670 9.810723
55.675 10.243083
55.680 10.524428
55.685 10.048911
55.690 10.15871
55.695 10.025073
55.700 10.270709
55.705 10.770746
55.710 10.346916
55.715 10.3274
55.720 10.656577
55.725 10.477169
55.730 10.584876
55.735 10.541083
55.740 10.208021
55.745 10.387278
55.750 10.6708
55.755 10.48861
55.760 10.588288
55.765 10.708452
55.770 10.714395
55.775 11.134825
55.780 11.663193
55.785 11.635655
55.790 11.81678
55.795 11.8865
55.800 11.509964
55.805 11.264735
55.810 11.210083
55.815 11.12165
55.820 10.898109
55.825 10.904068
55.830 11.300704
55.835 11.950231
55.840 12.247666
55.845 11.815983
55.850 11.500312
55.855 11.605444
55.860 12.027302
55.865 11.809608
55.870 11.135715
55.875 11.000946
55.880 11.009986
55.885 10.730179
55.890 10.398911
55.895 9.773716
55.900 9.82003
55.905 10.18357
55.910 10.044607
55.915 10.041586
55.920 10.262283
55.925 10.407683
55.930 10.886294
55.935 10.784307
55.940 10.964629
55.945 11.328584
55.950 11.038655
55.955 10.721631
55.960 10.562529
55.965 10.346048
55.970 10.440662
55.975 10.228857
55.980 9.868079
55.985 10.584902
55.990 11.268239
55.995 11.265972
56.000 11.068505
56.005 10.864038
56.010 10.04061
56.015 9.891201
56.020 9.538986
56.025 9.644018
56.030 9.641133
56.035 10.010466
56.040 10.399713
56.045 11.282045
56.050 11.785442
56.055 12.022311
56.060 11.598159
56.065 11.727987
56.070 11.259207
56.075 11.206114
56.080 11.239678
56.085 10.625876
56.090 10.586769
56.095 10.521973
56.100 10.714296
56.105 11.418015
56.110 11.618085
56.115 11.679332
56.120 11.973044
56.125 11.883598
56.130 12.267005
56.135 12.185122
56.140 12.271984
56.145 12.011124
56.150 12.355195
56.155 12.084642
56.160 12.544654
56.165 12.124746
56.170 12.215747
56.175 12.197163
56.180 11.999121
56.185 11.459861
56.190 11.462254
56.195 11.337087
56.200 11.603814
56.205 11.427849
56.210 11.093117
56.215 11.187024
56.220 11.441415
56.225 11.674248
56.230 11.695923
56.235 11.743855
56.240 11.93888
56.245 12.701207
56.250 12.63417
56.255 12.352384
56.260 11.975458
56.265 11.748533
56.270 11.651331
56.275 11.261047
56.280 10.886233
56.285 11.50146
56.290 11.896177
56.295 12.266512
56.300 12.351154
56.305 12.670867
56.310 12.810507
56.315 12.664817
56.320 11.94559
56.325 11.773151
56.330 11.670836
56.335 11.916718
56.340 11.620319
56.345 11.798752
56.350 12.08327
56.355 12.221695
56.360 12.020927
56.365 11.895595
56.370 11.745278
56.375 11.67147
56.380 11.304904
56.385 11.256324
56.390 11.308485
56.395 11.944766
56.400 11.766623
56.405 11.707467
56.410 11.378762
56.415 11.422068
56.420 11.34409
56.425 11.423306
56.430 10.785614
56.435 10.664585
56.440 10.335728
56.445 10.367593
56.450 10.59294
56.455 10.498443
56.460 10.219152
56.465 10.147923
56.470 10.375814
56.475 10.88405
56.480 10.959782
56.485 11.12525
56.490 11.523664
56.495 12.215379
56.500 12.544093
56.505 12.443026
56.510 11.729999
56.515 11.269363
56.520 10.842396
56.525 10.393881
56.530 9.782951
56.535 10.171536
56.540 10.579907
56.545 10.731447
56.550 11.264061
56.555 11.221266
56.560 11.200312
56.565 11.252999
56.570 10.803638
56.575 11.040898
56.580 11.730237
56.585 11.783485
56.590 12.17975
56.595 12.167172
56.600 11.542001
56.605 11.38327
56.610 10.853863
56.615 10.51259
56.620 9.735322
56.625 9.172974
56.630 9.80682
56.635 10.413356
56.640 10.103048
56.645 10.588633
56.650 11.067551
56.655 11.608927
56.660 11.840199
56.665 11.237371
56.670 11.182502
56.675 11.494802
56.680 11.190006
56.685 11.322927
56.690 11.803194
56.695 12.088518
56.700 12.423288
56.705 12.840591
56.710 12.905107
56.715 12.915348
56.720 12.466258
56.725 12.057037
56.730 11.566119
56.735 11.610173
56.740 11.788347
56.745 11.968135
56.750 12.211575
56.755 12.69724
56.760 13.12238
56.765 13.285174
56.770 13.276675
56.775 13.403914
56.780 13.736715
56.785 13.660176
56.790 13.110206
56.795 12.516675
56.800 12.681466
56.805 12.444648
56.810 12.062823
56.815 11.671306
56.820 11.82459
56.825 12.031208
56.830 12.390165
56.835 11.743898
56.840 12.029762
56.845 12.033213
56.850 12.007423
56.855 11.660384
56.860 11.352818
56.865 10.922071
56.870 11.311468
56.875 10.767201
56.880 10.843011
56.885 10.711724
56.890 10.628821
56.895 10.487795
56.900 11.259053
56.905 11.748196
56.910 11.62384
56.915 11.137418
56.920 11.146536
56.925 11.447474
56.930 11.460414
56.935 10.931589
56.940 10.143467
56.945 10.425444
56.950 10.816782
56.955 10.941067
56.960 11.39978
56.965 11.858855
56.970 12.701315
56.975 13.523688
56.980 12.996954
56.985 12.46213
56.990 12.595076
56.995 12.803325
57.000 12.873391
57.005 12.720034
57.010 12.724595
57.015 13.131409
57.020 13.216279
57.025 12.640586
57.030 12.045115
57.035 11.802594
57.040 11.017937
57.045 10.818276
57.050 11.17287
57.055 11.406018
57.060 11.31956
57.065 11.290204
57.070 11.669798
57.075 11.907771
57.080 11.917124
57.085 11.323324
57.090 11.224978
57.095 11.216326
57.100 11.4407
57.105 11.550031
57.110 11.83012
57.115 11.809467
57.120 12.134275
57.125 12.894112
57.130 13.504944
57.135 13.447097
57.140 13.444947
57.145 13.348816
57.150 13.456237
57.155 13.634597
57.160 13.430483
57.165 12.999152
57.170 12.970812
57.175 12.748848
57.180 13.016204
57.185 13.230091
57.190 13.176682
57.195 13.105804
57.200 13.093208
57.205 12.847101
57.210 12.715906
57.215 12.11114
57.220 12.379782
57.225 12.25991
57.230 12.090912
57.235 12.196991
57.240 11.837189
57.245 12.048358
57.250 12.277428
57.255 11.799252
57.260 11.87149
57.265 12.165585
57.270 12.262837
57.275 11.935451
57.280 11.068411
57.285 11.230973
57.290 11.399407
57.295 11.475187
57.300 11.594676
57.305 11.696468
57.310 12.779874
57.315 13.601788
57.320 13.547962
57.325 13.241706
57.330 13.264327
57.335 13.003907
57.340 12.559078
57.345 11.897586
57.350 11.610559
57.355 11.214715
57.360 11.680382
57.365 12.019221
57.370 12.173253
57.375 12.823808
57.380 12.948911
57.385 12.975412
57.390 13.475091
57.395 13.270227
57.400 13.226745
57.405 13.414011
57.410 13.050554
57.415 12.940042
57.420 13.225173
57.425 13.147654
57.430 12.869292
57.435 12.326049
57.440 11.916841
57.445 12.34867
57.450 12.381487
57.455 12.268661
57.460 11.811743
57.465 11.633173
57.470 12.242749
57.475 12.128411
57.480 12.042236
57.485 12.614659
57.490 12.568375
57.495 13.593879
57.500 14.016757
57.505 13.926731
57.510 14.00185
57.515 13.528854
57.520 13.182732
57.525 13.108825
57.530 12.771437
57.535 12.663032
57.540 12.932801
57.545 13.327688
57.550 13.83196
57.555 14.141487
57.560 14.292106
57.565 13.96314
57.570 13.398835
57.575 12.855202
57.580 12.809336
57.585 12.956764
57.590 12.226133
57.595 11.418269
57.600 11.802223
57.605 12.046466
57.610 12.295464
57.615 12.276297
57.620 12.334789
57.625 12.776246
57.630 13.250255
57.635 13.218824
57.640 13.215379
57.645 13.153516
57.650 13.284444
57.655 13.301298
57.660 13.765203
57.665 13.664649
57.670 13.581816
57.675 13.946898
57.680 13.806449
57.685 13.418938
57.690 13.55561
57.695 13.478042
57.700 13.599786
57.705 13.494706
57.710 13.307528
57.715 13.386694
57.720 13.614002
57.725 13.301455
57.730 13.483766
57.735 13.696475
57.740 13.917189
57.745 14.024623
57.750 13.832914
57.755 13.567584
57.760 13.454786
57.765 13.662565
57.770 13.28121
57.775 12.971275
57.780 13.084384
57.785 12.848508
57.790 12.856784
57.795 13.047186
57.800 12.896157
57.805 13.683746
57.810 14.128405
57.815 14.022488
57.820 14.815072
57.825 14.978006
57.830 15.364658
57.835 15.703362
57.840 15.444586
57.845 15.254656
57.850 15.31376
57.855 15.140137
57.860 14.903326
57.865 14.006323
57.870 13.691781
57.875 13.714461
57.880 13.810273
57.885 14.135591
57.890 14.279734
57.895 14.326028
57.900 14.472296
57.905 14.241812
57.910 14.410011
57.915 14.296101
57.920 13.445045
57.925 13.085116
57.930 12.907688
57.935 13.528161
57.940 13.614739
57.945 13.743615
57.950 13.891641
57.955 14.166189
57.960 14.412106
57.965 14.892058
57.970 14.833357
57.975 14.814219
57.980 14.742334
57.985 15.04096
57.990 15.465982
57.995 15.314995
58.000 15.032226
58.005 15.62877
58.010 15.747673
58.015 15.975124
58.020 15.8936
58.025 16.305664
58.030 16.488272
58.035 16.600134
58.040 16.303862
58.045 16.183861
58.050 15.944681
58.055 15.811019
58.060 15.302884
58.065 15.655938
58.070 15.707487
58.075 15.589036
58.080 15.492537
58.085 15.326953
58.090 15.111757
58.095 14.978486
58.100 14.44736
58.105 14.055936
58.110 14.237894
58.115 14.654277
58.120 14.619017
58.125 14.577184
58.130 14.480525
58.135 14.906033
58.140 15.636884
58.145 16.141672
58.150 16.109303
58.155 15.688675
58.160 15.461041
58.165 15.212383
58.170 15.142135
58.175 14.92658
58.180 14.754569
58.185 14.817182
58.190 15.371606
58.195 15.862881
58.200 16.387144
58.205 16.652218
58.210 16.373051
58.215 15.954717
58.220 15.865311
58.225 15.940495
58.230 16.164352
58.235 15.84644
58.240 15.74033
58.245 15.709946
58.250 15.563528
58.255 15.281884
58.260 15.0106
58.265 14.962336
58.270 15.467329
58.275 15.225172
58.280 15.365261
58.285 15.644428
58.290 15.841168
58.295 15.764486
58.300 15.768713
58.305 15.663272
58.310 15.939883
58.315 15.550977
58.320 15.130661
58.325 15.497183
58.330 15.719916
58.335 15.94704
58.340 15.723068
58.345 15.720554
58.350 16.543503
58.355 17.053713
58.360 17.063469
58.365 17.191959
58.370 17.016562
58.375 17.240738
58.380 16.949265
58.385 16.734297
58.390 16.652166
58.395 17.087629
58.400 17.65493
58.405 17.867989
58.410 18.099644
58.415 18.728767
58.420 19.252172
58.425 19.913565
58.430 20.088034
58.435 19.952454
58.440 20.133318
58.445 20.63973
58.450 20.589855
58.455 20.347584
58.460 20.451311
58.465 21.322456
58.470 21.608347
58.475 21.848608
58.480 21.731876
58.485 22.329906
58.490 22.964369
58.495 22.416023
58.500 21.626871
58.505 22.138496
58.510 22.647377
58.515 23.630274
58.520 24.084299
58.525 25.200722
58.530 25.800894
58.535 26.274464
58.540 26.728256
58.545 26.909361
58.550 25.962025
58.555 25.536299
