!@!!GADDS PLOTSO FILE: Chi integration type
!@!!Title/SampleName: map-f9
!@!!Comment: ?
!@!!User: Bruker Instrument Administrator
!@!!Site: University of Illinois Chicago
!@!!Frame: map-f9_01_000.gfrm
!@!!Wavelengths    1.54184   1.54056   1.54439
!@!!Frame angles: 2Theta: 63.000 Omega: 50.000 Phi: 0.000 Chi: 90.000
!@!!Integration range: 2Theta: 53.000 to 73.000  Gamma: -105.000 to -75.000
!@!!Integration method: bin normalized
!@!N
!@!SS
!@!M
!@!L 0.0 0.0 0.0 0.0
!@!XDegrees
!@!YCounts
53.000 6.962641
53.005 6.536589
53.010 6.07423
53.015 5.725198
53.020 5.917717
53.025 6.15261
53.030 5.917369
53.035 6.089209
53.040 6.251044
53.045 6.640358
53.050 6.720833
53.055 6.431407
53.060 6.177744
53.065 6.000415
53.070 5.649123
53.075 5.844813
53.080 5.592894
53.085 5.443767
53.090 5.365881
53.095 5.626871
53.100 6.00952
53.105 5.939007
53.110 6.084809
53.115 6.253061
53.120 6.478671
53.125 6.521327
53.130 6.1953
53.135 5.926293
53.140 5.968998
53.145 6.084537
53.150 6.455571
53.155 6.416368
53.160 6.581945
53.165 6.809963
53.170 7.016055
53.175 6.987861
53.180 7.154087
53.185 7.047233
53.190 6.856922
53.195 6.51625
53.200 5.947463
53.205 5.451287
53.210 5.637472
53.215 5.061578
53.220 4.831299
53.225 4.980918
53.230 5.374462
53.235 5.833923
53.240 6.305735
53.245 5.999454
53.250 6.166765
53.255 6.166715
53.260 6.065362
53.265 5.833835
53.270 5.853976
53.275 5.49864
53.280 5.445531
53.285 5.47666
53.290 5.533008
53.295 5.76301
53.300 5.928654
53.305 6.258945
53.310 6.352558
53.315 6.386649
53.320 6.347235
53.325 5.896213
53.330 5.747401
53.335 5.857249
53.340 5.49501
53.345 5.383496
53.350 5.669725
53.355 5.668709
53.360 6.020772
53.365 6.067402
53.370 5.986227
53.375 6.363245
53.380 6.471889
53.385 6.362259
53.390 6.717528
53.395 6.646586
53.400 6.840879
53.405 6.799394
53.410 6.570671
53.415 6.426788
53.420 6.424119
53.425 6.576334
53.430 6.60229
53.435 6.004277
53.440 5.841232
53.445 6.235404
53.450 6.325694
53.455 6.255211
53.460 6.067155
53.465 6.196848
53.470 6.424244
53.475 6.602299
53.480 6.933362
53.485 7.12893
53.490 7.11083
53.495 7.232549
53.500 7.017155
53.505 7.022552
53.510 6.843001
53.515 6.557061
53.520 6.213947
53.525 6.161261
53.530 6.482371
53.535 6.91046
53.540 6.912784
53.545 6.707629
53.550 7.076346
53.555 6.968106
53.560 6.72811
53.565 6.534922
53.570 6.477566
53.575 6.637043
53.580 6.748624
53.585 6.750585
53.590 7.238894
53.595 7.711279
53.600 8.073086
53.605 8.595484
53.610 8.830997
53.615 8.740755
53.620 8.577994
53.625 8.195368
53.630 7.871268
53.635 7.121111
53.640 6.29813
53.645 6.034501
53.650 6.34532
53.655 6.389349
53.660 6.341505
53.665 6.353938
53.670 6.753524
53.675 6.954185
53.680 6.83004
53.685 6.378653
53.690 6.017642
53.695 5.858381
53.700 5.70796
53.705 5.733494
53.710 5.712978
53.715 5.757668
53.720 6.180437
53.725 6.290197
53.730 6.501384
53.735 6.617706
53.740 6.674623
53.745 6.98792
53.750 7.251846
53.755 6.914776
53.760 7.185642
53.765 7.240809
53.770 7.244442
53.775 7.122536
53.780 6.882068
53.785 6.665839
53.790 6.893063
53.795 7.051297
53.800 7.139449
53.805 7.029619
53.810 7.074198
53.815 6.983216
53.820 7.174403
53.825 7.216914
53.830 7.160955
53.835 6.851727
53.840 6.829921
53.845 7.301902
53.850 7.248868
53.855 7.281847
53.860 7.151928
53.865 6.864836
53.870 7.113501
53.875 7.081271
53.880 7.059604
53.885 7.073811
53.890 6.90142
53.895 6.980931
53.900 7.110388
53.905 7.039423
53.910 6.795578
53.915 6.882281
53.920 6.915593
53.925 6.735064
53.930 6.850632
53.935 6.870586
53.940 6.984613
53.945 6.872513
53.950 6.323694
53.955 6.354599
53.960 6.526317
53.965 6.422483
53.970 6.236605
53.975 5.961646
53.980 5.973449
53.985 6.142701
53.990 6.171022
53.995 6.261499
54.000 6.545727
54.005 6.72257
54.010 7.179863
54.015 7.156542
54.020 7.270604
54.025 7.279562
54.030 7.683043
54.035 7.430439
54.040 7.370439
54.045 7.289512
54.050 7.387746
54.055 7.470825
54.060 7.281613
54.065 6.748383
54.070 7.199699
54.075 7.327042
54.080 7.892728
54.085 8.178964
54.090 7.954741
54.095 7.826278
54.100 7.33937
54.105 6.937522
54.110 6.812117
54.115 6.502797
54.120 6.355641
54.125 6.416018
54.130 6.785909
54.135 7.270587
54.140 7.681051
54.145 7.602431
54.150 7.642735
54.155 7.718796
54.160 7.848064
54.165 7.671787
54.170 7.386225
54.175 7.163317
54.180 7.239789
54.185 7.396177
54.190 7.42339
54.195 7.371932
54.200 7.59751
54.205 7.485719
54.210 7.320726
54.215 6.91646
54.220 6.668944
54.225 6.781739
54.230 6.98919
54.235 7.489168
54.240 8.038657
54.245 8.522674
54.250 8.938974
54.255 8.861206
54.260 8.741554
54.265 8.575401
54.270 8.219944
54.275 7.725945
54.280 7.560341
54.285 7.347678
54.290 7.406272
54.295 7.437601
54.300 7.394695
54.305 7.338229
54.310 7.541809
54.315 7.3408
54.320 7.733655
54.325 7.831906
54.330 7.956308
54.335 8.318295
54.340 8.532308
54.345 8.434847
54.350 8.026642
54.355 7.440711
54.360 7.367281
54.365 7.114089
54.370 6.822337
54.375 6.594779
54.380 6.406899
54.385 7.01189
54.390 7.14301
54.395 7.121035
54.400 7.028937
54.405 7.062845
54.410 7.282733
54.415 7.489719
54.420 7.130041
54.425 7.002777
54.430 7.056142
54.435 7.171345
54.440 7.260297
54.445 7.297492
54.450 7.473083
54.455 7.556444
54.460 7.570322
54.465 7.68188
54.470 7.637108
54.475 7.70751
54.480 7.617726
54.485 7.342873
54.490 7.965097
54.495 7.975549
54.500 8.226882
54.505 8.275048
54.510 8.119724
54.515 8.20142
54.520 8.260963
54.525 8.025455
54.530 7.988618
54.535 7.322457
54.540 7.051622
54.545 6.92638
54.550 7.118451
54.555 7.250533
54.560 7.453554
54.565 7.606718
54.570 7.791207
54.575 8.032375
54.580 8.289973
54.585 8.064004
54.590 7.702349
54.595 7.344615
54.600 7.545181
54.605 7.393204
54.610 7.099784
54.615 7.17212
54.620 7.186768
54.625 7.267552
54.630 7.321557
54.635 7.248533
54.640 7.420282
54.645 7.326418
54.650 7.271231
54.655 7.317353
54.660 7.757809
54.665 7.720554
54.670 7.732995
54.675 7.723316
54.680 7.459308
54.685 7.346578
54.690 7.717989
54.695 7.47336
54.700 7.692142
54.705 7.438432
54.710 7.661491
54.715 8.192912
54.720 8.682649
54.725 8.348533
54.730 7.890271
54.735 7.846516
54.740 8.050745
54.745 7.932932
54.750 7.222253
54.755 7.094823
54.760 7.51281
54.765 8.128385
54.770 8.888838
54.775 9.234136
54.780 9.511115
54.785 9.617794
54.790 9.216818
54.795 8.905714
54.800 8.588098
54.805 8.069506
54.810 7.688142
54.815 7.642163
54.820 7.485134
54.825 7.643554
54.830 7.888556
54.835 8.046231
54.840 7.933826
54.845 7.958832
54.850 8.33359
54.855 8.791154
54.860 9.138407
54.865 9.322154
54.870 9.351372
54.875 9.78939
54.880 10.467517
54.885 10.77165
54.890 10.773015
54.895 10.125116
54.900 9.757372
54.905 9.772669
54.910 9.572849
54.915 8.804857
54.920 8.636632
54.925 8.806014
54.930 8.864074
54.935 8.883995
54.940 8.54732
54.945 8.626931
54.950 8.60457
54.955 8.44333
54.960 7.780762
54.965 7.779921
54.970 7.658498
54.975 8.010135
54.980 8.007605
54.985 7.761753
54.990 7.507703
54.995 7.944609
55.000 8.161292
55.005 8.192307
55.010 7.668891
55.015 7.829255
55.020 7.91687
55.025 8.131759
55.030 8.178658
55.035 8.456176
55.040 8.65379
55.045 8.764071
55.050 9.007064
55.055 9.186418
55.060 9.474079
55.065 9.105278
55.070 8.521788
55.075 8.665528
55.080 9.02038
55.085 8.079019
55.090 7.876235
55.095 7.566245
55.100 7.657245
55.105 7.928852
55.110 7.965425
55.115 7.846296
55.120 8.066373
55.125 8.146748
55.130 8.515757
55.135 8.511987
55.140 8.359119
55.145 8.185061
55.150 8.275993
55.155 8.678702
55.160 8.618107
55.165 8.229647
55.170 8.200013
55.175 8.14545
55.180 8.521297
55.185 8.749917
55.190 8.990902
55.195 9.11287
55.200 9.380716
55.205 9.729423
55.210 9.900876
55.215 9.749478
55.220 9.478219
55.225 9.299391
55.230 9.377914
55.235 9.414355
55.240 8.857004
55.245 8.558846
55.250 8.442387
55.255 8.768781
55.260 8.575566
55.265 8.794746
55.270 9.090741
55.275 9.386831
55.280 9.290977
55.285 9.181321
55.290 8.691716
55.295 8.773823
55.300 8.708989
55.305 8.249187
55.310 8.244729
55.315 8.150229
55.320 8.6691
55.325 8.761119
55.330 8.766821
55.335 8.289029
55.340 8.422059
55.345 8.504553
55.350 8.747743
55.355 8.149997
55.360 8.164713
55.365 7.668169
55.370 7.786259
55.375 7.545962
55.380 7.33556
55.385 7.588416
55.390 8.153258
55.395 8.470938
55.400 8.868148
55.405 9.159565
55.410 9.160349
55.415 8.913957
55.420 8.250961
55.425 8.148574
55.430 7.913842
55.435 8.036731
55.440 7.882703
55.445 8.321101
55.450 9.042147
55.455 9.105636
55.460 8.842916
55.465 8.793014
55.470 8.859857
55.475 8.850778
55.480 8.366308
55.485 7.995965
55.490 8.197093
55.495 8.15403
55.500 8.26618
55.505 8.293731
55.510 8.031339
55.515 8.094204
55.520 8.57358
55.525 8.714112
55.530 9.198071
55.535 8.993371
55.540 8.835746
55.545 9.406655
55.550 10.011081
55.555 9.752727
55.560 9.243866
55.565 8.812654
55.570 9.43826
55.575 9.215109
55.580 8.610284
55.585 8.101178
55.590 8.477959
55.595 8.821858
55.600 8.891525
55.605 8.510261
55.610 9.098849
55.615 9.16424
55.620 9.050461
55.625 9.045488
55.630 8.578464
55.635 8.706855
55.640 8.600163
55.645 8.677027
55.650 9.097947
55.655 8.881525
55.660 8.778125
55.665 9.1961
55.670 9.030586
55.675 9.102365
55.680 9.200621
55.685 9.467741
55.690 9.609478
55.695 9.925623
55.700 10.20322
55.705 10.158027
55.710 10.241719
55.715 10.326557
55.720 10.657978
55.725 10.857809
55.730 10.850809
55.735 10.754935
55.740 10.914777
55.745 10.778603
55.750 10.377619
55.755 9.865585
55.760 9.924222
55.765 9.533206
55.770 9.375569
55.775 9.334109
55.780 9.364079
55.785 9.536156
55.790 9.409394
55.795 9.255742
55.800 9.348567
55.805 9.294095
55.810 9.34939
55.815 9.004847
55.820 8.69698
55.825 8.402899
55.830 8.380328
55.835 9.084993
55.840 9.478284
55.845 9.841542
55.850 10.110915
55.855 10.699926
55.860 11.499986
55.865 11.406346
55.870 10.488454
55.875 10.291631
55.880 10.40674
55.885 10.491755
55.890 10.099142
55.895 9.486774
55.900 9.695806
55.905 10.018561
55.910 10.007969
55.915 9.916404
55.920 9.707181
55.925 9.832293
55.930 9.992257
55.935 9.775846
55.940 9.876441
55.945 10.326258
55.950 10.417382
55.955 10.695254
55.960 10.73707
55.965 10.827467
55.970 10.808708
55.975 10.631171
55.980 10.623727
55.985 10.104678
55.990 9.947091
55.995 9.767747
56.000 10.168562
56.005 10.573754
56.010 10.362212
56.015 9.946478
56.020 10.196115
56.025 10.366464
56.030 10.418646
56.035 9.880845
56.040 9.3424
56.045 9.160882
56.050 9.273551
56.055 9.172812
56.060 9.19862
56.065 9.423781
56.070 9.300485
56.075 9.296001
56.080 9.566845
56.085 9.539119
56.090 9.513554
56.095 9.080373
56.100 8.633204
56.105 8.639546
56.110 9.114577
56.115 9.01358
56.120 9.05961
56.125 8.990817
56.130 9.284599
56.135 9.391835
56.140 9.376163
56.145 9.222498
56.150 9.481297
56.155 9.552583
56.160 9.684303
56.165 9.568704
56.170 9.600192
56.175 9.457928
56.180 9.501202
56.185 9.481375
56.190 9.556505
56.195 9.78132
56.200 10.287684
56.205 10.76944
56.210 11.273604
56.215 10.918735
56.220 10.729976
56.225 10.804871
56.230 10.527367
56.235 9.829611
56.240 9.341806
56.245 9.129405
56.250 9.245453
56.255 9.308135
56.260 9.51127
56.265 9.761954
56.270 10.161727
56.275 10.010335
56.280 9.873599
56.285 10.207561
56.290 10.243484
56.295 9.842453
56.300 9.901734
56.305 10.180998
56.310 10.425073
56.315 10.786128
56.320 10.427045
56.325 10.32145
56.330 10.456
56.335 10.457082
56.340 10.513205
56.345 10.702213
56.350 10.286345
56.355 10.235065
56.360 9.869198
56.365 9.917158
56.370 9.443107
56.375 9.144422
56.380 9.235
56.385 9.223069
56.390 9.298892
56.395 9.359464
56.400 9.338874
56.405 10.043299
56.410 9.898929
56.415 10.019774
56.420 10.144813
56.425 10.103951
56.430 10.665907
56.435 10.886098
56.440 10.713591
56.445 10.956132
56.450 11.132189
56.455 11.101926
56.460 11.277855
56.465 11.139312
56.470 10.757915
56.475 10.331542
56.480 9.98511
56.485 9.584887
56.490 9.577806
56.495 9.301378
56.500 8.932708
56.505 8.907201
56.510 9.034999
56.515 9.080616
56.520 9.031989
56.525 8.736566
56.530 8.607948
56.535 8.884908
56.540 8.968224
56.545 9.014558
56.550 9.083632
56.555 9.410832
56.560 10.031371
56.565 10.881447
56.570 10.885189
56.575 10.932944
56.580 11.458809
56.585 11.650742
56.590 11.71142
56.595 11.589088
56.600 11.232709
56.605 11.551786
56.610 11.254855
56.615 10.627788
56.620 10.423622
56.625 10.256018
56.630 10.319877
56.635 10.195376
56.640 9.609033
56.645 9.639009
56.650 9.847511
56.655 9.778393
56.660 9.599314
56.665 9.286219
56.670 9.382583
56.675 9.800743
56.680 10.052542
56.685 9.925982
56.690 9.89505
56.695 10.347438
56.700 10.478901
56.705 10.147826
56.710 10.077974
56.715 10.012257
56.720 9.872126
56.725 10.01048
56.730 10.42927
56.735 10.73622
56.740 10.906568
56.745 11.031815
56.750 11.053064
56.755 11.079749
56.760 11.233557
56.765 10.612924
56.770 10.6999
56.775 10.637382
56.780 11.003965
56.785 11.052223
56.790 11.188286
56.795 11.068178
56.800 10.815087
56.805 10.871696
56.810 10.490129
56.815 10.085465
56.820 10.105258
56.825 9.879686
56.830 9.611197
56.835 9.580925
56.840 9.516882
56.845 10.026671
56.850 10.0453
56.855 10.011974
56.860 9.824635
56.865 10.0639
56.870 10.505802
56.875 10.510645
56.880 10.32023
56.885 10.468047
56.890 10.675283
56.895 10.43939
56.900 10.372828
56.905 10.255825
56.910 10.351483
56.915 10.76902
56.920 10.754615
56.925 11.226278
56.930 11.787694
56.935 11.579508
56.940 11.352321
56.945 11.14303
56.950 11.055326
56.955 10.919168
56.960 10.692225
56.965 10.736718
56.970 10.941653
56.975 11.532423
56.980 11.74107
56.985 11.760267
56.990 11.569978
56.995 11.450429
57.000 11.264606
57.005 10.975178
57.010 10.590027
57.015 10.271853
57.020 10.418292
57.025 10.813063
57.030 10.87066
57.035 10.970635
57.040 10.760338
57.045 11.036498
57.050 11.058739
57.055 10.806776
57.060 10.671095
57.065 11.091625
57.070 11.671555
57.075 12.199938
57.080 11.940809
57.085 11.657607
57.090 11.537003
57.095 11.268819
57.100 10.835581
57.105 10.457241
57.110 10.234332
57.115 10.189536
57.120 10.340683
57.125 10.563043
57.130 10.416154
57.135 10.35418
57.140 10.336386
57.145 9.942564
57.150 10.029487
57.155 10.346484
57.160 10.185971
57.165 10.600097
57.170 10.420517
57.175 10.414356
57.180 10.859409
57.185 10.747465
57.190 10.630176
57.195 10.605997
57.200 10.378381
57.205 10.426569
57.210 10.186852
57.215 10.371855
57.220 10.587082
57.225 10.485447
57.230 10.348967
57.235 10.671998
57.240 10.93967
57.245 11.242023
57.250 10.563507
57.255 10.229278
57.260 10.291796
57.265 10.664696
57.270 10.977725
57.275 10.995807
57.280 11.405356
57.285 12.026473
57.290 12.212421
57.295 12.527397
57.300 12.269502
57.305 11.858669
57.310 11.710389
57.315 11.0123
57.320 10.714688
57.325 10.39947
57.330 10.421099
57.335 10.492406
57.340 10.607085
57.345 10.877892
57.350 11.145145
57.355 11.650678
57.360 11.907221
57.365 12.059504
57.370 12.570355
57.375 12.5481
57.380 12.917268
57.385 13.336263
57.390 13.683956
57.395 13.788282
57.400 13.697431
57.405 13.687195
57.410 13.500248
57.415 13.083601
57.420 12.300042
57.425 11.589398
57.430 10.724298
57.435 10.470545
57.440 10.325034
57.445 10.449168
57.450 10.537689
57.455 10.680918
57.460 10.834213
57.465 11.60225
57.470 11.585809
57.475 11.760705
57.480 12.204772
57.485 12.671811
57.490 13.035364
57.495 13.642873
57.500 13.558414
57.505 13.342582
57.510 13.036795
57.515 12.494786
57.520 11.884027
57.525 11.250789
57.530 10.929153
57.535 11.376564
57.540 11.660944
57.545 11.681463
57.550 11.453054
57.555 11.852072
57.560 12.242224
57.565 12.250204
57.570 12.43316
57.575 12.343718
57.580 12.431713
57.585 12.583142
57.590 13.083005
57.595 12.825797
57.600 12.668149
57.605 12.34979
57.610 12.721875
57.615 12.593542
57.620 12.852711
57.625 11.97372
57.630 12.538074
57.635 13.044303
57.640 13.036996
57.645 12.562302
57.650 12.402173
57.655 12.568724
57.660 13.350585
57.665 12.555099
57.670 12.126728
57.675 11.967626
57.680 11.641596
57.685 11.547076
57.690 11.066497
57.695 10.722156
57.700 11.404238
57.705 11.161193
57.710 11.309039
57.715 11.956453
57.720 11.965525
57.725 12.139109
57.730 12.582905
57.735 12.480698
57.740 12.261134
57.745 12.164783
57.750 11.736914
57.755 11.813492
57.760 11.807243
57.765 11.160776
57.770 10.677006
57.775 10.94716
57.780 10.983902
57.785 11.293078
57.790 11.489931
57.795 11.71335
57.800 12.193851
57.805 12.349248
57.810 12.089908
57.815 12.161557
57.820 12.478854
57.825 12.421816
57.830 12.150632
57.835 12.017157
57.840 12.062624
57.845 12.100694
57.850 12.117138
57.855 11.627627
57.860 11.145647
57.865 10.869786
57.870 10.493827
57.875 10.726783
57.880 10.902294
57.885 10.909433
57.890 11.144507
57.895 11.639759
57.900 12.384164
57.905 12.9712
57.910 12.933695
57.915 13.141933
57.920 13.398339
57.925 14.266053
57.930 13.957346
57.935 13.541667
57.940 13.52541
57.945 13.551
57.950 13.506639
57.955 12.893792
57.960 12.178898
57.965 12.092442
57.970 12.186027
57.975 11.780744
57.980 11.577277
57.985 11.628862
57.990 11.91167
57.995 12.379136
58.000 12.694473
58.005 12.74885
58.010 13.242233
58.015 13.572202
58.020 13.624278
58.025 13.584221
58.030 13.273533
58.035 13.222578
58.040 13.298429
58.045 12.864971
58.050 12.818085
58.055 12.911901
58.060 13.032636
58.065 13.054699
58.070 13.657134
58.075 14.429175
58.080 14.490922
58.085 14.181969
58.090 13.922578
58.095 14.122654
58.100 14.338287
58.105 13.492998
58.110 13.119534
58.115 13.223888
58.120 13.291469
58.125 13.414344
58.130 13.22983
58.135 13.049206
58.140 13.626481
58.145 13.804234
58.150 13.996612
58.155 14.20305
58.160 14.619452
58.165 14.841831
58.170 15.07907
58.175 15.277729
58.180 15.190311
58.185 15.338078
58.190 15.474957
58.195 15.171093
58.200 14.706207
58.205 13.992908
58.210 13.453581
58.215 13.222669
58.220 13.011278
58.225 12.673598
58.230 12.837299
58.235 13.168777
58.240 13.376519
58.245 12.953387
58.250 13.038497
58.255 13.152214
58.260 13.174666
58.265 13.397819
58.270 13.56982
58.275 13.656522
58.280 13.72947
58.285 13.295707
58.290 13.361986
58.295 13.51173
58.300 13.579955
58.305 14.007352
58.310 14.597142
58.315 15.188132
58.320 15.500973
58.325 15.160069
58.330 14.645799
58.335 14.553379
58.340 14.285978
58.345 14.194255
58.350 14.584003
58.355 14.445817
58.360 14.452075
58.365 14.413268
58.370 14.040054
58.375 13.882296
58.380 14.284801
58.385 13.769853
58.390 14.525237
58.395 14.856327
58.400 15.481133
58.405 16.079002
58.410 16.246626
58.415 15.749561
58.420 17.39259
58.425 17.394991
58.430 17.593109
58.435 17.612494
58.440 17.775024
58.445 17.776815
58.450 17.588003
58.455 16.721899
58.460 17.727383
58.465 17.974165
58.470 18.031113
58.475 17.957474
58.480 18.601358
58.485 19.762171
58.490 20.662975
58.495 21.075329
58.500 21.71018
58.505 22.347847
58.510 22.984884
58.515 23.049944
58.520 22.916555
58.525 23.222343
58.530 23.268442
58.535 23.501009
58.540 23.672415
58.545 24.374519
58.550 25.035898
58.555 25.619244
58.560 25.729637
58.565 25.727819
58.570 25.820503
58.575 26.538401
58.580 26.238575
58.585 26.015268
58.590 25.764292
58.595 25.78352
58.600 26.145048
58.605 26.053856
58.610 25.915194
58.615 26.415798
58.620 26.516886
58.625 27.202238
