!@!!GADDS PLOTSO FILE: Chi integration type
!@!!Title/SampleName: map-23
!@!!Comment: ?
!@!!User: Bruker Instrument Administrator
!@!!Site: University of Illinois Chicago
!@!!Frame: map-23_01_000.gfrm
!@!!Wavelengths    1.54184   1.54056   1.54439
!@!!Frame angles: 2Theta: 63.000 Omega: 50.000 Phi: 0.000 Chi: 90.000
!@!!Integration range: 2Theta: 53.000 to 73.000  Gamma: -105.000 to -75.000
!@!!Integration method: bin normalized
!@!N
!@!SS
!@!M
!@!L 0.0 0.0 0.0 0.0
!@!XDegrees
!@!YCounts
53.000 9.029138
53.005 9.076077
53.010 9.081735
53.015 8.961235
53.020 8.620721
53.025 8.589239
53.030 9.031359
53.035 9.06598
53.040 8.666684
53.045 8.677199
53.050 8.616804
53.055 8.762081
53.060 8.627507
53.065 8.720166
53.070 8.875569
53.075 9.027431
53.080 9.154094
53.085 9.453697
53.090 9.467717
53.095 9.292081
53.100 9.123079
53.105 9.65006
53.110 9.84205
53.115 9.622584
53.120 9.270104
53.125 8.934899
53.130 9.249448
53.135 9.023735
53.140 8.65122
53.145 8.51589
53.150 8.786408
53.155 9.097342
53.160 9.382604
53.165 9.086968
53.170 9.150635
53.175 9.517269
53.180 9.707615
53.185 9.911044
53.190 9.797466
53.195 9.219564
53.200 9.211098
53.205 8.881961
53.210 8.585807
53.215 7.910118
53.220 7.734504
53.225 7.948763
53.230 8.524485
53.235 8.785378
53.240 8.784293
53.245 8.559524
53.250 8.810224
53.255 8.675406
53.260 8.871465
53.265 8.73757
53.270 8.777907
53.275 8.786434
53.280 9.145156
53.285 9.011548
53.290 8.910295
53.295 8.918091
53.300 8.557053
53.305 8.539483
53.310 8.773259
53.315 9.224805
53.320 9.658566
53.325 9.659528
53.330 9.644915
53.335 10.063749
53.340 10.08735
53.345 9.796103
53.350 9.614905
53.355 9.851974
53.360 9.783423
53.365 9.883862
53.370 9.937541
53.375 10.51657
53.380 10.508197
53.385 9.963142
53.390 9.665888
53.395 9.864637
53.400 9.641885
53.405 8.976048
53.410 8.493033
53.415 8.476286
53.420 8.535528
53.425 8.607974
53.430 8.255934
53.435 8.37048
53.440 8.239833
53.445 8.193224
53.450 8.245963
53.455 8.353106
53.460 8.04359
53.465 8.490493
53.470 8.946203
53.475 9.463411
53.480 9.45542
53.485 9.849171
53.490 10.444207
53.495 10.514276
53.500 10.212899
53.505 10.430874
53.510 10.492472
53.515 10.675179
53.520 9.975492
53.525 9.806667
53.530 9.718068
53.535 9.130108
53.540 8.935705
53.545 9.028812
53.550 9.313219
53.555 9.565318
53.560 9.119021
53.565 9.390748
53.570 9.576951
53.575 9.749158
53.580 9.897273
53.585 9.848173
53.590 9.92053
53.595 10.584731
53.600 11.055647
53.605 11.393998
53.610 10.800316
53.615 10.671089
53.620 10.853848
53.625 11.454803
53.630 11.392199
53.635 11.062747
53.640 10.794192
53.645 10.951607
53.650 11.104899
53.655 10.883103
53.660 10.702864
53.665 10.353276
53.670 9.994191
53.675 10.120038
53.680 10.261932
53.685 10.092422
53.690 9.698395
53.695 9.509686
53.700 9.688726
53.705 10.126859
53.710 10.302063
53.715 10.160687
53.720 10.009703
53.725 9.786123
53.730 9.738794
53.735 9.968737
53.740 9.65555
53.745 9.222031
53.750 9.049088
53.755 9.046533
53.760 9.537745
53.765 9.668039
53.770 9.574272
53.775 10.119855
53.780 10.340513
53.785 10.442611
53.790 10.742817
53.795 10.654408
53.800 10.579098
53.805 10.464837
53.810 9.916279
53.815 10.169133
53.820 10.537547
53.825 9.806907
53.830 9.718189
53.835 9.667213
53.840 9.793958
53.845 9.775733
53.850 9.592627
53.855 9.484713
53.860 10.161046
53.865 10.093451
53.870 9.911842
53.875 9.874101
53.880 10.003992
53.885 9.988512
53.890 9.345878
53.895 9.208213
53.900 9.118601
53.905 9.46485
53.910 9.480377
53.915 9.417523
53.920 9.368982
53.925 9.404543
53.930 9.210908
53.935 9.618526
53.940 9.831376
53.945 9.999243
53.950 10.107652
53.955 10.21946
53.960 10.245615
53.965 10.547091
53.970 10.15647
53.975 10.254231
53.980 10.285637
53.985 10.415825
53.990 10.918136
53.995 11.178506
54.000 10.987155
54.005 11.228764
54.010 11.138001
54.015 10.969847
54.020 10.926238
54.025 10.918127
54.030 11.192562
54.035 10.855363
54.040 10.675037
54.045 10.966707
54.050 11.122987
54.055 10.902716
54.060 10.776311
54.065 10.62177
54.070 10.764672
54.075 10.494785
54.080 10.758374
54.085 10.601136
54.090 10.562217
54.095 10.749475
54.100 11.407495
54.105 11.913846
54.110 12.147417
54.115 12.103689
54.120 12.069715
54.125 11.903576
54.130 11.520028
54.135 11.741863
54.140 11.583065
54.145 11.544633
54.150 11.076671
54.155 10.829442
54.160 10.41734
54.165 10.244604
54.170 9.402563
54.175 9.159766
54.180 9.161377
54.185 9.560988
54.190 10.01878
54.195 10.384747
54.200 10.321813
54.205 10.195976
54.210 10.207182
54.215 9.832204
54.220 9.490452
54.225 9.273516
54.230 9.621224
54.235 10.101164
54.240 10.138541
54.245 10.170141
54.250 10.250013
54.255 10.457819
54.260 11.269814
54.265 11.250359
54.270 11.253329
54.275 11.543011
54.280 11.842824
54.285 11.81999
54.290 11.37606
54.295 10.968246
54.300 10.655128
54.305 10.170778
54.310 9.809311
54.315 9.834458
54.320 10.174557
54.325 10.165953
54.330 9.895027
54.335 9.499381
54.340 9.845693
54.345 9.758512
54.350 9.778838
54.355 9.795502
54.360 10.029863
54.365 9.939273
54.370 10.696589
54.375 11.021415
54.380 11.011834
54.385 11.022161
54.390 10.678211
54.395 10.927709
54.400 10.720356
54.405 10.554277
54.410 10.50025
54.415 10.349838
54.420 10.081229
54.425 10.458203
54.430 10.462257
54.435 10.643926
54.440 10.041393
54.445 10.235357
54.450 10.495398
54.455 10.87345
54.460 11.163281
54.465 11.010035
54.470 11.377093
54.475 11.877469
54.480 11.503966
54.485 11.312916
54.490 10.45985
54.495 10.333975
54.500 10.193477
54.505 9.669597
54.510 9.730943
54.515 10.125646
54.520 10.243526
54.525 10.580494
54.530 10.623302
54.535 10.850321
54.540 11.032098
54.545 10.894674
54.550 11.023536
54.555 11.217989
54.560 11.000228
54.565 10.760616
54.570 10.326095
54.575 10.022916
54.580 9.550062
54.585 9.41521
54.590 9.363907
54.595 9.357262
54.600 9.103454
54.605 9.145844
54.610 9.166686
54.615 9.41542
54.620 9.259282
54.625 9.434201
54.630 9.810344
54.635 10.443646
54.640 10.671519
54.645 11.002986
54.650 11.470849
54.655 12.062049
54.660 12.399556
54.665 12.086549
54.670 12.030286
54.675 12.271806
54.680 12.29292
54.685 12.238236
54.690 11.791471
54.695 11.723293
54.700 11.91419
54.705 11.794116
54.710 11.616528
54.715 11.652164
54.720 11.431004
54.725 11.046222
54.730 10.783148
54.735 10.470116
54.740 11.097234
54.745 11.484597
54.750 11.909286
54.755 11.768409
54.760 11.922493
54.765 11.776177
54.770 11.71138
54.775 10.550991
54.780 9.753989
54.785 9.31461
54.790 9.583334
54.795 9.857031
54.800 10.441978
54.805 11.100207
54.810 11.597226
54.815 11.565706
54.820 11.07205
54.825 11.153565
54.830 11.420682
54.835 11.349878
54.840 11.525614
54.845 11.744052
54.850 12.134656
54.855 13.049708
54.860 13.041327
54.865 12.693346
54.870 12.644872
54.875 12.535975
54.880 12.034916
54.885 11.422647
54.890 11.118881
54.895 11.399911
54.900 11.061736
54.905 10.438087
54.910 10.530974
54.915 11.281965
54.920 11.762988
54.925 11.132825
54.930 10.724765
54.935 11.043725
54.940 11.486451
54.945 11.561371
54.950 11.518641
54.955 11.411391
54.960 11.230671
54.965 11.215601
54.970 11.145609
54.975 11.320883
54.980 11.115995
54.985 11.228933
54.990 12.029728
54.995 12.55728
55.000 12.084638
55.005 11.703657
55.010 11.277349
55.015 10.918761
55.020 10.547905
55.025 9.779734
55.030 9.418405
55.035 9.691545
55.040 10.04131
55.045 10.165026
55.050 10.315051
55.055 10.112475
55.060 10.339619
55.065 10.586246
55.070 10.489811
55.075 10.697347
55.080 11.179021
55.085 11.778557
55.090 12.419792
55.095 12.716318
55.100 13.068192
55.105 13.177552
55.110 12.909415
55.115 12.693136
55.120 12.281104
55.125 12.035083
55.130 11.567905
55.135 11.258927
55.140 11.141537
55.145 11.251364
55.150 10.962349
55.155 10.781485
55.160 10.794131
55.165 10.769197
55.170 10.524703
55.175 10.563894
55.180 10.415989
55.185 11.10887
55.190 11.594425
55.195 11.359535
55.200 11.715913
55.205 12.089667
55.210 11.960903
55.215 12.170857
55.220 11.450344
55.225 11.185258
55.230 11.299129
55.235 11.148548
55.240 11.104988
55.245 10.905525
55.250 10.601941
55.255 10.519603
55.260 10.151355
55.265 10.388668
55.270 10.42538
55.275 10.823685
55.280 10.937371
55.285 11.168603
55.290 11.564075
55.295 11.935208
55.300 11.73818
55.305 11.706675
55.310 11.759455
55.315 11.943694
55.320 11.997243
55.325 11.601197
55.330 11.215507
55.335 11.818096
55.340 11.912991
55.345 11.562384
55.350 11.510187
55.355 11.564623
55.360 12.066595
55.365 12.094178
55.370 11.423199
55.375 11.5295
55.380 11.678105
55.385 11.568994
55.390 11.401486
55.395 11.02195
55.400 10.915848
55.405 11.184628
55.410 11.24431
55.415 11.20832
55.420 11.663236
55.425 11.918118
55.430 12.148519
55.435 12.517357
55.440 12.58227
55.445 12.446548
55.450 12.257709
55.455 12.034397
55.460 11.872809
55.465 12.237183
55.470 11.549234
55.475 10.921488
55.480 10.837954
55.485 10.502331
55.490 10.369004
55.495 10.210403
55.500 10.327564
55.505 11.375581
55.510 11.593111
55.515 11.679042
55.520 12.040718
55.525 13.020011
55.530 13.337311
55.535 13.126051
55.540 12.816127
55.545 13.316327
55.550 13.415158
55.555 13.009219
55.560 12.357692
55.565 11.85483
55.570 11.485465
55.575 11.457747
55.580 11.273097
55.585 11.459126
55.590 11.634575
55.595 11.407355
55.600 11.654467
55.605 12.053341
55.610 12.012683
55.615 11.620145
55.620 10.970454
55.625 10.812849
55.630 11.013835
55.635 10.541353
55.640 10.492437
55.645 10.440705
55.650 11.168953
55.655 11.895698
55.660 12.142427
55.665 12.374337
55.670 12.641828
55.675 12.450178
55.680 12.469445
55.685 11.969918
55.690 11.43707
55.695 11.241238
55.700 10.833959
55.705 10.50425
55.710 10.350992
55.715 10.311323
55.720 10.655848
55.725 10.602637
55.730 10.518839
55.735 10.399559
55.740 11.139718
55.745 11.683099
55.750 11.647519
55.755 11.297063
55.760 11.989618
55.765 12.528674
55.770 12.404634
55.775 11.832074
55.780 11.476163
55.785 11.640025
55.790 11.337708
55.795 10.766762
55.800 11.077757
55.805 11.528283
55.810 11.97889
55.815 11.838686
55.820 12.002804
55.825 12.77571
55.830 13.053229
55.835 12.539007
55.840 12.127339
55.845 11.707784
55.850 11.748637
55.855 11.837848
55.860 11.888387
55.865 12.323997
55.870 13.040405
55.875 13.564986
55.880 13.994497
55.885 14.301283
55.890 14.107308
55.895 13.924872
55.900 13.752177
55.905 13.910965
55.910 14.291821
55.915 14.305247
55.920 13.980697
55.925 13.602226
55.930 13.222519
55.935 13.209534
55.940 12.464484
55.945 11.998687
55.950 12.072739
55.955 11.971858
55.960 12.161771
55.965 12.008979
55.970 11.990171
55.975 12.65785
55.980 12.7356
55.985 12.628192
55.990 12.902785
55.995 12.869912
56.000 13.077619
56.005 12.674662
56.010 12.235455
56.015 11.798596
56.020 11.635849
56.025 11.894749
56.030 12.154959
56.035 12.273109
56.040 12.366261
56.045 11.975388
56.050 12.231459
56.055 12.070765
56.060 11.542769
56.065 11.064187
56.070 11.07136
56.075 10.835852
56.080 10.375669
56.085 10.268125
56.090 10.294337
56.095 10.952626
56.100 11.293451
56.105 11.072037
56.110 11.510827
56.115 12.320947
56.120 12.835643
56.125 12.814427
56.130 12.14465
56.135 11.897391
56.140 12.235806
56.145 12.200604
56.150 12.21719
56.155 12.325525
56.160 12.568086
56.165 12.893366
56.170 12.922881
56.175 12.90973
56.180 12.831789
56.185 12.705705
56.190 13.063486
56.195 12.994723
56.200 13.084711
56.205 12.913129
56.210 13.06559
56.215 13.126698
56.220 12.731342
56.225 12.48342
56.230 12.805833
56.235 12.361213
56.240 12.651259
56.245 12.560856
56.250 12.780648
56.255 12.835441
56.260 12.624191
56.265 13.102696
56.270 13.153875
56.275 12.667053
56.280 12.739896
56.285 13.103741
56.290 13.351484
56.295 13.249597
56.300 12.854083
56.305 13.192486
56.310 13.775309
56.315 14.005854
56.320 13.720501
56.325 13.357417
56.330 12.861587
56.335 13.30366
56.340 13.226165
56.345 13.430054
56.350 13.196575
56.355 13.12668
56.360 13.475805
56.365 13.701716
56.370 12.816014
56.375 12.566746
56.380 11.893358
56.385 11.876255
56.390 11.79787
56.395 12.185519
56.400 12.898466
56.405 13.687897
56.410 13.844282
56.415 13.655431
56.420 13.185782
56.425 13.469135
56.430 13.461538
56.435 12.833577
56.440 12.58343
56.445 12.596186
56.450 12.821502
56.455 13.305397
56.460 13.156215
56.465 12.825339
56.470 13.101364
56.475 13.610648
56.480 13.840302
56.485 13.270362
56.490 13.049454
56.495 13.147985
56.500 13.000628
56.505 12.808662
56.510 12.698579
56.515 12.679147
56.520 13.278755
56.525 13.26613
56.530 13.249111
56.535 13.507833
56.540 13.810679
56.545 13.388369
56.550 13.596638
56.555 13.568408
56.560 13.415703
56.565 13.318508
56.570 13.362579
56.575 13.06286
56.580 12.744588
56.585 12.523966
56.590 12.25054
56.595 12.710123
56.600 12.735785
56.605 12.615345
56.610 12.704556
56.615 12.923866
56.620 13.422416
56.625 14.026245
56.630 13.917253
56.635 14.090112
56.640 14.002516
56.645 14.02154
56.650 14.523712
56.655 14.200018
56.660 14.226154
56.665 13.789986
56.670 14.242293
56.675 14.791434
56.680 14.838703
56.685 15.061926
56.690 15.190787
56.695 14.98327
56.700 14.963477
56.705 14.06459
56.710 13.843577
56.715 13.578122
56.720 13.534801
56.725 13.316298
56.730 13.470948
56.735 13.890988
56.740 14.125159
56.745 13.769502
56.750 13.928895
56.755 13.602621
56.760 13.586921
56.765 13.364964
56.770 13.122924
56.775 13.240412
56.780 13.406432
56.785 13.292002
56.790 13.471359
56.795 13.636777
56.800 14.058776
56.805 14.564267
56.810 15.088853
56.815 15.212157
56.820 15.122767
56.825 14.96516
56.830 15.225772
56.835 14.978039
56.840 14.577138
56.845 14.038918
56.850 14.072913
56.855 14.369595
56.860 14.408739
56.865 13.845703
56.870 13.804856
56.875 13.374464
56.880 13.513325
56.885 13.12115
56.890 12.605561
56.895 13.119884
56.900 13.608872
56.905 13.91093
56.910 14.333173
56.915 14.309403
56.920 14.996359
56.925 15.172601
56.930 14.534907
56.935 14.285413
56.940 13.734623
56.945 13.505723
56.950 12.984488
56.955 12.897288
56.960 13.054513
56.965 13.486939
56.970 13.468339
56.975 14.261887
56.980 14.743779
56.985 15.172158
56.990 15.219538
56.995 15.113347
57.000 14.974674
57.005 14.604965
57.010 13.664922
57.015 13.690471
57.020 13.563201
57.025 13.545048
57.030 13.338428
57.035 13.163654
57.040 13.438033
57.045 13.201548
57.050 12.828566
57.055 12.340111
57.060 12.270193
57.065 12.228133
57.070 12.478692
57.075 12.932514
57.080 13.243076
57.085 13.220772
57.090 13.997855
57.095 14.102059
57.100 14.588272
57.105 14.360681
57.110 13.973544
57.115 14.043769
57.120 14.502578
57.125 14.565278
57.130 14.616538
57.135 14.418666
57.140 14.391386
57.145 14.049062
57.150 13.847691
57.155 13.175936
57.160 12.439847
57.165 12.261416
57.170 12.684072
57.175 12.79801
57.180 12.964347
57.185 13.186019
57.190 13.680177
57.195 14.193569
57.200 14.278601
57.205 14.20743
57.210 14.441575
57.215 14.97162
57.220 14.89977
57.225 14.090617
57.230 14.118272
57.235 14.283528
57.240 13.678736
57.245 13.505507
57.250 13.703734
57.255 14.073437
57.260 14.760983
57.265 13.752005
57.270 13.696881
57.275 14.01797
57.280 13.44426
57.285 12.852527
57.290 12.53038
57.295 12.260947
57.300 12.331731
57.305 12.309619
57.310 12.338063
57.315 13.059628
57.320 13.666311
57.325 14.199255
57.330 14.582453
57.335 14.9196
57.340 15.071674
57.345 15.648838
57.350 15.285365
57.355 14.653634
57.360 14.576436
57.365 14.41515
57.370 14.26313
57.375 13.707326
57.380 13.252627
57.385 13.221979
57.390 13.591979
57.395 13.229137
57.400 13.286011
57.405 13.842277
57.410 14.543032
57.415 14.489617
57.420 14.711548
57.425 14.456174
57.430 14.492955
57.435 14.598303
57.440 13.901626
57.445 13.347124
57.450 13.381662
57.455 13.168324
57.460 13.379041
57.465 13.620226
57.470 13.952555
57.475 14.368276
57.480 14.285344
57.485 13.745935
57.490 14.191289
57.495 14.105509
57.500 14.10484
57.505 13.827818
57.510 13.589157
57.515 13.873874
57.520 13.891678
57.525 13.662372
57.530 13.685584
57.535 13.524722
57.540 14.115844
57.545 14.280316
57.550 14.367842
57.555 14.924072
57.560 14.992672
57.565 14.983318
57.570 15.171955
57.575 14.600694
57.580 14.88576
57.585 15.175227
57.590 15.195559
57.595 15.342381
57.600 15.443266
57.605 15.035987
57.610 14.997542
57.615 14.455064
57.620 14.267783
57.625 14.159482
57.630 13.88235
57.635 13.727274
57.640 13.868554
57.645 13.617944
57.650 13.584217
57.655 13.586251
57.660 13.750871
57.665 13.614471
57.670 13.559953
57.675 14.072683
57.680 15.14447
57.685 15.147851
57.690 15.223648
57.695 15.75518
57.700 16.305788
57.705 16.484127
57.710 15.88864
57.715 15.36927
57.720 16.165665
57.725 15.992495
57.730 15.11931
57.735 15.102669
57.740 14.81508
57.745 14.700191
57.750 14.511144
57.755 13.806998
57.760 13.89855
57.765 13.644996
57.770 13.492182
57.775 13.418701
57.780 14.015079
57.785 14.693424
57.790 14.923285
57.795 14.69179
57.800 15.306425
57.805 15.304088
57.810 15.651011
57.815 15.2595
57.820 15.236498
57.825 14.969842
57.830 14.453722
57.835 13.985963
57.840 13.991624
57.845 14.518177
57.850 14.518914
57.855 14.079735
57.860 14.784453
57.865 15.914769
57.870 16.396431
57.875 16.391455
57.880 15.696898
57.885 15.398474
57.890 15.999987
57.895 15.96203
57.900 15.319673
57.905 14.741
57.910 14.087568
57.915 14.279378
57.920 13.715243
57.925 13.33097
57.930 13.089111
57.935 13.507617
57.940 14.364199
57.945 14.792025
57.950 15.175863
57.955 15.862996
57.960 15.7327
57.965 16.074291
57.970 16.247364
57.975 16.443365
57.980 16.600378
57.985 16.270996
57.990 16.132877
57.995 16.207603
58.000 16.228201
58.005 15.930918
58.010 15.655405
58.015 15.747714
58.020 15.861942
58.025 15.519819
58.030 15.949598
58.035 15.985518
58.040 15.295937
58.045 15.217047
58.050 15.319366
58.055 15.353007
58.060 15.589576
58.065 14.893056
58.070 14.697625
58.075 15.691718
58.080 15.543185
58.085 15.549484
58.090 15.814001
58.095 15.114488
58.100 15.145327
58.105 15.244425
58.110 14.995197
58.115 15.302571
58.120 15.213688
58.125 14.726633
58.130 15.489998
58.135 15.780481
58.140 16.109417
58.145 16.585962
58.150 16.715044
58.155 17.010769
58.160 17.278645
58.165 17.033268
58.170 17.165436
58.175 17.306202
58.180 16.780277
58.185 16.185053
58.190 15.931053
58.195 15.917219
58.200 15.777456
58.205 15.208175
58.210 13.925417
58.215 13.976608
58.220 14.508555
58.225 14.635702
58.230 14.819947
58.235 15.25398
58.240 15.584077
58.245 16.150808
58.250 15.839314
58.255 15.874441
58.260 16.041855
58.265 16.332769
58.270 15.807492
58.275 15.239479
58.280 14.861964
58.285 14.603207
58.290 14.408045
58.295 13.725276
58.300 13.327627
58.305 14.317214
58.310 14.803099
58.315 15.040861
58.320 15.316134
58.325 15.449226
58.330 15.925666
58.335 15.960375
58.340 15.557198
58.345 15.556775
58.350 15.565903
58.355 15.771689
58.360 16.389833
58.365 16.211075
58.370 16.578335
58.375 16.738169
58.380 17.177456
58.385 17.185083
58.390 17.182491
58.395 16.902952
58.400 17.240215
58.405 16.868834
58.410 16.776377
58.415 17.252659
58.420 17.565443
58.425 17.618898
58.430 18.112045
58.435 18.043602
58.440 17.767305
58.445 17.543829
58.450 16.789476
58.455 15.969811
58.460 15.741278
58.465 15.440897
58.470 15.456299
58.475 15.476506
58.480 15.411528
58.485 15.181603
