!@!!GADDS PLOTSO FILE: Chi integration type
!@!!Title/SampleName: map-42
!@!!Comment: ?
!@!!User: Bruker Instrument Administrator
!@!!Site: University of Illinois Chicago
!@!!Frame: map-42_01_000.gfrm
!@!!Wavelengths    1.54184   1.54056   1.54439
!@!!Frame angles: 2Theta: 63.000 Omega: 50.000 Phi: 0.000 Chi: 90.000
!@!!Integration range: 2Theta: 53.000 to 73.000  Gamma: -105.000 to -75.000
!@!!Integration method: bin normalized
!@!N
!@!SS
!@!M
!@!L 0.0 0.0 0.0 0.0
!@!XDegrees
!@!YCounts
53.000 7.441802
53.005 7.421975
53.010 7.243579
53.015 6.831988
53.020 6.60939
53.025 6.850443
53.030 6.778639
53.035 7.480103
53.040 7.572853
53.045 7.564729
53.050 7.774393
53.055 7.786583
53.060 7.687273
53.065 7.374336
53.070 6.650324
53.075 6.63116
53.080 6.770728
53.085 6.946241
53.090 6.882153
53.095 7.223037
53.100 7.661787
53.105 8.383334
53.110 8.541155
53.115 8.700933
53.120 8.546082
53.125 8.359607
53.130 8.310052
53.135 8.270477
53.140 7.701046
53.145 7.265829
53.150 6.791884
53.155 6.74982
53.160 6.756519
53.165 6.638715
53.170 6.744019
53.175 6.668402
53.180 7.488807
53.185 8.202025
53.190 8.399401
53.195 8.624487
53.200 8.516286
53.205 8.655934
53.210 8.996719
53.215 8.27592
53.220 8.095088
53.225 8.059372
53.230 8.064754
53.235 8.108068
53.240 8.092731
53.245 8.359295
53.250 8.247093
53.255 8.204664
53.260 8.396236
53.265 8.264874
53.270 8.44474
53.275 8.155651
53.280 8.179736
53.285 8.420034
53.290 8.332528
53.295 7.804949
53.300 7.509264
53.305 7.419126
53.310 7.483381
53.315 7.736818
53.320 7.904047
53.325 7.777202
53.330 8.056254
53.335 8.114562
53.340 8.073549
53.345 8.300166
53.350 8.477766
53.355 8.550679
53.360 8.73853
53.365 8.53653
53.370 8.395705
53.375 8.547504
53.380 7.79219
53.385 7.407755
53.390 7.698356
53.395 7.697645
53.400 7.978356
53.405 8.340618
53.410 8.119913
53.415 8.582646
53.420 8.568852
53.425 8.254319
53.430 8.325198
53.435 7.932518
53.440 7.787797
53.445 7.854146
53.450 7.877068
53.455 7.92497
53.460 8.013428
53.465 8.273745
53.470 8.682286
53.475 8.761903
53.480 8.649499
53.485 8.755251
53.490 8.403663
53.495 8.00762
53.500 7.605758
53.505 7.558839
53.510 7.789432
53.515 7.564573
53.520 7.425989
53.525 7.979056
53.530 8.420437
53.535 9.026731
53.540 9.334915
53.545 9.07351
53.550 9.32727
53.555 9.532825
53.560 9.101006
53.565 9.179966
53.570 8.859439
53.575 8.940421
53.580 9.267115
53.585 8.78336
53.590 8.63817
53.595 8.394584
53.600 7.546469
53.605 7.201278
53.610 7.3774
53.615 7.399085
53.620 7.605468
53.625 7.987618
53.630 8.633681
53.635 9.434442
53.640 9.143223
53.645 8.772242
53.650 8.524255
53.655 8.282001
53.660 8.551562
53.665 8.697186
53.670 8.48343
53.675 8.824646
53.680 8.767327
53.685 8.859631
53.690 8.728009
53.695 8.431564
53.700 8.290843
53.705 8.398622
53.710 8.014512
53.715 8.006079
53.720 8.685738
53.725 9.331824
53.730 9.458573
53.735 9.385212
53.740 9.194508
53.745 9.360759
53.750 9.151018
53.755 8.465018
53.760 8.375977
53.765 8.154719
53.770 8.0232
53.775 7.986828
53.780 7.946273
53.785 7.845843
53.790 7.86074
53.795 7.672671
53.800 7.692545
53.805 7.880713
53.810 8.08545
53.815 8.111479
53.820 7.788149
53.825 7.533855
53.830 7.279016
53.835 7.521937
53.840 8.052673
53.845 8.465711
53.850 8.422721
53.855 8.516382
53.860 8.762031
53.865 8.977967
53.870 8.495872
53.875 7.954858
53.880 7.768329
53.885 8.169211
53.890 8.349873
53.895 8.248297
53.900 8.013342
53.905 8.319818
53.910 8.204197
53.915 8.101205
53.920 7.888375
53.925 7.93107
53.930 8.163882
53.935 8.281805
53.940 8.040487
53.945 8.296769
53.950 8.462223
53.955 8.763698
53.960 8.895371
53.965 8.836002
53.970 8.748427
53.975 8.639701
53.980 8.601426
53.985 8.3008
53.990 7.798451
53.995 7.826538
54.000 7.612554
54.005 7.497227
54.010 7.609452
54.015 7.679435
54.020 8.003162
54.025 7.891667
54.030 7.9014
54.035 8.408304
54.040 8.552123
54.045 8.800559
54.050 9.060296
54.055 9.269637
54.060 9.432879
54.065 9.607926
54.070 9.244305
54.075 8.98486
54.080 8.71626
54.085 8.348107
54.090 8.000178
54.095 8.123448
54.100 8.081174
54.105 8.432528
54.110 8.71
54.115 8.933037
54.120 9.11976
54.125 9.35766
54.130 8.802641
54.135 8.554217
54.140 8.561797
54.145 8.355585
54.150 8.108716
54.155 8.019557
54.160 8.244002
54.165 8.438938
54.170 8.61
54.175 8.421008
54.180 8.360731
54.185 8.169333
54.190 8.465033
54.195 8.223319
54.200 8.152253
54.205 8.44786
54.210 8.833747
54.215 9.039021
54.220 9.08494
54.225 9.064063
54.230 9.54509
54.235 9.929976
54.240 9.928585
54.245 9.979504
54.250 10.21041
54.255 10.251258
54.260 10.324704
54.265 10.08172
54.270 10.076303
54.275 9.878806
54.280 9.456561
54.285 9.210087
54.290 9.358101
54.295 8.959584
54.300 9.253973
54.305 9.227025
54.310 9.399739
54.315 9.658792
54.320 9.293225
54.325 9.009784
54.330 8.964791
54.335 9.120092
54.340 9.283251
54.345 9.177132
54.350 9.432137
54.355 9.735119
54.360 9.639199
54.365 9.557384
54.370 9.063063
54.375 8.926418
54.380 8.809752
54.385 8.69801
54.390 8.726118
54.395 9.062041
54.400 9.275447
54.405 9.058707
54.410 9.032602
54.415 8.72757
54.420 8.656621
54.425 8.751191
54.430 8.634229
54.435 8.491121
54.440 8.745763
54.445 9.090551
54.450 9.555442
54.455 10.154054
54.460 10.286336
54.465 10.178323
54.470 10.236982
54.475 9.906849
54.480 9.305379
54.485 9.050934
54.490 8.480377
54.495 8.686022
54.500 8.418531
54.505 8.066617
54.510 8.312054
54.515 8.387885
54.520 8.105245
54.525 8.04691
54.530 8.055115
54.535 8.831195
54.540 9.170116
54.545 9.153913
54.550 9.163591
54.555 9.44553
54.560 9.838119
54.565 9.615492
54.570 9.264605
54.575 9.343231
54.580 9.838131
54.585 10.308912
54.590 10.324925
54.595 10.094205
54.600 9.877872
54.605 9.918968
54.610 9.51397
54.615 9.379765
54.620 9.321307
54.625 9.337211
54.630 9.588971
54.635 9.972401
54.640 9.960039
54.645 10.034245
54.650 9.952306
54.655 9.844478
54.660 10.081722
54.665 10.070481
54.670 10.342351
54.675 10.289792
54.680 10.475217
54.685 10.558362
54.690 10.597155
54.695 10.110996
54.700 9.811648
54.705 9.663575
54.710 9.627497
54.715 9.505932
54.720 9.467968
54.725 9.332608
54.730 9.543162
54.735 9.809278
54.740 9.877971
54.745 9.935125
54.750 10.102756
54.755 9.732958
54.760 9.847611
54.765 9.894791
54.770 10.112173
54.775 10.195936
54.780 9.864508
54.785 9.685631
54.790 9.209914
54.795 8.919991
54.800 9.178301
54.805 8.762983
54.810 9.166465
54.815 9.52726
54.820 10.238594
54.825 11.246861
54.830 11.175511
54.835 11.103948
54.840 10.619355
54.845 10.250731
54.850 10.660523
54.855 10.526174
54.860 10.50126
54.865 10.225578
54.870 10.296818
54.875 10.848023
54.880 11.264482
54.885 11.073503
54.890 10.897605
54.895 10.986956
54.900 10.944513
54.905 10.955701
54.910 10.851563
54.915 10.231347
54.920 10.307779
54.925 10.413871
54.930 10.458897
54.935 10.969171
54.940 11.021842
54.945 11.252183
54.950 11.200719
54.955 10.651162
54.960 10.67678
54.965 10.134562
54.970 10.035994
54.975 9.942867
54.980 9.940332
54.985 10.168973
54.990 10.173198
54.995 10.142934
55.000 10.838505
55.005 10.813241
55.010 10.446343
55.015 10.426353
55.020 10.671959
55.025 10.768715
55.030 10.502739
55.035 10.241472
55.040 10.189787
55.045 10.272334
55.050 10.536296
55.055 10.805286
55.060 11.061609
55.065 11.175155
55.070 10.746057
55.075 10.720239
55.080 11.060937
55.085 10.547696
55.090 10.07841
55.095 10.184941
55.100 10.037515
55.105 10.366681
55.110 10.360585
55.115 10.634997
55.120 10.848031
55.125 11.068994
55.130 10.997788
55.135 11.259419
55.140 11.033284
55.145 10.882596
55.150 10.769981
55.155 10.81654
55.160 10.433532
55.165 10.07945
55.170 9.932673
55.175 9.700949
55.180 9.542405
55.185 8.959226
55.190 8.627959
55.195 8.804432
55.200 9.154558
55.205 9.695595
55.210 10.322207
55.215 10.562019
55.220 10.786928
55.225 10.939504
55.230 11.076588
55.235 11.067855
55.240 10.475655
55.245 10.365744
55.250 10.097432
55.255 9.884466
55.260 9.738363
55.265 9.582516
55.270 9.779822
55.275 9.963749
55.280 10.055934
55.285 9.955085
55.290 10.70247
55.295 11.039103
55.300 10.94944
55.305 11.166571
55.310 10.939837
55.315 10.478739
55.320 10.473466
55.325 10.375148
55.330 10.037427
55.335 9.94208
55.340 9.420558
55.345 9.437444
55.350 9.968918
55.355 10.070093
55.360 9.918029
55.365 9.892947
55.370 9.751059
55.375 9.643416
55.380 10.304382
55.385 10.896298
55.390 11.235279
55.395 11.559018
55.400 11.957092
55.405 12.125125
55.410 11.961375
55.415 11.162958
55.420 10.900237
55.425 10.664618
55.430 10.222736
55.435 10.126419
55.440 10.809624
55.445 11.427693
55.450 11.082856
55.455 10.489252
55.460 10.271826
55.465 10.352569
55.470 10.169855
55.475 9.615487
55.480 9.610561
55.485 10.232762
55.490 10.332907
55.495 10.765256
55.500 11.015862
55.505 10.975157
55.510 11.213435
55.515 10.831384
55.520 10.570272
55.525 10.610342
55.530 10.350491
55.535 10.081592
55.540 9.896822
55.545 9.528744
55.550 9.856608
55.555 10.348063
55.560 10.326808
55.565 10.797806
55.570 10.765757
55.575 10.76188
55.580 10.693063
55.585 10.40403
55.590 10.304868
55.595 9.969731
55.600 9.800075
55.605 9.696299
55.610 9.989678
55.615 10.571349
55.620 10.578613
55.625 10.728085
55.630 10.912025
55.635 10.767217
55.640 10.478603
55.645 10.243377
55.650 10.037361
55.655 9.905171
55.660 9.673478
55.665 8.989018
55.670 8.437601
55.675 8.846122
55.680 9.19191
55.685 9.056627
55.690 9.140659
55.695 9.330475
55.700 10.145446
55.705 11.016088
55.710 11.180856
55.715 10.876589
55.720 10.636991
55.725 10.452136
55.730 10.27658
55.735 10.398094
55.740 10.376227
55.745 10.131473
55.750 10.335228
55.755 10.870586
55.760 10.938476
55.765 10.882398
55.770 10.660652
55.775 10.521894
55.780 10.306196
55.785 10.69422
55.790 10.712067
55.795 11.023314
55.800 11.815235
55.805 12.018161
55.810 12.636115
55.815 12.683086
55.820 12.922266
55.825 12.963307
55.830 12.849533
55.835 12.625593
55.840 12.527837
55.845 12.206815
55.850 11.939283
55.855 11.010629
55.860 10.886552
55.865 10.619175
55.870 10.150126
55.875 9.765065
55.880 9.114619
55.885 8.95757
55.890 9.417884
55.895 9.658568
55.900 9.594435
55.905 9.793308
55.910 9.842694
55.915 10.608789
55.920 11.052173
55.925 10.713828
55.930 10.832305
55.935 11.194678
55.940 11.684462
55.945 12.624233
55.950 12.746028
55.955 12.711224
55.960 13.036363
55.965 12.836903
55.970 12.627359
55.975 12.587555
55.980 11.918621
55.985 11.871945
55.990 11.51228
55.995 11.269376
56.000 11.144697
56.005 10.922449
56.010 10.480758
56.015 10.644712
56.020 10.724524
56.025 10.818232
56.030 10.710019
56.035 10.656972
56.040 10.72033
56.045 10.640021
56.050 10.248397
56.055 10.263112
56.060 10.503398
56.065 10.92036
56.070 11.326049
56.075 11.777991
56.080 12.103236
56.085 12.537576
56.090 12.359002
56.095 12.217272
56.100 11.655993
56.105 11.852316
56.110 11.517931
56.115 11.08111
56.120 10.929259
56.125 11.155931
56.130 11.310273
56.135 12.014799
56.140 12.103291
56.145 11.9814
56.150 12.551138
56.155 12.199062
56.160 11.918505
56.165 11.670173
56.170 10.979415
56.175 10.49502
56.180 10.532943
56.185 9.913141
56.190 9.857452
56.195 9.572586
56.200 9.627253
56.205 9.483693
56.210 9.565198
56.215 9.992185
56.220 10.757438
56.225 11.280132
56.230 11.888129
56.235 12.291617
56.240 12.819641
56.245 12.905221
56.250 12.393837
56.255 12.629847
56.260 12.925895
56.265 12.728599
56.270 12.304151
56.275 11.998885
56.280 11.738115
56.285 11.886717
56.290 11.554209
56.295 11.395144
56.300 11.470429
56.305 11.116367
56.310 10.785564
56.315 10.795555
56.320 11.392509
56.325 11.572118
56.330 11.744448
56.335 11.61369
56.340 11.822077
56.345 12.300249
56.350 12.421325
56.355 11.948185
56.360 12.098449
56.365 11.983164
56.370 12.261164
56.375 12.802834
56.380 12.964657
56.385 13.333879
56.390 12.674319
56.395 12.32449
56.400 12.182788
56.405 12.245901
56.410 12.085275
56.415 11.46256
56.420 11.314785
56.425 11.40385
56.430 11.492346
56.435 11.352213
56.440 11.152569
56.445 11.24736
56.450 11.643163
56.455 11.364377
56.460 11.458393
56.465 12.088469
56.470 12.209938
56.475 12.305698
56.480 11.837745
56.485 11.644162
56.490 11.982435
56.495 11.887456
56.500 11.29055
56.505 11.554793
56.510 11.604008
56.515 11.642239
56.520 11.686425
56.525 11.461407
56.530 11.325629
56.535 11.302784
56.540 10.757994
56.545 10.626879
56.550 11.010982
56.555 10.929615
56.560 10.773225
56.565 10.794753
56.570 10.959396
56.575 11.404777
56.580 11.233731
56.585 11.062107
56.590 11.040812
56.595 11.321513
56.600 11.511435
56.605 11.872432
56.610 12.247825
56.615 12.625285
56.620 12.732285
56.625 12.843694
56.630 12.511379
56.635 12.50786
56.640 11.809829
56.645 11.357656
56.650 11.073366
56.655 11.175925
56.660 11.747413
56.665 11.751171
56.670 11.850911
56.675 12.170622
56.680 12.22211
56.685 12.321405
56.690 12.279109
56.695 11.797757
56.700 12.277762
56.705 12.062042
56.710 12.073988
56.715 12.507945
56.720 12.65901
56.725 12.946986
56.730 13.427732
56.735 13.797674
56.740 13.881958
56.745 13.611236
56.750 13.752681
56.755 13.874327
56.760 13.776649
56.765 13.603843
56.770 13.482041
56.775 13.309303
56.780 13.38063
56.785 12.787374
56.790 12.429234
56.795 12.023853
56.800 11.551702
56.805 11.684448
56.810 11.844088
56.815 11.882352
56.820 12.096875
56.825 11.945482
56.830 12.296456
56.835 12.284202
56.840 12.016324
56.845 11.605516
56.850 11.204489
56.855 11.394848
56.860 11.662354
56.865 11.705086
56.870 11.487853
56.875 11.774582
56.880 12.03827
56.885 12.011284
56.890 11.565955
56.895 11.393094
56.900 11.402943
56.905 12.077873
56.910 11.659559
56.915 11.662141
56.920 11.771644
56.925 11.733171
56.930 12.133493
56.935 12.138724
56.940 11.546547
56.945 11.76529
56.950 11.82215
56.955 11.647279
56.960 11.861243
56.965 11.491435
56.970 11.293463
56.975 11.646677
56.980 11.804284
56.985 11.892619
56.990 12.545215
56.995 12.510934
57.000 12.285434
57.005 12.762106
57.010 12.757125
57.015 12.814672
57.020 12.55157
57.025 12.922212
57.030 13.041734
57.035 13.266625
57.040 12.015199
57.045 11.313081
57.050 11.427978
57.055 11.597942
57.060 11.052763
57.065 10.647109
57.070 10.85013
57.075 11.786969
57.080 12.325216
57.085 12.112912
57.090 11.851451
57.095 11.773769
57.100 12.018667
57.105 12.083163
57.110 12.163612
57.115 11.997209
57.120 11.998294
57.125 12.010373
57.130 12.304657
57.135 12.426348
57.140 12.036423
57.145 11.648194
57.150 11.659621
57.155 11.36533
57.160 11.602779
57.165 11.116201
57.170 11.142613
57.175 11.439284
57.180 11.878572
57.185 12.241545
57.190 12.594943
57.195 12.800493
57.200 13.30691
57.205 13.498817
57.210 13.679774
57.215 13.756813
57.220 13.910175
57.225 13.932791
57.230 14.085249
57.235 13.547899
57.240 12.973635
57.245 12.614659
57.250 12.132988
57.255 11.9383
57.260 11.552948
57.265 11.344816
57.270 11.794173
57.275 11.935133
57.280 11.550293
57.285 11.215
57.290 10.922971
57.295 11.060787
57.300 11.497035
57.305 11.7201
57.310 11.981172
57.315 12.213084
57.320 12.514633
57.325 12.54043
57.330 12.149432
57.335 11.76901
57.340 11.638243
57.345 11.25624
57.350 11.709089
57.355 12.252279
57.360 12.505095
57.365 12.796116
57.370 12.637081
57.375 12.828894
57.380 13.558679
57.385 13.352602
57.390 13.138388
57.395 13.514918
57.400 13.969055
57.405 14.092311
57.410 13.971617
57.415 13.64652
57.420 13.608467
57.425 14.041521
57.430 13.884027
57.435 13.712636
57.440 13.656188
57.445 13.803411
57.450 14.001171
57.455 14.503145
57.460 14.244411
57.465 14.577886
57.470 15.094454
57.475 15.136828
57.480 15.314728
57.485 15.416884
57.490 14.721993
57.495 14.234467
57.500 13.262524
57.505 12.924187
57.510 12.328945
57.515 11.933941
57.520 11.75127
57.525 11.903033
57.530 11.761754
57.535 11.82729
57.540 11.819123
57.545 12.661018
57.550 13.412892
57.555 13.534922
57.560 13.81332
57.565 14.242406
57.570 14.306179
57.575 14.280934
57.580 13.860709
57.585 13.529822
57.590 13.750531
57.595 13.382189
57.600 13.235114
57.605 13.48095
57.610 13.513208
57.615 13.325698
57.620 12.617389
57.625 12.436792
57.630 12.684412
57.635 13.017122
57.640 13.154108
57.645 13.268806
57.650 13.910019
57.655 14.397837
57.660 14.06913
57.665 13.600968
57.670 13.082804
57.675 13.207188
57.680 13.137418
57.685 12.467976
57.690 12.576775
57.695 12.653771
57.700 12.947598
57.705 13.080878
57.710 12.897559
57.715 13.232298
57.720 13.438744
57.725 13.299298
57.730 13.792714
57.735 14.01055
57.740 13.580383
57.745 13.142132
57.750 12.784728
57.755 12.860301
57.760 13.080276
57.765 12.983112
57.770 13.599358
57.775 14.37741
57.780 14.429918
57.785 14.478168
57.790 14.78261
57.795 14.923581
57.800 14.590231
57.805 14.135705
57.810 13.748894
57.815 13.598603
57.820 13.520576
57.825 13.091165
57.830 12.798216
57.835 12.425014
57.840 12.082807
57.845 11.995752
57.850 12.475547
57.855 12.219021
57.860 11.804421
57.865 11.853982
57.870 11.795958
57.875 12.040198
57.880 12.347468
57.885 12.459915
57.890 12.98106
57.895 12.992273
57.900 12.883841
57.905 12.983694
57.910 13.077869
57.915 12.890232
57.920 12.530142
57.925 11.942133
57.930 11.960448
57.935 12.237135
57.940 12.221624
57.945 12.366348
57.950 12.585821
57.955 12.556322
57.960 13.265927
57.965 13.865818
57.970 13.127968
57.975 12.879178
57.980 12.688273
57.985 12.756388
57.990 13.164684
57.995 12.648273
58.000 12.668655
58.005 13.537739
58.010 13.792671
58.015 13.617507
58.020 13.502336
58.025 13.653409
58.030 13.634334
58.035 13.632577
58.040 13.150295
58.045 13.286537
58.050 13.323473
58.055 13.505888
58.060 13.396522
58.065 13.61509
58.070 13.370306
58.075 14.097514
58.080 14.050165
58.085 13.785933
58.090 13.696783
58.095 13.850674
58.100 13.925246
58.105 14.076686
58.110 13.548224
58.115 13.697208
58.120 13.740169
58.125 13.817255
58.130 13.969396
58.135 14.013471
58.140 14.262672
58.145 14.392454
58.150 14.786739
58.155 15.143599
58.160 14.974652
58.165 14.537278
58.170 14.50312
58.175 14.744036
58.180 15.046188
58.185 14.864104
58.190 14.638311
58.195 14.581632
58.200 15.11641
58.205 15.121981
58.210 14.673312
58.215 14.259736
58.220 14.313006
58.225 14.435417
58.230 14.886213
58.235 15.010805
58.240 14.617657
58.245 14.207468
58.250 14.800199
58.255 14.587742
58.260 14.534767
58.265 14.096134
58.270 13.669814
58.275 14.225683
58.280 14.732683
58.285 14.234573
58.290 14.127668
58.295 13.875527
58.300 14.189864
58.305 14.56063
58.310 14.223437
58.315 13.967662
58.320 13.88465
58.325 14.213778
58.330 14.200815
58.335 13.722362
58.340 13.685525
58.345 13.897019
58.350 14.13041
58.355 14.539788
58.360 14.421745
58.365 14.233109
58.370 14.397021
58.375 13.955868
58.380 13.884407
58.385 13.812119
58.390 13.426216
58.395 13.651958
58.400 13.863865
58.405 13.546013
58.410 13.74771
58.415 13.443077
58.420 13.154799
58.425 13.326243
58.430 13.065104
58.435 12.971356
58.440 13.643971
58.445 14.268562
58.450 14.607957
58.455 14.333101
58.460 14.361966
58.465 14.812274
58.470 14.92313
58.475 14.30199
58.480 13.737051
58.485 13.687971
58.490 13.902357
58.495 13.77921
58.500 13.559628
58.505 13.463971
58.510 13.805135
58.515 14.325141
58.520 14.292521
58.525 14.08571
58.530 14.241699
58.535 13.96228
58.540 13.741328
58.545 13.584952
58.550 13.280087
