!@!!GADDS PLOTSO FILE: Chi integration type
!@!!Title/SampleName: map-13f
!@!!Comment: ?
!@!!User: Bruker Instrument Administrator
!@!!Site: University of Illinois Chicago
!@!!Frame: map-13f_01_000.gfrm
!@!!Wavelengths    1.54184   1.54056   1.54439
!@!!Frame angles: 2Theta: 63.000 Omega: 50.000 Phi: 0.000 Chi: 90.000
!@!!Integration range: 2Theta: 53.000 to 73.000  Gamma: -105.000 to -75.000
!@!!Integration method: bin normalized
!@!N
!@!SS
!@!M
!@!L 0.0 0.0 0.0 0.0
!@!XDegrees
!@!YCounts
53.000 9.910727
53.005 10.008545
53.010 9.522161
53.015 9.528837
53.020 9.783595
53.025 9.757572
53.030 9.714762
53.035 9.789595
53.040 9.72667
53.045 9.974932
53.050 9.868222
53.055 9.799397
53.060 9.944635
53.065 9.62149
53.070 9.325341
53.075 9.296381
53.080 9.283517
53.085 9.550276
53.090 9.992874
53.095 10.427508
53.100 10.645452
53.105 11.083131
53.110 11.17553
53.115 11.302329
53.120 11.049823
53.125 10.482676
53.130 9.748036
53.135 9.701947
53.140 9.705637
53.145 9.587355
53.150 9.252945
53.155 9.240579
53.160 9.408217
53.165 9.675538
53.170 9.514705
53.175 9.517796
53.180 9.777567
53.185 9.757922
53.190 9.938174
53.195 10.029095
53.200 10.11983
53.205 9.781869
53.210 9.277778
53.215 9.276671
53.220 9.110493
53.225 9.070091
53.230 8.870619
53.235 9.110513
53.240 9.457428
53.245 9.407781
53.250 9.550204
53.255 9.320173
53.260 9.378724
53.265 9.567262
53.270 9.594334
53.275 9.254444
53.280 9.048246
53.285 9.030947
53.290 9.12909
53.295 8.819408
53.300 8.279296
53.305 8.59612
53.310 9.266037
53.315 9.78339
53.320 9.698202
53.325 9.453438
53.330 9.401913
53.335 9.963171
53.340 10.253604
53.345 9.915197
53.350 9.569254
53.355 9.851309
53.360 10.327675
53.365 10.0906
53.370 9.920187
53.375 9.700617
53.380 9.543917
53.385 9.46117
53.390 8.889227
53.395 8.668312
53.400 8.899719
53.405 8.911459
53.410 9.123675
53.415 9.620515
53.420 9.983121
53.425 10.402868
53.430 10.478137
53.435 10.541045
53.440 10.259798
53.445 10.448192
53.450 10.235539
53.455 9.838547
53.460 9.583109
53.465 9.587228
53.470 9.39269
53.475 9.056997
53.480 8.543112
53.485 8.729275
53.490 8.808926
53.495 9.336364
53.500 9.594916
53.505 9.633071
53.510 9.51783
53.515 9.468974
53.520 9.821955
53.525 10.205635
53.530 9.633015
53.535 9.584003
53.540 9.662032
53.545 9.928654
53.550 9.837145
53.555 9.531953
53.560 9.643852
53.565 9.858955
53.570 10.161576
53.575 10.375688
53.580 10.719255
53.585 11.071103
53.590 11.358501
53.595 11.3816
53.600 11.686894
53.605 11.821625
53.610 12.070231
53.615 11.884362
53.620 11.853441
53.625 11.398032
53.630 10.586587
53.635 9.936886
53.640 9.681179
53.645 9.275837
53.650 9.219337
53.655 8.979289
53.660 9.066706
53.665 9.573211
53.670 9.651289
53.675 10.093279
53.680 10.236142
53.685 11.213889
53.690 11.062014
53.695 11.149769
53.700 11.054154
53.705 11.082994
53.710 10.918374
53.715 10.526425
53.720 9.878581
53.725 9.926381
53.730 10.088047
53.735 10.148933
53.740 10.075211
53.745 10.085582
53.750 10.305159
53.755 10.450742
53.760 11.223633
53.765 11.676586
53.770 12.129002
53.775 12.335766
53.780 11.960135
53.785 12.110365
53.790 12.447672
53.795 12.327773
53.800 12.025061
53.805 11.509891
53.810 11.457049
53.815 11.232401
53.820 11.146881
53.825 10.616025
53.830 10.582368
53.835 10.668594
53.840 10.477542
53.845 10.672359
53.850 10.304479
53.855 9.79667
53.860 9.194242
53.865 8.842425
53.870 8.827694
53.875 9.29255
53.880 9.985069
53.885 10.716293
53.890 11.33529
53.895 11.34293
53.900 11.040761
53.905 10.811161
53.910 10.203647
53.915 9.391395
53.920 8.901171
53.925 9.267704
53.930 10.174616
53.935 10.370962
53.940 10.464776
53.945 10.574708
53.950 10.996961
53.955 10.944308
53.960 9.934833
53.965 9.350384
53.970 9.104738
53.975 9.287676
53.980 9.313997
53.985 9.170569
53.990 9.194181
53.995 9.780635
54.000 9.761687
54.005 10.168062
54.010 10.487282
54.015 10.699644
54.020 10.91029
54.025 10.926894
54.030 10.609666
54.035 10.787478
54.040 10.679407
54.045 10.075699
54.050 9.897095
54.055 9.560569
54.060 9.794822
54.065 10.10942
54.070 9.873191
54.075 9.840513
54.080 10.171319
54.085 10.325962
54.090 10.702623
54.095 10.472303
54.100 10.855585
54.105 11.140194
54.110 11.261285
54.115 11.244102
54.120 11.243169
54.125 11.604577
54.130 11.740494
54.135 11.810147
54.140 11.616119
54.145 11.538052
54.150 11.691008
54.155 11.939962
54.160 11.709582
54.165 12.143553
54.170 12.101213
54.175 11.861322
54.180 11.753249
54.185 11.405472
54.190 11.312556
54.195 11.337489
54.200 11.40662
54.205 11.406697
54.210 11.518513
54.215 11.281355
54.220 10.954796
54.225 11.103407
54.230 10.775265
54.235 10.850642
54.240 10.956716
54.245 10.97455
54.250 11.038191
54.255 11.152829
54.260 11.226501
54.265 11.089888
54.270 10.838262
54.275 10.849021
54.280 10.93936
54.285 11.307377
54.290 11.34478
54.295 11.002074
54.300 11.246819
54.305 11.474068
54.310 11.613631
54.315 11.888085
54.320 11.744792
54.325 11.992624
54.330 11.865016
54.335 11.925179
54.340 11.72589
54.345 12.133344
54.350 12.145176
54.355 11.977624
54.360 11.890034
54.365 12.150724
54.370 12.19224
54.375 12.298108
54.380 11.717154
54.385 11.866446
54.390 11.984922
54.395 11.805081
54.400 11.228279
54.405 11.018908
54.410 10.632299
54.415 10.701806
54.420 10.616085
54.425 10.627358
54.430 10.608541
54.435 10.614512
54.440 10.550267
54.445 10.830217
54.450 10.67473
54.455 10.322436
54.460 10.494438
54.465 11.043501
54.470 11.490959
54.475 11.538054
54.480 11.906052
54.485 12.200376
54.490 11.814101
54.495 11.468927
54.500 11.029966
54.505 10.242723
54.510 9.857636
54.515 9.485736
54.520 9.712512
54.525 10.481922
54.530 10.89928
54.535 11.386282
54.540 11.883558
54.545 11.999162
54.550 12.241987
54.555 12.223181
54.560 11.885856
54.565 11.624608
54.570 11.172741
54.575 11.605814
54.580 11.092743
54.585 10.560753
54.590 10.835388
54.595 11.214172
54.600 10.97702
54.605 10.76456
54.610 10.6638
54.615 11.005095
54.620 11.529314
54.625 11.106846
54.630 10.508643
54.635 10.414191
54.640 10.532321
54.645 10.72489
54.650 10.619963
54.655 10.57086
54.660 10.968325
54.665 11.113102
54.670 11.46649
54.675 11.597738
54.680 11.480532
54.685 11.408595
54.690 11.022213
54.695 10.934915
54.700 11.014192
54.705 11.342658
54.710 11.279554
54.715 11.340261
54.720 11.112691
54.725 11.186462
54.730 11.27846
54.735 11.383917
54.740 11.161229
54.745 11.5501
54.750 11.525242
54.755 11.973987
54.760 11.98028
54.765 12.679008
54.770 12.59642
54.775 12.240562
54.780 12.086889
54.785 12.251475
54.790 11.994946
54.795 11.787891
54.800 11.407231
54.805 11.343159
54.810 11.431763
54.815 11.579134
54.820 11.403634
54.825 11.456068
54.830 11.505381
54.835 11.635317
54.840 11.547845
54.845 11.16114
54.850 10.992572
54.855 10.754314
54.860 11.23351
54.865 11.15716
54.870 10.900232
54.875 11.078192
54.880 11.104635
54.885 11.120712
54.890 11.049471
54.895 10.677825
54.900 11.391396
54.905 11.831903
54.910 12.082275
54.915 12.292752
54.920 12.287507
54.925 12.197878
54.930 12.150536
54.935 12.150968
54.940 11.872058
54.945 11.795508
54.950 11.879328
54.955 12.203023
54.960 12.792827
54.965 12.55724
54.970 12.238375
54.975 12.374312
54.980 12.729932
54.985 12.845199
54.990 12.720322
54.995 12.473566
55.000 12.563231
55.005 12.469625
55.010 11.956058
55.015 11.265985
55.020 11.425655
55.025 11.781889
55.030 11.575235
55.035 11.466202
55.040 11.453383
55.045 11.64719
55.050 11.851749
55.055 11.650371
55.060 11.891606
55.065 12.427549
55.070 12.510217
55.075 12.984473
55.080 13.146364
55.085 13.090242
55.090 12.639659
55.095 12.468819
55.100 12.396334
55.105 12.054219
55.110 11.886902
55.115 12.093139
55.120 12.347482
55.125 12.737865
55.130 12.275445
55.135 11.834991
55.140 12.096389
55.145 11.80557
55.150 11.451723
55.155 11.473853
55.160 11.547272
55.165 11.952677
55.170 12.000672
55.175 11.764318
55.180 11.654572
55.185 11.893114
55.190 11.999983
55.195 11.952655
55.200 12.123969
55.205 12.231916
55.210 12.663853
55.215 12.995668
55.220 12.480243
55.225 12.066719
55.230 11.187073
55.235 10.874246
55.240 10.842875
55.245 10.64875
55.250 10.531732
55.255 10.213266
55.260 10.279219
55.265 11.009832
55.270 11.152303
55.275 11.026874
55.280 10.818414
55.285 10.771918
55.290 11.311891
55.295 11.365338
55.300 11.155411
55.305 10.931247
55.310 10.950774
55.315 10.843057
55.320 11.322061
55.325 11.389019
55.330 11.281229
55.335 11.4162
55.340 11.615075
55.345 11.897196
55.350 11.741532
55.355 11.184243
55.360 11.107784
55.365 11.48315
55.370 11.67263
55.375 11.256944
55.380 11.425932
55.385 11.818537
55.390 11.694232
55.395 11.484468
55.400 10.887601
55.405 11.1941
55.410 11.357018
55.415 10.806732
55.420 10.909333
55.425 11.227436
55.430 11.569383
55.435 11.721276
55.440 11.61587
55.445 12.01066
55.450 12.426808
55.455 12.15901
55.460 11.906711
55.465 11.0985
55.470 11.373846
55.475 11.161354
55.480 10.750314
55.485 10.537382
55.490 10.57928
55.495 10.884089
55.500 11.236701
55.505 11.210206
55.510 11.546782
55.515 12.295775
55.520 12.961757
55.525 13.246421
55.530 13.434242
55.535 13.268355
55.540 12.485275
55.545 12.005668
55.550 11.357631
55.555 10.84971
55.560 10.594839
55.565 10.924285
55.570 11.028188
55.575 11.453163
55.580 11.89635
55.585 11.604893
55.590 11.725547
55.595 12.007374
55.600 12.226036
55.605 12.535906
55.610 13.324153
55.615 13.440667
55.620 13.892583
55.625 13.88747
55.630 13.352439
55.635 12.908126
55.640 12.74507
55.645 11.888234
55.650 12.142806
55.655 11.833984
55.660 12.242675
55.665 12.576997
55.670 12.297262
55.675 12.193582
55.680 11.93698
55.685 11.694042
55.690 11.491413
55.695 10.870995
55.700 11.041401
55.705 11.574284
55.710 11.630431
55.715 11.739802
55.720 11.786535
55.725 12.43933
55.730 12.718951
55.735 12.407731
55.740 12.39994
55.745 12.390932
55.750 12.543114
55.755 12.75749
55.760 12.164889
55.765 12.072652
55.770 12.309419
55.775 12.765536
55.780 12.782177
55.785 12.44565
55.790 12.511382
55.795 12.660872
55.800 13.008703
55.805 13.14408
55.810 12.359813
55.815 12.853701
55.820 12.976494
55.825 12.369625
55.830 12.546766
55.835 12.234122
55.840 11.881817
55.845 12.41081
55.850 12.176642
55.855 12.169553
55.860 12.636329
55.865 13.067842
55.870 12.71322
55.875 12.289746
55.880 12.221638
55.885 12.155278
55.890 12.392655
55.895 12.192388
55.900 12.149202
55.905 12.532924
55.910 12.83415
55.915 13.197241
55.920 13.321531
55.925 13.388976
55.930 13.53766
55.935 13.90509
55.940 14.039672
55.945 14.203828
55.950 14.287074
55.955 14.358059
55.960 13.908606
55.965 13.494929
55.970 13.423059
55.975 13.458001
55.980 13.36923
55.985 13.208184
55.990 13.540511
55.995 13.479169
56.000 13.47226
56.005 13.390025
56.010 13.445882
56.015 13.144344
56.020 12.934144
56.025 12.971716
56.030 13.384103
56.035 12.912585
56.040 12.394771
56.045 12.375183
56.050 12.612077
56.055 12.289277
56.060 12.249741
56.065 12.570183
56.070 12.869919
56.075 13.046408
56.080 12.666568
56.085 12.769519
56.090 12.725109
56.095 12.237298
56.100 12.363541
56.105 12.264235
56.110 12.252806
56.115 12.565763
56.120 12.503392
56.125 12.27063
56.130 12.184346
56.135 12.408442
56.140 12.849031
56.145 12.780334
56.150 12.46993
56.155 12.502857
56.160 12.691188
56.165 13.037183
56.170 12.409559
56.175 12.108893
56.180 12.506163
56.185 12.826466
56.190 13.218884
56.195 13.1692
56.200 13.14455
56.205 13.253345
56.210 13.217474
56.215 13.576734
56.220 13.602111
56.225 13.441802
56.230 13.709465
56.235 13.519863
56.240 13.548244
56.245 13.75871
56.250 13.29381
56.255 13.30802
56.260 13.473475
56.265 13.599905
56.270 13.420919
56.275 13.275761
56.280 12.806165
56.285 12.86853
56.290 13.197887
56.295 12.81237
56.300 12.714445
56.305 12.697256
56.310 12.820203
56.315 13.086126
56.320 13.108644
56.325 12.766096
56.330 13.196112
56.335 13.380627
56.340 13.752732
56.345 14.151775
56.350 14.596692
56.355 14.849803
56.360 14.792517
56.365 14.66585
56.370 14.861126
56.375 14.636116
56.380 14.315615
56.385 13.680757
56.390 13.323411
56.395 12.919357
56.400 12.93517
56.405 13.001892
56.410 12.951557
56.415 13.381138
56.420 13.289974
56.425 13.487945
56.430 13.691607
56.435 13.873617
56.440 13.590682
56.445 13.113811
56.450 12.795855
56.455 12.702877
56.460 13.310722
56.465 13.587364
56.470 13.164248
56.475 13.106416
56.480 13.538498
56.485 13.675568
56.490 14.138482
56.495 13.473482
56.500 13.162508
56.505 13.238561
56.510 13.081342
56.515 12.562165
56.520 12.835701
56.525 12.569808
56.530 13.085244
56.535 13.343791
56.540 13.879526
56.545 14.653576
56.550 14.870152
56.555 14.530212
56.560 14.676485
56.565 14.12035
56.570 13.862352
56.575 12.907587
56.580 12.364191
56.585 12.337266
56.590 12.085158
56.595 12.26065
56.600 12.2604
56.605 12.766109
56.610 13.125429
56.615 13.609598
56.620 14.0789
56.625 14.492563
56.630 14.371627
56.635 14.301758
56.640 14.118582
56.645 14.070226
56.650 13.334044
56.655 12.982637
56.660 12.843794
56.665 12.48934
56.670 12.655945
56.675 12.716613
56.680 13.120865
56.685 13.183756
56.690 13.330303
56.695 13.26096
56.700 13.837801
56.705 13.539186
56.710 13.190855
56.715 12.957243
56.720 12.914005
56.725 12.721616
56.730 13.038924
56.735 13.425947
56.740 13.968519
56.745 14.614054
56.750 14.859412
56.755 14.93101
56.760 14.361628
56.765 13.861432
56.770 12.998452
56.775 12.609187
56.780 11.979742
56.785 11.686749
56.790 12.250914
56.795 13.006535
56.800 13.502621
56.805 13.621014
56.810 14.083698
56.815 14.454429
56.820 14.4265
56.825 13.920171
56.830 13.584225
56.835 13.308846
56.840 13.399802
56.845 13.172527
56.850 13.143756
56.855 13.298542
56.860 13.031013
56.865 12.9291
56.870 12.865988
56.875 12.81676
56.880 12.61932
56.885 12.131667
56.890 12.197807
56.895 12.614228
56.900 13.034142
56.905 13.107973
56.910 13.056124
56.915 13.822308
56.920 14.257915
56.925 14.021314
56.930 13.912532
56.935 13.456132
56.940 13.242765
56.945 13.558633
56.950 12.877164
56.955 13.277794
56.960 13.460467
56.965 13.426259
56.970 12.81662
56.975 12.476979
56.980 12.419319
56.985 13.19205
56.990 12.981901
56.995 12.819245
57.000 13.127175
57.005 14.308039
57.010 14.729845
57.015 14.513158
57.020 13.891562
57.025 13.950451
57.030 14.116948
57.035 13.661254
57.040 13.542067
57.045 13.423578
57.050 13.327679
57.055 13.347117
57.060 12.987834
57.065 13.007722
57.070 13.078884
57.075 13.027183
57.080 13.12772
57.085 12.867842
57.090 12.912925
57.095 12.899239
57.100 12.778479
57.105 12.77113
57.110 12.480641
57.115 12.255487
57.120 12.571044
57.125 12.334765
57.130 12.698854
57.135 12.861667
57.140 12.914683
57.145 13.021354
57.150 12.722317
57.155 12.630581
57.160 12.5358
57.165 12.436668
57.170 12.644879
57.175 12.569461
57.180 12.719933
57.185 13.361397
57.190 13.271689
57.195 13.467729
57.200 13.607806
57.205 13.691651
57.210 13.426697
57.215 13.523908
57.220 13.71071
57.225 13.972839
57.230 13.550931
57.235 13.285618
57.240 13.315926
57.245 13.730167
57.250 13.763374
57.255 13.085635
57.260 13.10536
57.265 13.751214
57.270 13.932206
57.275 13.753069
57.280 13.635746
57.285 13.893485
57.290 14.10681
57.295 14.568702
57.300 14.39136
57.305 14.930966
57.310 15.085768
57.315 14.999386
57.320 14.695198
57.325 14.774043
57.330 14.459982
57.335 14.482604
57.340 14.290651
57.345 14.244983
57.350 14.37591
57.355 14.323892
57.360 14.200317
57.365 14.380089
57.370 14.055468
57.375 14.247306
57.380 13.843924
57.385 13.6696
57.390 13.966445
57.395 13.998626
57.400 13.509336
57.405 13.650956
57.410 13.414109
57.415 13.727989
57.420 13.592941
57.425 13.536222
57.430 13.271946
57.435 13.416689
57.440 13.068057
57.445 13.426599
57.450 12.771841
57.455 12.830129
57.460 12.812638
57.465 13.316562
57.470 13.479438
57.475 13.251205
57.480 13.146468
57.485 13.540271
57.490 13.155994
57.495 13.323912
57.500 12.996073
57.505 12.988818
57.510 13.441092
57.515 13.629808
57.520 13.787163
57.525 13.920279
57.530 13.24109
57.535 13.171097
57.540 13.005368
57.545 12.353126
57.550 12.393097
57.555 12.289495
57.560 12.399186
57.565 13.013433
57.570 13.183281
57.575 13.758154
57.580 13.911518
57.585 13.69109
57.590 14.227118
57.595 13.784081
57.600 13.39489
57.605 13.525721
57.610 13.199754
57.615 13.06924
57.620 13.214223
57.625 13.652143
57.630 14.142361
57.635 14.527215
57.640 14.157887
57.645 14.133305
57.650 14.338264
57.655 14.220946
57.660 13.840736
57.665 13.419813
57.670 13.119086
57.675 13.029347
57.680 12.998913
57.685 13.116012
57.690 12.858046
57.695 13.115295
57.700 13.278239
57.705 13.400255
57.710 13.246484
57.715 13.102426
57.720 13.07197
57.725 13.031032
57.730 12.827313
57.735 13.013733
57.740 13.287786
57.745 13.707352
57.750 13.978163
57.755 13.952632
57.760 13.780317
57.765 13.749651
57.770 13.500706
57.775 13.393343
57.780 13.362817
57.785 13.168206
57.790 13.112031
57.795 13.069381
57.800 12.939032
57.805 13.121341
57.810 13.227802
57.815 13.304358
57.820 13.101945
57.825 12.715433
57.830 12.817805
57.835 12.802673
57.840 12.885552
57.845 12.595179
57.850 12.448184
57.855 12.766305
57.860 13.883713
57.865 13.844697
57.870 13.809923
57.875 13.98997
57.880 13.96893
57.885 14.309882
57.890 14.365832
57.895 13.911258
57.900 14.633592
57.905 14.492067
57.910 14.743106
57.915 15.327999
57.920 15.424232
57.925 15.281146
57.930 15.166236
57.935 15.111285
57.940 15.052947
57.945 14.860665
57.950 14.790421
57.955 14.936375
57.960 14.636054
57.965 14.570617
57.970 14.911744
57.975 14.703329
57.980 14.280334
57.985 14.31281
57.990 14.051885
57.995 14.024449
58.000 13.869732
58.005 13.220196
58.010 13.741831
58.015 14.411013
58.020 13.843794
58.025 13.828118
58.030 13.98494
58.035 14.21614
58.040 14.740144
58.045 14.694662
58.050 14.370873
58.055 14.644826
58.060 14.832787
58.065 14.955065
58.070 14.647094
58.075 14.444963
58.080 14.559446
58.085 14.554079
58.090 14.661138
58.095 14.55511
58.100 14.427244
58.105 14.671909
58.110 14.788585
58.115 14.898403
58.120 14.68222
58.125 14.119168
58.130 14.185586
58.135 14.213336
58.140 14.328117
58.145 14.142408
58.150 13.717345
58.155 14.079049
58.160 14.245164
58.165 14.070919
58.170 13.639269
58.175 13.403983
58.180 13.342673
58.185 13.803138
58.190 13.923503
58.195 14.08749
58.200 15.012959
58.205 15.591801
58.210 15.490839
58.215 15.257135
58.220 14.944616
58.225 14.977888
58.230 14.613795
58.235 14.447191
58.240 14.286498
58.245 13.997428
58.250 14.254575
58.255 14.094302
58.260 13.759943
58.265 13.978079
58.270 13.707376
58.275 13.791389
58.280 14.731495
58.285 14.529895
58.290 14.622671
58.295 14.862926
58.300 14.976487
58.305 15.149212
58.310 15.379266
58.315 14.823478
58.320 15.188671
58.325 15.630598
58.330 15.60412
58.335 15.589818
58.340 15.666206
58.345 15.868918
58.350 15.905537
58.355 15.883739
58.360 15.523692
58.365 15.51051
58.370 15.012437
58.375 14.589231
58.380 14.154952
58.385 13.916093
58.390 13.593776
58.395 13.505995
58.400 13.526112
58.405 13.878866
58.410 14.061909
58.415 13.94491
58.420 14.734064
58.425 15.554566
58.430 16.290823
58.435 16.540546
58.440 16.631098
58.445 16.427437
58.450 16.47739
58.455 15.929705
58.460 15.301857
58.465 15.290436
58.470 15.286809
58.475 14.923083
58.480 15.358067
