!@!!GADDS PLOTSO FILE: Chi integration type
!@!!Title/SampleName: map-b9
!@!!Comment: ?
!@!!User: Bruker Instrument Administrator
!@!!Site: University of Illinois Chicago
!@!!Frame: map-b9_01_000.gfrm
!@!!Wavelengths    1.54184   1.54056   1.54439
!@!!Frame angles: 2Theta: 63.000 Omega: 50.000 Phi: 0.000 Chi: 90.000
!@!!Integration range: 2Theta: 53.000 to 73.000  Gamma: -105.000 to -75.000
!@!!Integration method: bin normalized
!@!N
!@!SS
!@!M
!@!L 0.0 0.0 0.0 0.0
!@!XDegrees
!@!YCounts
53.000 6.496609
53.005 6.58754
53.010 6.557945
53.015 6.507955
53.020 6.784967
53.025 7.04564
53.030 6.834824
53.035 6.965841
53.040 7.223758
53.045 7.401033
53.050 7.161423
53.055 7.007972
53.060 7.509774
53.065 7.703513
53.070 7.419458
53.075 7.315141
53.080 7.637064
53.085 8.485253
53.090 8.726927
53.095 8.064663
53.100 8.357081
53.105 8.496552
53.110 8.379097
53.115 7.756167
53.120 7.196104
53.125 7.462758
53.130 7.911099
53.135 7.691476
53.140 7.601933
53.145 7.629506
53.150 7.962892
53.155 8.08554
53.160 7.998751
53.165 7.753595
53.170 7.675988
53.175 8.096105
53.180 8.06164
53.185 7.477057
53.190 7.31413
53.195 7.283042
53.200 7.37001
53.205 7.1813
53.210 6.836469
53.215 6.830326
53.220 6.857448
53.225 6.325216
53.230 5.950912
53.235 5.758517
53.240 5.453187
53.245 5.092868
53.250 5.120032
53.255 5.46119
53.260 5.611412
53.265 6.160654
53.270 6.222378
53.275 6.531692
53.280 6.796388
53.285 7.005782
53.290 7.213675
53.295 7.210903
53.300 6.986103
53.305 7.417922
53.310 7.332799
53.315 7.172191
53.320 7.069813
53.325 7.077707
53.330 7.45983
53.335 7.528025
53.340 7.238531
53.345 7.172927
53.350 7.441901
53.355 7.514527
53.360 7.525746
53.365 7.165186
53.370 6.822536
53.375 6.876364
53.380 6.880072
53.385 6.394808
53.390 6.158214
53.395 6.256226
53.400 6.235988
53.405 6.399961
53.410 6.679069
53.415 7.064454
53.420 7.711889
53.425 7.560456
53.430 7.374619
53.435 7.527055
53.440 7.548723
53.445 7.478693
53.450 7.254481
53.455 7.407492
53.460 7.766462
53.465 7.917865
53.470 8.228426
53.475 7.968225
53.480 7.817254
53.485 7.642792
53.490 7.229898
53.495 7.085701
53.500 6.864403
53.505 6.738448
53.510 6.794806
53.515 6.912342
53.520 6.869144
53.525 7.211449
53.530 7.232172
53.535 7.322335
53.540 7.606907
53.545 7.880051
53.550 8.082809
53.555 8.025222
53.560 7.804739
53.565 7.821458
53.570 7.397357
53.575 7.240709
53.580 7.269732
53.585 7.12355
53.590 6.639009
53.595 6.441516
53.600 6.4814
53.605 6.845483
53.610 6.863099
53.615 7.01506
53.620 7.271597
53.625 7.569318
53.630 8.012094
53.635 8.184949
53.640 8.067782
53.645 7.780069
53.650 7.530559
53.655 7.460758
53.660 7.665578
53.665 7.89785
53.670 7.530875
53.675 7.512934
53.680 7.909695
53.685 7.980106
53.690 8.251137
53.695 8.115432
53.700 7.85241
53.705 8.120731
53.710 8.380177
53.715 8.463453
53.720 8.384917
53.725 8.080503
53.730 8.151086
53.735 8.434978
53.740 7.994063
53.745 7.778926
53.750 7.649611
53.755 7.270048
53.760 7.840895
53.765 7.916676
53.770 7.707891
53.775 7.90618
53.780 8.002241
53.785 8.00653
53.790 8.145529
53.795 8.193149
53.800 8.393519
53.805 8.756876
53.810 8.808151
53.815 8.511753
53.820 8.507849
53.825 8.185675
53.830 8.015064
53.835 7.899551
53.840 7.942987
53.845 8.230825
53.850 8.717003
53.855 8.721627
53.860 8.95984
53.865 8.867562
53.870 8.676406
53.875 8.606559
53.880 8.204704
53.885 8.152123
53.890 7.716585
53.895 7.421245
53.900 7.216641
53.905 7.306611
53.910 7.137393
53.915 6.887413
53.920 6.882502
53.925 7.12458
53.930 7.428143
53.935 7.31814
53.940 7.184407
53.945 7.33612
53.950 7.503726
53.955 7.688683
53.960 7.885786
53.965 7.708441
53.970 7.746135
53.975 8.02781
53.980 8.296953
53.985 8.482381
53.990 8.383731
53.995 8.747017
54.000 9.264318
54.005 9.412413
54.010 9.433196
54.015 9.308145
54.020 9.087454
54.025 8.763133
54.030 8.164802
54.035 8.252338
54.040 8.127413
54.045 8.144874
54.050 8.300132
54.055 8.609168
54.060 8.745485
54.065 8.629632
54.070 8.819377
54.075 8.790896
54.080 9.033545
54.085 9.102422
54.090 9.02045
54.095 9.212109
54.100 9.341652
54.105 9.234467
54.110 9.370584
54.115 9.853137
54.120 9.750601
54.125 9.750855
54.130 9.715002
54.135 9.674476
54.140 9.484787
54.145 8.768833
54.150 8.016496
54.155 7.855741
54.160 7.840993
54.165 7.940016
54.170 8.184739
54.175 8.294244
54.180 8.473045
54.185 8.565797
54.190 8.781087
54.195 8.840321
54.200 8.507684
54.205 8.129994
54.210 7.94147
54.215 7.75953
54.220 7.615843
54.225 7.42541
54.230 7.312805
54.235 7.223067
54.240 7.642998
54.245 7.680407
54.250 7.75999
54.255 8.306302
54.260 8.920815
54.265 8.916874
54.270 9.477267
54.275 9.312258
54.280 9.389899
54.285 9.444328
54.290 8.826073
54.295 8.396251
54.300 8.769176
54.305 8.431919
54.310 8.425723
54.315 8.643029
54.320 8.761415
54.325 8.881484
54.330 8.703607
54.335 8.290648
54.340 7.996993
54.345 8.136908
54.350 8.155074
54.355 8.327501
54.360 8.403129
54.365 8.581296
54.370 9.079013
54.375 9.428901
54.380 9.342795
54.385 9.239267
54.390 9.095243
54.395 9.367541
54.400 9.870122
54.405 9.856695
54.410 9.751987
54.415 9.468259
54.420 9.286035
54.425 9.558094
54.430 9.219211
54.435 8.627905
54.440 8.737643
54.445 8.786255
54.450 8.877385
54.455 8.950974
54.460 8.615112
54.465 8.533763
54.470 8.517913
54.475 8.148107
54.480 8.415933
54.485 8.905852
54.490 8.932368
54.495 9.415024
54.500 9.508703
54.505 9.353178
54.510 9.196913
54.515 9.072802
54.520 8.956653
54.525 8.532796
54.530 8.247852
54.535 8.262369
54.540 8.365615
54.545 8.529201
54.550 8.185545
54.555 8.071409
54.560 8.111916
54.565 8.218574
54.570 8.312682
54.575 8.293182
54.580 7.906398
54.585 7.808473
54.590 7.81154
54.595 7.609118
54.600 7.690029
54.605 7.903188
54.610 8.210557
54.615 8.320651
54.620 8.331221
54.625 8.016825
54.630 8.19058
54.635 8.424239
54.640 8.413107
54.645 8.343979
54.650 8.384295
54.655 8.74899
54.660 9.478311
54.665 9.472727
54.670 9.02694
54.675 9.317639
54.680 9.154983
54.685 9.131657
54.690 9.365191
54.695 8.925309
54.700 8.886882
54.705 8.915407
54.710 8.350413
54.715 8.277534
54.720 8.307352
54.725 8.226707
54.730 8.368037
54.735 8.268662
54.740 8.395217
54.745 9.114174
54.750 9.236228
54.755 9.111191
54.760 9.219636
54.765 9.151141
54.770 9.249413
54.775 9.274726
54.780 9.113094
54.785 9.298129
54.790 9.29644
54.795 8.921306
54.800 8.962655
54.805 9.068556
54.810 9.011031
54.815 9.362545
54.820 9.267577
54.825 9.096958
54.830 9.4496
54.835 9.578279
54.840 9.149594
54.845 8.848877
54.850 8.296913
54.855 7.824259
54.860 7.493571
54.865 6.990038
54.870 7.082552
54.875 7.344456
54.880 7.488399
54.885 7.952609
54.890 8.6141
54.895 9.176376
54.900 9.442035
54.905 9.230319
54.910 9.248942
54.915 9.263945
54.920 9.068851
54.925 8.952188
54.930 8.981455
54.935 9.119468
54.940 9.528987
54.945 9.229307
54.950 9.195212
54.955 9.720149
54.960 10.092615
54.965 9.831752
54.970 9.762058
54.975 9.817578
54.980 9.728727
54.985 9.54597
54.990 9.360703
54.995 9.025535
55.000 9.189283
55.005 9.146427
55.010 9.164046
55.015 9.219792
55.020 8.933759
55.025 8.669685
55.030 8.758454
55.035 8.803782
55.040 8.945471
55.045 8.934499
55.050 9.056984
55.055 9.36318
55.060 9.443806
55.065 9.65567
55.070 9.763981
55.075 9.400878
55.080 9.507961
55.085 9.527703
55.090 9.883117
55.095 9.620249
55.100 9.173416
55.105 9.122311
55.110 9.496342
55.115 9.289977
55.120 9.649214
55.125 9.432756
55.130 9.762579
55.135 10.068423
55.140 9.995109
55.145 9.812516
55.150 9.96204
55.155 9.533173
55.160 9.636129
55.165 9.619064
55.170 9.66347
55.175 9.95822
55.180 10.065849
55.185 9.902349
55.190 9.902567
55.195 9.989121
55.200 9.984831
55.205 9.670802
55.210 9.302317
55.215 9.380936
55.220 9.458099
55.225 9.420906
55.230 9.271696
55.235 9.49266
55.240 9.603539
55.245 9.785054
55.250 10.06917
55.255 10.508348
55.260 10.386235
55.265 10.465864
55.270 10.667992
55.275 10.57792
55.280 10.269638
55.285 9.869472
55.290 9.382596
55.295 9.184726
55.300 8.641013
55.305 8.227179
55.310 8.214996
55.315 8.419948
55.320 8.715397
55.325 9.412435
55.330 9.61027
55.335 9.856319
55.340 10.233551
55.345 10.433905
55.350 10.51426
55.355 10.696916
55.360 10.685946
55.365 11.149238
55.370 11.744872
55.375 11.688686
55.380 11.851742
55.385 11.430138
55.390 11.195933
55.395 11.369571
55.400 10.519124
55.405 10.042776
55.410 9.978118
55.415 9.755031
55.420 9.875057
55.425 9.478541
55.430 9.436747
55.435 9.686805
55.440 9.368279
55.445 9.422811
55.450 9.82521
55.455 9.943599
55.460 9.881501
55.465 9.581871
55.470 9.781904
55.475 10.172965
55.480 9.773012
55.485 9.406884
55.490 9.354102
55.495 9.408572
55.500 9.049828
55.505 8.886903
55.510 8.763866
55.515 8.60533
55.520 8.790023
55.525 8.769341
55.530 9.409332
55.535 9.859377
55.540 10.046312
55.545 10.303053
55.550 10.250853
55.555 10.029276
55.560 9.956732
55.565 9.787898
55.570 9.382585
55.575 9.083394
55.580 9.470328
55.585 9.760015
55.590 10.014578
55.595 10.206779
55.600 10.082505
55.605 10.743489
55.610 11.050933
55.615 11.194333
55.620 11.473908
55.625 11.289594
55.630 11.11913
55.635 11.060531
55.640 10.792213
55.645 10.491227
55.650 10.058736
55.655 9.974007
55.660 10.268576
55.665 10.227051
55.670 10.316179
55.675 10.012749
55.680 9.906654
55.685 9.616796
55.690 9.941171
55.695 9.992832
55.700 10.140072
55.705 10.105124
55.710 10.516358
55.715 10.679536
55.720 11.046971
55.725 10.740606
55.730 10.72479
55.735 11.169241
55.740 11.021539
55.745 10.884564
55.750 10.837454
55.755 10.589028
55.760 10.499533
55.765 10.147809
55.770 10.095844
55.775 10.117074
55.780 10.120473
55.785 9.860349
55.790 10.011423
55.795 10.192492
55.800 10.50846
55.805 10.147692
55.810 10.041376
55.815 10.411425
55.820 10.732974
55.825 10.119167
55.830 9.686928
55.835 9.692624
55.840 10.083408
55.845 10.284348
55.850 10.517264
55.855 10.332114
55.860 10.641963
55.865 10.248659
55.870 9.859481
55.875 9.942364
55.880 10.097935
55.885 9.765758
55.890 9.874498
55.895 10.142281
55.900 10.764438
55.905 10.451859
55.910 10.470715
55.915 10.033175
55.920 10.488447
55.925 10.626917
55.930 10.835314
55.935 11.001987
55.940 11.106625
55.945 11.633131
55.950 11.646619
55.955 11.013173
55.960 10.84798
55.965 10.684305
55.970 11.014899
55.975 11.163278
55.980 10.877469
55.985 11.288371
55.990 11.711872
55.995 12.19688
56.000 12.051242
56.005 11.672367
56.010 11.353007
56.015 10.899945
56.020 10.217976
56.025 9.646233
56.030 8.94171
56.035 8.86929
56.040 9.200176
56.045 9.060689
56.050 9.485953
56.055 9.831498
56.060 10.295782
56.065 10.534338
56.070 10.166309
56.075 9.868932
56.080 9.573919
56.085 9.126053
56.090 9.016862
56.095 8.837456
56.100 8.995114
56.105 9.207309
56.110 9.562344
56.115 9.809742
56.120 9.94486
56.125 9.710828
56.130 9.742073
56.135 10.010283
56.140 10.18378
56.145 10.079135
56.150 9.660786
56.155 9.599248
56.160 9.38029
56.165 9.183844
56.170 9.289692
56.175 9.040992
56.180 9.189247
56.185 9.554688
56.190 10.14785
56.195 10.942987
56.200 10.981726
56.205 10.259665
56.210 10.053017
56.215 10.273754
56.220 10.195795
56.225 10.06506
56.230 10.125111
56.235 10.247618
56.240 11.010666
56.245 11.054839
56.250 10.553723
56.255 10.461061
56.260 10.399803
56.265 9.930452
56.270 9.400782
56.275 9.067053
56.280 9.091806
56.285 9.614159
56.290 10.071672
56.295 9.833196
56.300 10.429849
56.305 10.997044
56.310 11.070492
56.315 11.427275
56.320 11.455673
56.325 11.135047
56.330 11.110553
56.335 10.839812
56.340 11.365463
56.345 11.585721
56.350 11.219869
56.355 10.983808
56.360 10.900807
56.365 11.164195
56.370 10.882746
56.375 10.225446
56.380 9.679021
56.385 9.706966
56.390 9.621217
56.395 9.524386
56.400 9.146606
56.405 8.825308
56.410 8.836613
56.415 9.002753
56.420 9.491296
56.425 9.290649
56.430 9.064423
56.435 9.501051
56.440 9.870918
56.445 9.963123
56.450 9.861904
56.455 9.640954
56.460 10.364271
56.465 10.857198
56.470 10.872271
56.475 10.678424
56.480 10.766964
56.485 10.824837
56.490 11.242721
56.495 11.065843
56.500 11.102668
56.505 11.314163
56.510 11.269849
56.515 11.1985
56.520 11.380258
56.525 10.866293
56.530 10.572767
56.535 10.583242
56.540 10.893801
56.545 11.117867
56.550 11.048306
56.555 10.94395
56.560 11.437641
56.565 11.464249
56.570 11.296134
56.575 11.30223
56.580 11.192548
56.585 11.347323
56.590 11.347389
56.595 11.461687
56.600 11.904202
56.605 11.955718
56.610 11.587916
56.615 11.447712
56.620 11.427382
56.625 11.236165
56.630 10.543929
56.635 10.554972
56.640 10.671244
56.645 11.164723
56.650 11.306828
56.655 11.207476
56.660 11.320611
56.665 11.543062
56.670 11.337582
56.675 10.880232
56.680 10.49631
56.685 10.837813
56.690 10.958424
56.695 11.243107
56.700 11.547853
56.705 11.636672
56.710 11.853998
56.715 12.240769
56.720 11.943478
56.725 12.00555
56.730 11.760351
56.735 10.920692
56.740 10.829094
56.745 11.057666
56.750 10.770275
56.755 10.742648
56.760 10.869263
56.765 10.926502
56.770 11.293041
56.775 11.442135
56.780 11.707053
56.785 11.98024
56.790 11.987521
56.795 11.744943
56.800 11.844689
56.805 11.905629
56.810 11.816514
56.815 11.686573
56.820 11.369701
56.825 11.256962
56.830 11.089948
56.835 11.771405
56.840 11.479917
56.845 11.289542
56.850 11.640265
56.855 12.070775
56.860 12.148755
56.865 12.194252
56.870 12.203419
56.875 12.145362
56.880 11.941397
56.885 11.644774
56.890 11.358787
56.895 11.531315
56.900 11.022115
56.905 11.093275
56.910 11.264986
56.915 11.189837
56.920 11.196317
56.925 11.237656
56.930 11.145713
56.935 10.873809
56.940 10.323973
56.945 10.516652
56.950 10.757552
56.955 10.552149
56.960 10.456704
56.965 10.651943
56.970 10.905557
56.975 11.190447
56.980 11.210481
56.985 11.4964
56.990 11.969097
56.995 12.367734
57.000 12.457534
57.005 12.789599
57.010 12.995961
57.015 13.122215
57.020 12.874755
57.025 12.671612
57.030 12.226321
57.035 12.216886
57.040 11.820704
57.045 11.314097
57.050 11.040156
57.055 11.128278
57.060 11.114626
57.065 11.127658
57.070 10.884617
57.075 10.987154
57.080 11.127294
57.085 11.43213
57.090 11.280283
57.095 11.120916
57.100 11.261217
57.105 11.528686
57.110 11.53683
57.115 10.991274
57.120 10.102569
57.125 9.913781
57.130 10.434702
57.135 10.73539
57.140 10.686331
57.145 11.144825
57.150 11.462279
57.155 11.905179
57.160 11.950919
57.165 11.262187
57.170 11.014032
57.175 10.720421
57.180 10.443655
57.185 10.76382
57.190 10.805099
57.195 10.951521
57.200 11.042607
57.205 10.81356
57.210 10.997933
57.215 11.92261
57.220 11.542058
57.225 11.234752
57.230 10.96366
57.235 11.110742
57.240 11.697123
57.245 11.861694
57.250 11.213899
57.255 11.501596
57.260 11.888043
57.265 12.731396
57.270 12.945658
57.275 12.820414
57.280 12.719358
57.285 12.739108
57.290 12.828585
57.295 12.491174
57.300 12.247204
57.305 12.316784
57.310 12.174748
57.315 12.179946
57.320 12.536967
57.325 12.746426
57.330 12.868244
57.335 12.621639
57.340 12.576014
57.345 12.625983
57.350 12.400831
57.355 12.666544
57.360 12.632521
57.365 12.809664
57.370 12.923096
57.375 12.918638
57.380 13.528504
57.385 13.885226
57.390 12.870201
57.395 12.684899
57.400 12.787304
57.405 12.916368
57.410 12.73435
57.415 11.961548
57.420 11.689638
57.425 12.094687
57.430 12.21887
57.435 11.619018
57.440 11.431123
57.445 11.48794
57.450 11.357301
57.455 11.295965
57.460 11.201357
57.465 11.587836
57.470 12.041485
57.475 11.747404
57.480 11.9533
57.485 12.828143
57.490 12.818877
57.495 13.128281
57.500 13.276885
57.505 13.321385
57.510 13.559654
57.515 13.339444
57.520 13.002053
57.525 12.945243
57.530 12.097075
57.535 11.678622
57.540 11.531819
57.545 11.334432
57.550 11.461501
57.555 11.54358
57.560 11.647933
57.565 12.123358
57.570 12.057063
57.575 12.414946
57.580 12.75516
57.585 12.795516
57.590 13.498409
57.595 14.096959
57.600 14.545043
57.605 14.7794
57.610 14.851103
57.615 14.56726
57.620 14.462098
57.625 13.969214
57.630 13.66013
57.635 13.391864
57.640 13.135935
57.645 13.229928
57.650 13.169086
57.655 12.969848
57.660 12.968178
57.665 13.142712
57.670 13.010889
57.675 12.784955
57.680 12.500573
57.685 12.324611
57.690 12.21679
57.695 11.763473
57.700 11.486674
57.705 11.778408
57.710 11.915431
57.715 12.023633
57.720 12.485375
57.725 12.907887
57.730 13.317611
57.735 13.323668
57.740 13.465005
57.745 13.682931
57.750 13.965796
57.755 14.054521
57.760 14.023787
57.765 14.463629
57.770 14.53162
57.775 14.566544
57.780 15.048847
57.785 15.062877
57.790 15.147849
57.795 14.973094
57.800 14.122661
57.805 13.871862
57.810 13.4695
57.815 13.141632
57.820 13.367609
57.825 13.330713
57.830 13.860573
57.835 14.153865
57.840 14.562352
57.845 15.042366
57.850 14.891374
57.855 14.225635
57.860 13.754328
57.865 13.141052
57.870 12.913591
57.875 12.341943
57.880 12.391195
57.885 12.549059
57.890 12.877029
57.895 13.246849
57.900 13.359135
57.905 13.455027
57.910 13.721946
57.915 13.754081
57.920 13.695886
57.925 13.444508
57.930 13.397891
57.935 13.722595
57.940 13.968729
57.945 13.792588
57.950 13.642742
57.955 13.328136
57.960 13.584213
57.965 13.598585
57.970 13.70697
57.975 13.791491
57.980 13.453265
57.985 13.359779
57.990 13.614986
57.995 13.901514
58.000 13.635798
58.005 13.594255
58.010 13.354953
58.015 13.823583
58.020 14.314006
58.025 14.269845
58.030 13.803811
58.035 14.270959
58.040 14.835294
58.045 14.770862
58.050 14.323965
58.055 14.297787
58.060 14.339595
58.065 14.53062
58.070 14.589371
58.075 14.30566
58.080 14.889798
58.085 15.416247
58.090 15.073264
58.095 14.975354
58.100 14.812504
58.105 14.505419
58.110 14.479365
58.115 14.274694
58.120 14.096738
58.125 14.248189
58.130 14.059834
58.135 13.92358
58.140 13.850518
58.145 13.798017
58.150 13.69931
58.155 13.3951
58.160 13.831738
58.165 14.086055
58.170 14.067114
58.175 14.366335
58.180 14.636459
58.185 14.973843
58.190 15.557207
58.195 15.585479
58.200 15.845832
58.205 15.522815
58.210 15.347849
58.215 15.6092
58.220 15.878539
58.225 15.63692
58.230 15.565141
58.235 16.388071
58.240 16.952297
58.245 17.022282
58.250 17.233843
58.255 17.360561
58.260 17.425976
58.265 17.029568
58.270 16.769659
58.275 17.330841
58.280 17.34137
58.285 16.916651
58.290 16.728477
58.295 17.371502
58.300 17.849567
58.305 17.977613
58.310 17.760109
58.315 17.643648
58.320 17.405397
58.325 17.407869
58.330 17.103817
58.335 16.94696
58.340 16.476793
58.345 16.304161
58.350 17.011463
58.355 17.656479
58.360 17.897633
58.365 18.255491
58.370 18.80229
58.375 19.214777
58.380 19.171225
58.385 19.47477
58.390 19.947004
58.395 19.92802
58.400 19.570232
58.405 19.345291
58.410 19.968601
58.415 20.866508
58.420 20.646286
58.425 19.995602
58.430 20.259493
58.435 20.213522
58.440 20.150499
58.445 19.715107
58.450 19.214376
58.455 19.657543
58.460 20.205648
58.465 20.115314
58.470 21.088472
58.475 21.713282
58.480 22.01173
58.485 22.378328
58.490 22.198771
58.495 22.715219
58.500 23.830376
58.505 23.790596
58.510 23.963434
58.515 24.632898
58.520 25.060207
58.525 25.971712
58.530 26.127796
58.535 26.357124
58.540 26.613459
58.545 26.766691
58.550 26.750597
58.555 26.785328
58.560 27.452717
58.565 27.86598
58.570 27.827694
58.575 28.272165
58.580 29.048567
58.585 29.574957
58.590 30.000107
