!@!!GADDS PLOTSO FILE: Chi integration type
!@!!Title/SampleName: map-13d
!@!!Comment: ?
!@!!User: Bruker Instrument Administrator
!@!!Site: University of Illinois Chicago
!@!!Frame: map-13d_01_000.gfrm
!@!!Wavelengths    1.54184   1.54056   1.54439
!@!!Frame angles: 2Theta: 63.000 Omega: 50.000 Phi: 0.000 Chi: 90.000
!@!!Integration range: 2Theta: 53.000 to 73.000  Gamma: -105.000 to -75.000
!@!!Integration method: bin normalized
!@!N
!@!SS
!@!M
!@!L 0.0 0.0 0.0 0.0
!@!XDegrees
!@!YCounts
53.000 9.714153
53.005 10.091417
53.010 10.348736
53.015 10.620288
53.020 10.379383
53.025 10.647842
53.030 10.46443
53.035 10.131321
53.040 9.971162
53.045 9.907497
53.050 9.945365
53.055 9.971559
53.060 10.141651
53.065 10.297005
53.070 10.588163
53.075 10.492523
53.080 10.049021
53.085 9.960946
53.090 9.675305
53.095 9.306098
53.100 8.934447
53.105 9.217485
53.110 9.461835
53.115 9.324245
53.120 9.406312
53.125 9.921461
53.130 10.152665
53.135 10.620352
53.140 11.007964
53.145 11.154974
53.150 11.319997
53.155 11.146202
53.160 11.121206
53.165 10.833155
53.170 9.921773
53.175 9.308591
53.180 9.324787
53.185 9.456936
53.190 9.231488
53.195 9.024999
53.200 9.196796
53.205 9.45677
53.210 9.59763
53.215 9.612508
53.220 9.264851
53.225 9.434422
53.230 9.363148
53.235 9.096831
53.240 9.111861
53.245 8.978805
53.250 8.890576
53.255 9.389785
53.260 9.469356
53.265 9.913442
53.270 10.33854
53.275 10.328244
53.280 10.408875
53.285 10.331326
53.290 10.412253
53.295 10.436974
53.300 10.314018
53.305 9.744783
53.310 9.625029
53.315 9.715512
53.320 9.594003
53.325 9.612346
53.330 9.461354
53.335 9.599845
53.340 9.784898
53.345 9.778557
53.350 10.10804
53.355 10.02259
53.360 10.181835
53.365 10.502622
53.370 10.922571
53.375 11.28206
53.380 10.951283
53.385 10.952271
53.390 11.00553
53.395 10.588188
53.400 10.152613
53.405 9.577838
53.410 9.770765
53.415 10.242579
53.420 10.062642
53.425 10.348025
53.430 10.729123
53.435 11.100918
53.440 11.376053
53.445 11.290763
53.450 11.355906
53.455 11.851061
53.460 11.798532
53.465 11.476521
53.470 11.206229
53.475 10.809703
53.480 10.600692
53.485 10.289073
53.490 9.732319
53.495 9.569998
53.500 9.780069
53.505 9.732895
53.510 9.957503
53.515 9.853011
53.520 9.630652
53.525 9.669285
53.530 9.887293
53.535 9.984358
53.540 9.665112
53.545 9.724705
53.550 10.424056
53.555 10.37012
53.560 9.944498
53.565 9.827542
53.570 9.632843
53.575 10.250804
53.580 10.027761
53.585 9.612363
53.590 10.063751
53.595 10.123322
53.600 10.17135
53.605 10.259661
53.610 10.173592
53.615 10.279794
53.620 10.239632
53.625 10.015767
53.630 10.304873
53.635 10.290294
53.640 10.201345
53.645 9.999405
53.650 9.99531
53.655 10.039347
53.660 10.403063
53.665 10.386831
53.670 10.647351
53.675 10.939898
53.680 10.839342
53.685 10.876334
53.690 11.071604
53.695 11.534635
53.700 11.953754
53.705 11.969437
53.710 11.950701
53.715 11.929988
53.720 12.057591
53.725 11.966206
53.730 11.4289
53.735 10.712019
53.740 10.209214
53.745 10.227962
53.750 10.355433
53.755 10.226698
53.760 10.213732
53.765 10.370918
53.770 10.612129
53.775 10.706333
53.780 10.840934
53.785 10.532829
53.790 10.685749
53.795 10.784937
53.800 11.484997
53.805 11.606557
53.810 11.679904
53.815 11.694352
53.820 11.76469
53.825 11.508869
53.830 10.506223
53.835 10.199826
53.840 9.853088
53.845 9.833907
53.850 9.635517
53.855 9.688493
53.860 9.832143
53.865 9.538352
53.870 9.284714
53.875 9.405295
53.880 9.604589
53.885 10.02063
53.890 10.170055
53.895 10.487623
53.900 10.970836
53.905 10.989304
53.910 10.984969
53.915 10.900916
53.920 10.538153
53.925 10.5287
53.930 10.254974
53.935 10.414452
53.940 10.555719
53.945 10.145293
53.950 10.190941
53.955 10.404945
53.960 10.51735
53.965 10.83017
53.970 11.380893
53.975 11.623668
53.980 12.074261
53.985 11.649708
53.990 11.314255
53.995 10.811633
54.000 10.609715
54.005 10.566186
54.010 10.48932
54.015 10.77805
54.020 11.480329
54.025 11.541466
54.030 11.81214
54.035 11.857698
54.040 11.905063
54.045 11.976915
54.050 11.273856
54.055 11.06391
54.060 11.219614
54.065 11.182325
54.070 10.93282
54.075 10.797606
54.080 11.390091
54.085 11.947084
54.090 11.263821
54.095 10.783912
54.100 10.27205
54.105 10.463571
54.110 10.529986
54.115 9.687729
54.120 9.468245
54.125 10.396958
54.130 11.09445
54.135 11.668278
54.140 11.243162
54.145 10.649196
54.150 10.49386
54.155 10.188308
54.160 10.391939
54.165 10.246823
54.170 10.050832
54.175 10.394863
54.180 10.7128
54.185 11.060657
54.190 11.063539
54.195 11.011767
54.200 11.453876
54.205 11.694813
54.210 11.439362
54.215 11.313092
54.220 11.159873
54.225 10.854331
54.230 10.941629
54.235 10.522977
54.240 10.171809
54.245 10.286836
54.250 10.654765
54.255 10.767625
54.260 10.687591
54.265 10.716385
54.270 11.038145
54.275 11.399017
54.280 11.881466
54.285 12.066337
54.290 12.262341
54.295 12.484335
54.300 12.32463
54.305 12.172295
54.310 12.259173
54.315 11.608401
54.320 11.437347
54.325 11.466347
54.330 11.282164
54.335 11.021149
54.340 11.104026
54.345 11.227436
54.350 11.658371
54.355 11.199274
54.360 11.031676
54.365 10.690306
54.370 10.571491
54.375 10.19628
54.380 9.857533
54.385 9.934043
54.390 10.449095
54.395 10.515813
54.400 10.844115
54.405 10.889031
54.410 11.125514
54.415 11.0724
54.420 10.652863
54.425 10.443439
54.430 10.304826
54.435 10.274922
54.440 10.360394
54.445 10.392266
54.450 10.833698
54.455 11.063311
54.460 11.41686
54.465 11.743138
54.470 11.943594
54.475 12.151837
54.480 12.051744
54.485 11.779446
54.490 11.694312
54.495 11.548568
54.500 11.260726
54.505 10.848058
54.510 11.088189
54.515 10.902766
54.520 10.850569
54.525 11.151143
54.530 11.467261
54.535 11.444125
54.540 11.481212
54.545 11.432368
54.550 12.156217
54.555 12.284285
54.560 11.745563
54.565 11.491517
54.570 11.739525
54.575 11.479541
54.580 11.29989
54.585 10.858087
54.590 10.755899
54.595 10.698106
54.600 10.47899
54.605 10.524319
54.610 10.986079
54.615 11.121937
54.620 11.195226
54.625 11.434178
54.630 11.442678
54.635 11.372713
54.640 11.354581
54.645 11.080758
54.650 10.712422
54.655 10.478245
54.660 10.413715
54.665 10.137034
54.670 9.739113
54.675 9.889331
54.680 10.147881
54.685 10.825077
54.690 10.693448
54.695 10.194951
54.700 10.513731
54.705 10.226115
54.710 9.764187
54.715 9.534733
54.720 9.390485
54.725 9.975428
54.730 10.42491
54.735 10.750721
54.740 11.541802
54.745 11.651541
54.750 11.315983
54.755 11.477942
54.760 11.556203
54.765 11.658668
54.770 11.938291
54.775 11.791471
54.780 11.786771
54.785 11.839507
54.790 11.68092
54.795 11.922815
54.800 11.717181
54.805 11.793065
54.810 11.861616
54.815 11.511356
54.820 11.229239
54.825 11.278615
54.830 10.783241
54.835 11.202179
54.840 10.608762
54.845 10.438643
54.850 11.084695
54.855 11.090146
54.860 11.62361
54.865 11.61978
54.870 11.805281
54.875 12.436862
54.880 12.73956
54.885 12.701229
54.890 12.633659
54.895 12.045598
54.900 11.955062
54.905 11.170881
54.910 10.703512
54.915 10.777905
54.920 10.914616
54.925 10.787497
54.930 10.496698
54.935 10.622499
54.940 10.576863
54.945 10.467363
54.950 9.50352
54.955 9.079496
54.960 9.649567
54.965 9.581878
54.970 9.755289
54.975 10.295088
54.980 11.000387
54.985 12.228236
54.990 13.11673
54.995 13.369271
55.000 13.641664
55.005 13.318096
55.010 13.10746
55.015 13.014998
55.020 12.142041
55.025 11.607968
55.030 11.299156
55.035 11.318423
55.040 11.269033
55.045 11.237949
55.050 11.324631
55.055 11.629937
55.060 11.443912
55.065 11.377367
55.070 11.945836
55.075 12.314305
55.080 12.24371
55.085 12.387239
55.090 11.943748
55.095 11.949163
55.100 11.931297
55.105 11.817752
55.110 11.841431
55.115 11.827403
55.120 11.298549
55.125 11.697539
55.130 11.752064
55.135 11.534073
55.140 11.601251
55.145 12.149536
55.150 12.332225
55.155 12.598862
55.160 12.328371
55.165 12.52073
55.170 12.570016
55.175 12.146852
55.180 11.844677
55.185 12.268581
55.190 12.856648
55.195 13.096349
55.200 13.371192
55.205 13.18317
55.210 12.793167
55.215 12.38499
55.220 11.990421
55.225 11.628775
55.230 10.821609
55.235 10.668509
55.240 11.270535
55.245 11.679379
55.250 11.77
55.255 11.699082
55.260 12.430435
55.265 13.111613
55.270 12.941496
55.275 12.743808
55.280 12.633807
55.285 12.349728
55.290 11.972371
55.295 11.656708
55.300 11.511574
55.305 11.469361
55.310 11.498418
55.315 11.686194
55.320 11.901504
55.325 12.497857
55.330 12.695624
55.335 12.636378
55.340 12.422935
55.345 12.446804
55.350 12.347943
55.355 12.723876
55.360 12.522519
55.365 12.027227
55.370 12.309174
55.375 12.620438
55.380 12.497713
55.385 12.365459
55.390 11.910295
55.395 11.810258
55.400 11.922117
55.405 11.869552
55.410 11.922378
55.415 11.800372
55.420 11.685729
55.425 11.300666
55.430 10.958143
55.435 11.202281
55.440 11.123564
55.445 11.075809
55.450 10.888825
55.455 11.036938
55.460 11.928614
55.465 12.812591
55.470 13.069786
55.475 12.861863
55.480 12.755594
55.485 13.098874
55.490 13.051969
55.495 12.969078
55.500 12.373896
55.505 12.059447
55.510 12.174355
55.515 12.568909
55.520 12.885671
55.525 12.912421
55.530 12.402582
55.535 12.398952
55.540 12.444805
55.545 12.364028
55.550 12.062511
55.555 11.945906
55.560 11.969993
55.565 12.044215
55.570 12.304054
55.575 12.590405
55.580 12.421242
55.585 12.519365
55.590 12.219835
55.595 12.467013
55.600 12.67725
55.605 12.420739
55.610 12.718791
55.615 12.690242
55.620 12.494502
55.625 12.960711
55.630 12.646693
55.635 12.170834
55.640 12.273274
55.645 12.205421
55.650 12.252544
55.655 12.182071
55.660 12.154433
55.665 12.220724
55.670 12.608893
55.675 12.280465
55.680 11.62415
55.685 11.51511
55.690 11.474669
55.695 10.874861
55.700 10.540457
55.705 10.380072
55.710 10.391589
55.715 10.836806
55.720 11.147738
55.725 11.415333
55.730 11.79496
55.735 12.388263
55.740 12.498699
55.745 12.478601
55.750 12.711177
55.755 12.516545
55.760 12.098724
55.765 11.94989
55.770 11.190598
55.775 11.201856
55.780 11.956124
55.785 11.97334
55.790 12.280992
55.795 12.329174
55.800 11.820943
55.805 12.144961
55.810 12.460716
55.815 12.155372
55.820 12.233241
55.825 12.418117
55.830 12.908274
55.835 13.660801
55.840 13.591458
55.845 13.890164
55.850 13.874599
55.855 13.331909
55.860 12.761614
55.865 12.327036
55.870 12.615378
55.875 12.963518
55.880 12.480694
55.885 12.86133
55.890 13.148065
55.895 13.626143
55.900 13.989941
55.905 14.101173
55.910 14.00749
55.915 13.953149
55.920 13.745275
55.925 13.803912
55.930 13.452657
55.935 13.285618
55.940 12.886347
55.945 12.935301
55.950 13.13656
55.955 13.2622
55.960 12.608162
55.965 12.886555
55.970 12.767968
55.975 12.061613
55.980 11.929315
55.985 11.678098
55.990 11.612295
55.995 11.968308
56.000 12.213857
56.005 12.835605
56.010 13.042773
56.015 12.581441
56.020 12.685719
56.025 12.929759
56.030 13.218818
56.035 13.030646
56.040 12.744533
56.045 13.071859
56.050 12.896735
56.055 12.32434
56.060 12.010811
56.065 11.747673
56.070 11.623834
56.075 11.66538
56.080 11.711104
56.085 11.675542
56.090 11.839956
56.095 12.453293
56.100 12.533751
56.105 12.422801
56.110 12.716541
56.115 12.964465
56.120 12.971863
56.125 13.071282
56.130 12.749079
56.135 13.090478
56.140 13.42105
56.145 12.30344
56.150 12.205903
56.155 12.636998
56.160 12.503698
56.165 12.21421
56.170 12.288175
56.175 11.843225
56.180 12.865428
56.185 13.506735
56.190 13.484519
56.195 13.676429
56.200 14.15
56.205 13.825219
56.210 14.310456
56.215 14.006357
56.220 13.50407
56.225 13.201556
56.230 12.957325
56.235 12.906676
56.240 13.303799
56.245 13.93469
56.250 14.517363
56.255 14.947868
56.260 15.546163
56.265 15.681959
56.270 15.297913
56.275 14.77673
56.280 13.847389
56.285 13.317674
56.290 13.288372
56.295 12.984562
56.300 12.986693
56.305 13.042738
56.310 13.111237
56.315 13.25025
56.320 12.751153
56.325 13.044071
56.330 13.249522
56.335 13.260825
56.340 13.337716
56.345 13.21489
56.350 12.957535
56.355 13.012046
56.360 12.220842
56.365 12.27842
56.370 12.746924
56.375 13.25067
56.380 13.76518
56.385 14.153419
56.390 14.418244
56.395 14.502378
56.400 14.191099
56.405 13.757778
56.410 13.652645
56.415 13.968172
56.420 14.039184
56.425 13.962594
56.430 14.145454
56.435 14.461249
56.440 14.524078
56.445 13.992432
56.450 13.398377
56.455 13.283514
56.460 13.531754
56.465 13.066167
56.470 12.620319
56.475 12.293416
56.480 12.341916
56.485 12.299351
56.490 12.756483
56.495 12.797125
56.500 13.252494
56.505 13.34868
56.510 13.34558
56.515 13.138121
56.520 13.305524
56.525 12.619965
56.530 12.422141
56.535 12.354939
56.540 12.764836
56.545 12.977603
56.550 13.156586
56.555 13.205626
56.560 13.481174
56.565 13.175365
56.570 12.68218
56.575 11.83532
56.580 11.666353
56.585 11.677637
56.590 11.71371
56.595 11.814675
56.600 12.038763
56.605 12.574667
56.610 12.969254
56.615 13.459356
56.620 13.514245
56.625 13.903897
56.630 14.223606
56.635 14.458762
56.640 14.3461
56.645 14.578318
56.650 14.283916
56.655 14.332677
56.660 14.289027
56.665 14.777363
56.670 14.991629
56.675 15.587943
56.680 15.622466
56.685 15.449445
56.690 15.229293
56.695 14.288064
56.700 14.136289
56.705 14.4942
56.710 14.451429
56.715 14.400516
56.720 14.649961
56.725 14.813359
56.730 14.767647
56.735 14.160799
56.740 13.787039
56.745 13.605901
56.750 13.595664
56.755 13.739785
56.760 13.990791
56.765 14.299002
56.770 14.570551
56.775 14.27561
56.780 14.204428
56.785 14.197043
56.790 13.688138
56.795 13.579541
56.800 14.020931
56.805 14.033295
56.810 14.37344
56.815 14.44174
56.820 14.470312
56.825 14.591258
56.830 14.36836
56.835 14.012185
56.840 13.788803
56.845 13.835361
56.850 13.960935
56.855 14.028831
56.860 13.935566
56.865 14.269095
56.870 14.549689
56.875 14.028221
56.880 13.331225
56.885 13.138054
56.890 13.128709
56.895 13.36504
56.900 13.179786
56.905 13.561128
56.910 14.208446
56.915 14.300295
56.920 14.411914
56.925 14.895833
56.930 15.035125
56.935 15.370323
56.940 15.047267
56.945 15.039215
56.950 15.335005
56.955 15.15867
56.960 14.645706
56.965 14.185785
56.970 13.854387
56.975 14.247355
56.980 13.98395
56.985 14.238605
56.990 14.613213
56.995 15.388095
57.000 15.697207
57.005 15.572084
57.010 15.58691
57.015 15.763752
57.020 15.33333
57.025 14.800673
57.030 13.893074
57.035 13.696403
57.040 13.540724
57.045 13.747252
57.050 14.387085
57.055 14.95373
57.060 15.073212
57.065 14.975033
57.070 14.673824
57.075 14.87686
57.080 14.493534
57.085 13.979074
57.090 13.472524
57.095 13.338026
57.100 14.09498
57.105 14.59511
57.110 14.604482
57.115 14.671883
57.120 14.8916
57.125 15.351525
57.130 15.730566
57.135 15.470171
57.140 15.164409
57.145 14.732289
57.150 13.885448
57.155 13.622238
57.160 13.310641
57.165 13.09016
57.170 13.372909
57.175 13.623678
57.180 13.843637
57.185 14.591636
57.190 14.834403
57.195 14.881059
57.200 15.03502
57.205 15.167556
57.210 15.650738
57.215 15.434419
57.220 14.946874
57.225 14.64299
57.230 14.605394
57.235 14.820011
57.240 14.895003
57.245 14.576429
57.250 14.749145
57.255 15.087758
57.260 15.148734
57.265 15.402444
57.270 15.510365
57.275 15.04048
57.280 15.357002
57.285 15.305346
57.290 15.441313
57.295 15.708209
57.300 15.687141
57.305 15.762612
57.310 15.605251
57.315 15.517558
57.320 15.933753
57.325 16.340963
57.330 16.684048
57.335 16.82494
57.340 16.594999
57.345 16.668047
57.350 16.728346
57.355 16.574345
57.360 16.524567
57.365 16.565882
57.370 16.576962
57.375 17.024328
57.380 17.392256
57.385 17.295391
57.390 17.029436
57.395 16.850142
57.400 16.441847
57.405 15.89664
57.410 15.292102
57.415 14.892627
57.420 14.597859
57.425 14.328279
57.430 14.31935
57.435 14.75811
57.440 15.390215
57.445 15.443061
57.450 15.669065
57.455 16.006523
57.460 16.144012
57.465 16.005795
57.470 15.945989
57.475 15.84748
57.480 15.982705
57.485 16.131586
57.490 16.195349
57.495 16.517017
57.500 17.081921
57.505 16.76082
57.510 16.428659
57.515 16.253006
57.520 15.927021
57.525 15.885311
57.530 15.201377
57.535 14.35168
57.540 14.364677
57.545 14.746165
57.550 15.19178
57.555 15.194437
57.560 15.236502
57.565 15.718466
57.570 15.928115
57.575 15.87903
57.580 15.56229
57.585 15.288262
57.590 15.461404
57.595 15.443019
57.600 15.985937
57.605 15.824286
57.610 15.826476
57.615 15.907097
57.620 16.093277
57.625 16.438839
57.630 16.146635
57.635 15.697746
57.640 16.045326
57.645 16.492178
57.650 16.526318
57.655 16.130529
57.660 15.705511
57.665 15.369518
57.670 15.02418
57.675 15.014302
57.680 14.36471
57.685 14.067913
57.690 13.908187
57.695 14.066422
57.700 14.457479
57.705 14.267131
57.710 14.051117
57.715 14.201547
57.720 14.291786
57.725 14.622094
57.730 14.581953
57.735 14.242859
57.740 14.448115
57.745 14.42999
57.750 14.725564
57.755 14.848213
57.760 14.700039
57.765 14.153147
57.770 14.462811
57.775 15.013162
57.780 15.223613
57.785 15.453084
57.790 15.801245
57.795 16.281908
57.800 16.903107
57.805 17.204012
57.810 16.951876
57.815 16.676535
57.820 15.957969
57.825 15.320802
57.830 15.160449
57.835 14.919261
57.840 14.364419
57.845 14.154102
57.850 14.387165
57.855 15.417808
57.860 15.930302
57.865 16.373699
57.870 16.87224
57.875 17.315371
57.880 17.540779
57.885 17.155954
57.890 16.705971
57.895 16.574326
57.900 16.243095
57.905 16.091753
57.910 15.041747
57.915 15.483695
57.920 16.103138
57.925 16.529463
57.930 16.611998
57.935 16.741518
57.940 16.476561
57.945 16.432501
57.950 15.99319
57.955 15.273911
57.960 14.933729
57.965 14.549161
57.970 14.103149
57.975 14.785532
57.980 15.592503
57.985 15.699391
57.990 15.770413
57.995 15.765852
58.000 16.20878
58.005 16.410139
58.010 16.169365
58.015 16.203709
58.020 15.816418
58.025 15.898788
58.030 15.825872
58.035 15.29168
58.040 14.797726
58.045 14.686893
58.050 14.51857
58.055 15.042444
58.060 15.433068
58.065 15.962468
58.070 16.680639
58.075 18.443794
58.080 18.532406
58.085 18.274588
58.090 18.301649
58.095 18.048786
58.100 17.805424
58.105 17.4189
58.110 16.601879
58.115 16.636547
58.120 17.324329
58.125 17.239357
58.130 17.268654
58.135 17.291103
58.140 17.35076
58.145 17.578279
58.150 17.26523
58.155 17.230974
58.160 17.225763
58.165 17.913092
58.170 18.354275
58.175 18.424772
58.180 18.458241
58.185 19.679543
58.190 19.861546
58.195 19.967024
58.200 19.511961
58.205 20.103706
58.210 20.909304
58.215 20.983521
58.220 20.483561
58.225 20.577391
58.230 20.752478
58.235 20.790022
58.240 19.992626
58.245 19.411106
58.250 18.640366
58.255 18.302219
58.260 18.630592
58.265 18.527641
58.270 18.890696
58.275 18.995441
58.280 19.439503
58.285 20.301447
58.290 20.041925
58.295 19.969679
58.300 20.38064
58.305 20.631723
58.310 21.156952
58.315 21.523487
58.320 21.693419
58.325 21.972639
58.330 21.773697
58.335 21.784912
58.340 21.878763
58.345 21.555655
58.350 21.890291
58.355 22.353371
58.360 22.916761
58.365 23.094614
58.370 22.982162
58.375 22.628149
58.380 22.206627
58.385 22.378721
58.390 21.956251
58.395 21.602018
58.400 21.921761
58.405 21.62973
58.410 21.480146
58.415 21.703981
58.420 21.515823
58.425 22.22197
58.430 22.453129
58.435 22.346542
58.440 23.253782
58.445 24.311316
58.450 24.568743
58.455 24.471807
58.460 24.290318
58.465 24.869577
