!@!!GADDS PLOTSO FILE: Chi integration type
!@!!Title/SampleName: map-4f
!@!!Comment: ?
!@!!User: Bruker Instrument Administrator
!@!!Site: University of Illinois Chicago
!@!!Frame: map-4f_01_000.gfrm
!@!!Wavelengths    1.54184   1.54056   1.54439
!@!!Frame angles: 2Theta: 63.000 Omega: 50.000 Phi: 0.000 Chi: 90.000
!@!!Integration range: 2Theta: 53.000 to 73.000  Gamma: -105.000 to -75.000
!@!!Integration method: bin normalized
!@!N
!@!SS
!@!M
!@!L 0.0 0.0 0.0 0.0
!@!XDegrees
!@!YCounts
53.000 10.843816
53.005 10.578175
53.010 10.467346
53.015 10.61524
53.020 10.417339
53.025 10.145884
53.030 10.239407
53.035 10.477452
53.040 10.674585
53.045 10.282319
53.050 9.98033
53.055 9.935866
53.060 10.296813
53.065 10.221832
53.070 10.322298
53.075 10.198806
53.080 10.423259
53.085 10.483871
53.090 10.214453
53.095 10.017501
53.100 9.794334
53.105 10.120687
53.110 10.4391
53.115 9.938471
53.120 10.54228
53.125 10.497124
53.130 10.671269
53.135 10.90309
53.140 10.660769
53.145 10.739392
53.150 11.028985
53.155 11.091735
53.160 11.318434
53.165 11.068676
53.170 10.968149
53.175 11.194701
53.180 10.948451
53.185 9.96456
53.190 9.236341
53.195 9.034974
53.200 8.824402
53.205 8.793829
53.210 8.490664
53.215 9.034812
53.220 10.050505
53.225 10.786065
53.230 10.881516
53.235 11.111459
53.240 10.854147
53.245 10.765208
53.250 10.132412
53.255 9.903796
53.260 9.786825
53.265 9.947595
53.270 9.773105
53.275 10.090963
53.280 10.239045
53.285 10.502236
53.290 10.342266
53.295 10.431984
53.300 10.601016
53.305 10.864678
53.310 10.78183
53.315 11.160153
53.320 11.576517
53.325 11.613866
53.330 11.801212
53.335 11.925193
53.340 12.342848
53.345 12.535254
53.350 12.039168
53.355 11.313712
53.360 11.028281
53.365 10.760284
53.370 10.957017
53.375 10.280282
53.380 10.29709
53.385 10.352077
53.390 10.636375
53.395 10.777267
53.400 10.468918
53.405 10.055996
53.410 10.358677
53.415 10.737299
53.420 10.418098
53.425 10.291031
53.430 10.455754
53.435 10.582839
53.440 10.656249
53.445 10.456766
53.450 10.834764
53.455 11.87804
53.460 12.459835
53.465 12.597996
53.470 12.299424
53.475 11.977036
53.480 11.615253
53.485 11.333306
53.490 10.927752
53.495 10.750692
53.500 10.87827
53.505 11.198773
53.510 11.889072
53.515 12.157463
53.520 11.883809
53.525 11.781714
53.530 11.994916
53.535 12.069235
53.540 11.875534
53.545 11.283582
53.550 11.058169
53.555 11.231421
53.560 11.755506
53.565 11.779234
53.570 11.993653
53.575 12.017842
53.580 12.340855
53.585 12.449613
53.590 12.35365
53.595 11.339374
53.600 11.029926
53.605 10.930158
53.610 11.195038
53.615 11.620194
53.620 12.156549
53.625 12.420739
53.630 12.441288
53.635 12.534092
53.640 12.622929
53.645 12.15377
53.650 11.613653
53.655 11.081759
53.660 10.608714
53.665 10.561227
53.670 10.206174
53.675 10.047468
53.680 10.044615
53.685 10.520154
53.690 10.752077
53.695 10.865748
53.700 11.402865
53.705 11.736697
53.710 11.946581
53.715 12.149934
53.720 11.357125
53.725 11.348435
53.730 11.262615
53.735 10.739217
53.740 10.532251
53.745 10.492613
53.750 10.437943
53.755 11.180741
53.760 11.980741
53.765 12.451184
53.770 12.652967
53.775 12.319972
53.780 12.191619
53.785 12.221585
53.790 12.119423
53.795 11.747852
53.800 11.323222
53.805 11.211951
53.810 11.90032
53.815 12.134341
53.820 11.676368
53.825 11.39633
53.830 10.822481
53.835 11.203681
53.840 11.628138
53.845 11.918546
53.850 12.185788
53.855 12.325161
53.860 11.921807
53.865 12.430127
53.870 12.122757
53.875 11.517056
53.880 11.210728
53.885 10.917641
53.890 11.211586
53.895 11.259228
53.900 10.885029
53.905 11.04076
53.910 10.675504
53.915 10.716425
53.920 10.618863
53.925 10.096516
53.930 10.5377
53.935 11.166388
53.940 11.355718
53.945 11.839005
53.950 12.225784
53.955 12.727725
53.960 12.808029
53.965 12.763566
53.970 12.537321
53.975 12.909393
53.980 12.377007
53.985 11.921049
53.990 11.776116
53.995 12.311773
54.000 11.822165
54.005 11.843857
54.010 11.837623
54.015 12.072806
54.020 11.993994
54.025 12.137731
54.030 11.753899
54.035 11.800744
54.040 11.478492
54.045 10.894361
54.050 10.535218
54.055 10.420414
54.060 10.26025
54.065 10.444377
54.070 10.583306
54.075 11.342377
54.080 11.90109
54.085 12.320333
54.090 12.457901
54.095 12.457599
54.100 12.680533
54.105 12.116329
54.110 11.629521
54.115 11.376605
54.120 11.269443
54.125 11.171504
54.130 11.132154
54.135 10.721956
54.140 11.042918
54.145 11.087782
54.150 11.184294
54.155 11.14975
54.160 11.457243
54.165 11.439665
54.170 11.30759
54.175 10.699035
54.180 10.76105
54.185 10.634036
54.190 10.166635
54.195 9.858165
54.200 10.053578
54.205 10.482317
54.210 10.683908
54.215 10.578392
54.220 10.544209
54.225 11.033039
54.230 11.128464
54.235 11.395548
54.240 11.514713
54.245 11.644816
54.250 11.835551
54.255 11.926027
54.260 11.30721
54.265 11.322165
54.270 11.272444
54.275 11.118024
54.280 11.314445
54.285 11.201411
54.290 11.71259
54.295 12.118932
54.300 12.094791
54.305 12.280191
54.310 12.468138
54.315 12.175716
54.320 12.137377
54.325 11.859895
54.330 11.888821
54.335 11.801846
54.340 11.535534
54.345 11.584915
54.350 12.008504
54.355 12.029053
54.360 11.697495
54.365 11.710292
54.370 12.169765
54.375 12.113885
54.380 11.747013
54.385 11.905159
54.390 12.37044
54.395 12.998195
54.400 13.055915
54.405 12.904428
54.410 12.685346
54.415 12.83083
54.420 12.711902
54.425 12.589395
54.430 11.923885
54.435 11.726872
54.440 12.06063
54.445 12.284778
54.450 12.309229
54.455 11.96364
54.460 12.022594
54.465 12.390675
54.470 11.977332
54.475 11.159251
54.480 11.432852
54.485 10.899859
54.490 11.225038
54.495 11.305506
54.500 11.364375
54.505 11.561634
54.510 11.79582
54.515 11.78492
54.520 12.107009
54.525 12.036435
54.530 12.281339
54.535 12.563183
54.540 13.026477
54.545 12.725606
54.550 12.689491
54.555 12.70354
54.560 12.829238
54.565 12.870738
54.570 12.804132
54.575 12.803767
54.580 13.272487
54.585 13.370551
54.590 12.62473
54.595 12.19309
54.600 11.625628
54.605 11.538984
54.610 11.456849
54.615 11.561393
54.620 11.856809
54.625 12.291778
54.630 11.941621
54.635 11.886805
54.640 12.012168
54.645 12.094838
54.650 11.536933
54.655 11.476828
54.660 11.701197
54.665 12.249137
54.670 12.170583
54.675 11.98204
54.680 11.485083
54.685 11.651449
54.690 12.006093
54.695 12.080857
54.700 12.201703
54.705 12.456177
54.710 12.237664
54.715 12.894797
54.720 12.847851
54.725 11.838025
54.730 11.759264
54.735 11.096827
54.740 11.30323
54.745 11.314798
54.750 11.030322
54.755 11.096032
54.760 11.036152
54.765 11.123604
54.770 11.568397
54.775 11.491904
54.780 11.448412
54.785 11.596974
54.790 12.210633
54.795 12.478316
54.800 12.717254
54.805 12.827722
54.810 12.804233
54.815 13.08644
54.820 12.903646
54.825 12.514248
54.830 12.580893
54.835 12.220299
54.840 12.152018
54.845 12.619854
54.850 12.651662
54.855 12.677987
54.860 12.66898
54.865 12.920288
54.870 13.361377
54.875 13.116345
54.880 12.982496
54.885 12.676818
54.890 12.764687
54.895 13.097561
54.900 12.978959
54.905 12.650713
54.910 13.070865
54.915 13.138294
54.920 13.171815
54.925 12.951004
54.930 12.70013
54.935 12.652059
54.940 12.774845
54.945 12.672487
54.950 12.846355
54.955 12.690329
54.960 12.164049
54.965 12.211277
54.970 12.25981
54.975 11.806651
54.980 11.642031
54.985 11.428917
54.990 12.119488
54.995 12.530484
55.000 12.234052
55.005 11.970868
55.010 12.174964
55.015 12.301487
55.020 12.232037
55.025 12.00901
55.030 12.428246
55.035 13.063604
55.040 13.004338
55.045 13.265532
55.050 13.672014
55.055 13.316961
55.060 13.233317
55.065 13.379153
55.070 13.565679
55.075 13.468789
55.080 12.882798
55.085 12.640481
55.090 12.940269
55.095 12.445599
55.100 11.572636
55.105 11.052685
55.110 11.518175
55.115 11.4381
55.120 11.189514
55.125 11.298206
55.130 11.677102
55.135 12.08466
55.140 12.378434
55.145 12.280721
55.150 12.707555
55.155 13.137381
55.160 13.431175
55.165 13.234723
55.170 12.937757
55.175 12.856606
55.180 12.97508
55.185 13.039621
55.190 12.939103
55.195 13.005802
55.200 12.859149
55.205 12.894751
55.210 13.248219
55.215 13.277781
55.220 13.243754
55.225 12.997743
55.230 12.797459
55.235 13.296362
55.240 13.340792
55.245 12.963139
55.250 13.022205
55.255 13.030809
55.260 13.012705
55.265 13.157914
55.270 12.773092
55.275 13.031954
55.280 13.009171
55.285 12.824277
55.290 12.354688
55.295 12.614068
55.300 12.814535
55.305 12.941378
55.310 12.810016
55.315 12.737197
55.320 12.762868
55.325 13.445859
55.330 13.130007
55.335 12.87283
55.340 12.987161
55.345 12.707519
55.350 12.609976
55.355 12.678395
55.360 12.55713
55.365 13.135951
55.370 13.177293
55.375 12.57501
55.380 13.276003
55.385 13.315867
55.390 13.444453
55.395 13.566031
55.400 13.236919
55.405 13.563422
55.410 13.781893
55.415 13.698138
55.420 13.756932
55.425 13.430686
55.430 13.173217
55.435 12.672956
55.440 12.63567
55.445 12.929967
55.450 12.910217
55.455 12.85134
55.460 13.177752
55.465 13.33955
55.470 13.87334
55.475 14.069178
55.480 13.839579
55.485 13.49773
55.490 13.174477
55.495 12.933247
55.500 12.704405
55.505 12.238548
55.510 12.149971
55.515 12.058258
55.520 11.931378
55.525 12.030056
55.530 11.663243
55.535 12.060035
55.540 12.114047
55.545 11.905697
55.550 12.080533
55.555 12.101175
55.560 12.58285
55.565 13.187272
55.570 12.519236
55.575 12.705826
55.580 13.182826
55.585 12.963872
55.590 12.873518
55.595 12.40042
55.600 12.49741
55.605 12.616179
55.610 12.615776
55.615 12.391519
55.620 12.496655
55.625 12.701142
55.630 12.711006
55.635 12.615097
55.640 13.18832
55.645 12.957889
55.650 13.324561
55.655 13.512831
55.660 13.262611
55.665 13.205161
55.670 12.322691
55.675 11.860928
55.680 11.703752
55.685 11.732887
55.690 11.531876
55.695 11.105859
55.700 11.09173
55.705 11.410858
55.710 11.768543
55.715 11.908623
55.720 11.651155
55.725 12.106577
55.730 12.761872
55.735 13.057446
55.740 12.605602
55.745 12.420049
55.750 12.384872
55.755 12.112204
55.760 12.010593
55.765 12.032311
55.770 12.076108
55.775 13.044784
55.780 13.106826
55.785 13.079206
55.790 13.796194
55.795 14.116753
55.800 13.446513
55.805 13.841844
55.810 13.534102
55.815 13.535555
55.820 13.632758
55.825 13.234402
55.830 13.268489
55.835 13.596901
55.840 13.551413
55.845 13.097494
55.850 13.573522
55.855 13.611561
55.860 13.179386
55.865 13.237464
55.870 12.731005
55.875 12.42688
55.880 12.377911
55.885 11.666413
55.890 11.729477
55.895 11.876718
55.900 11.917184
55.905 12.539183
55.910 12.875953
55.915 13.466094
55.920 14.041247
55.925 14.527697
55.930 15.106799
55.935 15.255342
55.940 15.433056
55.945 15.209696
55.950 15.412414
55.955 15.04948
55.960 14.730728
55.965 14.188352
55.970 14.025498
55.975 14.531792
55.980 14.114304
55.985 13.464248
55.990 13.573248
55.995 13.412361
56.000 13.595301
56.005 13.447467
56.010 13.373157
56.015 13.877112
56.020 14.123304
56.025 13.744893
56.030 13.931074
56.035 13.807395
56.040 13.344003
56.045 13.328433
56.050 13.272415
56.055 13.106756
56.060 13.045025
56.065 12.676968
56.070 12.954449
56.075 13.196588
56.080 13.095108
56.085 12.82596
56.090 12.622112
56.095 13.412175
56.100 13.852551
56.105 13.813272
56.110 13.599964
56.115 13.445114
56.120 13.583472
56.125 13.475441
56.130 13.340254
56.135 13.33896
56.140 13.098832
56.145 13.225542
56.150 12.834307
56.155 12.864098
56.160 12.364395
56.165 12.065737
56.170 12.516876
56.175 12.933641
56.180 12.983769
56.185 12.681729
56.190 12.618122
56.195 13.147662
56.200 13.158105
56.205 12.643307
56.210 12.95317
56.215 13.699985
56.220 14.682965
56.225 15.436073
56.230 16.032284
56.235 16.077639
56.240 16.059675
56.245 15.703077
56.250 15.109936
56.255 14.481043
56.260 14.128663
56.265 13.864222
56.270 13.997522
56.275 14.281006
56.280 14.424145
56.285 14.461471
56.290 15.163424
56.295 15.225851
56.300 14.956589
56.305 14.875118
56.310 14.827084
56.315 14.36514
56.320 14.152056
56.325 13.722161
56.330 13.506621
56.335 13.401401
56.340 13.138555
56.345 12.877854
56.350 13.246615
56.355 13.689104
56.360 13.762154
56.365 13.529003
56.370 13.021455
56.375 12.415116
56.380 12.009828
56.385 11.825032
56.390 11.445853
56.395 11.157301
56.400 11.409268
56.405 11.957687
56.410 12.385633
56.415 12.633335
56.420 12.409389
56.425 12.648501
56.430 13.5065
56.435 13.353148
56.440 13.391581
56.445 13.433696
56.450 14.060341
56.455 13.970304
56.460 14.446846
56.465 13.642014
56.470 13.535185
56.475 13.786869
56.480 13.617115
56.485 13.314806
56.490 13.420386
56.495 12.978372
56.500 13.217853
56.505 13.265807
56.510 13.373382
56.515 13.444111
56.520 13.650542
56.525 13.633604
56.530 13.567117
56.535 13.623986
56.540 13.946503
56.545 13.965778
56.550 14.192055
56.555 14.075459
56.560 13.931419
56.565 13.555275
56.570 13.290935
56.575 12.969865
56.580 13.251007
56.585 13.090571
56.590 12.928074
56.595 13.103335
56.600 13.376101
56.605 13.672115
56.610 13.565575
56.615 13.284333
56.620 13.718742
56.625 13.516966
56.630 13.238536
56.635 13.023379
56.640 12.996783
56.645 13.282236
56.650 13.424751
56.655 13.176555
56.660 13.741317
56.665 13.89091
56.670 14.016779
56.675 14.019069
56.680 13.436728
56.685 13.70363
56.690 14.384617
56.695 14.464309
56.700 14.580247
56.705 14.726715
56.710 14.922579
56.715 15.074323
56.720 14.834653
56.725 14.186066
56.730 14.089796
56.735 13.819233
56.740 14.247518
56.745 14.392911
56.750 14.509527
56.755 14.90105
56.760 15.521181
56.765 16.402731
56.770 16.914637
56.775 16.481157
56.780 16.636822
56.785 16.840666
56.790 16.876511
56.795 16.804996
56.800 15.96272
56.805 15.826145
56.810 16.168648
56.815 16.022177
56.820 15.904709
56.825 15.808057
56.830 15.809963
56.835 16.041424
56.840 16.013365
56.845 15.769758
56.850 15.52767
56.855 15.242633
56.860 14.861702
56.865 14.886487
56.870 14.845621
56.875 14.6831
56.880 15.018274
56.885 14.688389
56.890 14.605837
56.895 14.491029
56.900 14.613816
56.905 14.899229
56.910 14.356541
56.915 13.993234
56.920 14.00352
56.925 14.253087
56.930 13.800316
56.935 13.32
56.940 13.361782
56.945 13.825131
56.950 13.93252
56.955 14.372942
56.960 14.088143
56.965 14.158815
56.970 13.777953
56.975 13.972248
56.980 14.214472
56.985 14.52648
56.990 14.602468
56.995 15.357513
57.000 15.62652
57.005 15.797821
57.010 15.117113
57.015 14.886585
57.020 14.871967
57.025 14.755525
57.030 14.399346
57.035 14.71025
57.040 14.227114
57.045 14.195549
57.050 14.334538
57.055 14.001399
57.060 13.750432
57.065 13.322603
57.070 13.38644
57.075 14.33602
57.080 14.553744
57.085 14.547988
57.090 14.531153
57.095 14.505677
57.100 15.060006
57.105 15.336837
57.110 15.44257
57.115 15.491107
57.120 15.515173
57.125 16.247633
57.130 16.544666
57.135 16.399858
57.140 15.824782
57.145 16.206015
57.150 16.317379
57.155 15.792896
57.160 15.069226
57.165 14.987228
57.170 14.448065
57.175 14.277255
57.180 13.582163
57.185 13.53948
57.190 14.840397
57.195 15.567313
57.200 15.563659
57.205 16.150883
57.210 16.075781
57.215 16.222126
57.220 15.901137
57.225 15.211283
57.230 14.906241
57.235 14.588531
57.240 14.029231
57.245 14.332372
57.250 14.659729
57.255 14.598539
57.260 14.185731
57.265 13.857511
57.270 14.033529
57.275 14.296172
57.280 14.487529
57.285 14.679468
57.290 14.864737
57.295 15.137594
57.300 15.493052
57.305 15.54763
57.310 15.638052
57.315 15.598883
57.320 15.294986
57.325 14.991418
57.330 14.837806
57.335 15.018999
57.340 15.310472
57.345 15.526395
57.350 15.227612
57.355 15.276449
57.360 16.039459
57.365 16.871065
57.370 16.541702
57.375 16.060232
57.380 15.336637
57.385 15.732251
57.390 15.798473
57.395 15.129841
57.400 14.429581
57.405 14.843483
57.410 15.19547
57.415 15.809285
57.420 16.347128
57.425 16.353954
57.430 16.28397
57.435 16.113199
57.440 16.118462
57.445 16.212137
57.450 15.290499
57.455 14.522194
57.460 14.701257
57.465 15.037704
57.470 14.800736
57.475 14.834004
57.480 14.81094
57.485 14.901867
57.490 14.516989
57.495 14.238332
57.500 14.392456
57.505 14.710491
57.510 14.258582
57.515 14.528611
57.520 14.677545
57.525 15.21235
57.530 15.052805
57.535 14.908833
57.540 14.901588
57.545 15.398066
57.550 15.489549
57.555 15.563801
57.560 15.264609
57.565 15.899608
57.570 16.211731
57.575 16.347612
57.580 16.182518
57.585 16.242434
57.590 16.963932
57.595 17.431118
57.600 17.18211
57.605 16.670179
57.610 16.677376
57.615 16.782913
57.620 16.616987
57.625 16.056772
57.630 15.874557
57.635 16.461308
57.640 16.807327
57.645 16.775469
57.650 16.672028
57.655 17.058338
57.660 17.181391
57.665 17.043789
57.670 17.063673
57.675 16.973326
57.680 16.363052
57.685 15.79146
57.690 15.619394
57.695 15.189219
57.700 15.033366
57.705 14.974361
57.710 15.653933
57.715 16.014004
57.720 16.54826
57.725 16.369776
57.730 16.687006
57.735 16.433386
57.740 16.056694
57.745 15.368613
57.750 15.36107
57.755 15.62587
57.760 15.855365
57.765 16.221077
57.770 16.507576
57.775 17.077574
57.780 17.921194
57.785 18.501347
57.790 18.282307
57.795 18.068493
57.800 17.814674
57.805 17.778103
57.810 17.331383
57.815 17.284712
57.820 16.949392
57.825 17.306404
57.830 17.520399
57.835 17.316326
57.840 17.116901
57.845 16.807877
57.850 16.769341
57.855 16.534519
57.860 16.000967
57.865 16.104101
57.870 16.38942
57.875 16.398598
57.880 16.571812
57.885 16.421736
57.890 16.561481
57.895 16.764076
57.900 16.442833
57.905 16.604937
57.910 16.468552
57.915 16.496386
57.920 16.464676
57.925 16.606535
57.930 16.73192
57.935 17.054476
57.940 16.662031
57.945 16.814096
57.950 16.790747
57.955 16.742704
57.960 16.549522
57.965 16.418085
57.970 16.526402
57.975 17.131742
57.980 17.419802
57.985 17.309103
57.990 17.311098
57.995 17.216419
58.000 16.879988
58.005 16.122086
58.010 15.596526
58.015 15.218104
58.020 15.642899
58.025 16.258968
58.030 16.760038
58.035 17.265194
58.040 17.905901
58.045 18.470062
58.050 18.870308
58.055 18.976074
58.060 19.138123
58.065 18.610554
58.070 18.503601
58.075 18.884907
58.080 19.167471
58.085 19.164724
58.090 18.755232
58.095 18.51099
58.100 18.776323
58.105 18.776506
58.110 18.476736
58.115 17.939903
58.120 17.567165
58.125 17.691196
58.130 17.791697
58.135 17.829449
58.140 18.272064
58.145 18.413622
58.150 18.147778
58.155 18.561922
58.160 18.435925
58.165 18.374973
58.170 18.788942
58.175 18.665667
58.180 18.720804
58.185 18.998018
58.190 18.819115
58.195 18.747499
58.200 19.386759
58.205 19.31119
58.210 18.653685
58.215 18.272322
58.220 18.173941
58.225 18.415579
58.230 18.373642
58.235 18.143543
58.240 18.152235
58.245 18.704626
58.250 18.680414
58.255 18.498615
58.260 18.647602
58.265 19.110903
58.270 19.050064
58.275 19.108908
58.280 18.697037
58.285 19.133232
58.290 19.553646
58.295 19.707397
58.300 19.647943
58.305 20.426889
58.310 20.828459
58.315 22.151537
58.320 21.987398
58.325 22.39188
58.330 22.247866
58.335 22.54565
58.340 22.332348
58.345 22.144922
58.350 22.048721
58.355 22.723053
58.360 22.6696
58.365 23.421356
58.370 23.150059
58.375 23.521469
58.380 23.932522
58.385 24.274893
58.390 24.354084
58.395 24.589241
58.400 25.110512
58.405 25.777393
58.410 25.928417
58.415 26.526644
58.420 25.853876
58.425 25.730644
58.430 26.068306
58.435 25.669014
58.440 26.107574
