!@!!GADDS PLOTSO FILE: Chi integration type
!@!!Title/SampleName: map-110
!@!!Comment: ?
!@!!User: Bruker Instrument Administrator
!@!!Site: University of Illinois Chicago
!@!!Frame: map-110_01_000.gfrm
!@!!Wavelengths    1.54184   1.54056   1.54439
!@!!Frame angles: 2Theta: 63.000 Omega: 50.000 Phi: 0.000 Chi: 90.000
!@!!Integration range: 2Theta: 53.000 to 73.000  Gamma: -105.000 to -75.000
!@!!Integration method: bin normalized
!@!N
!@!SS
!@!M
!@!L 0.0 0.0 0.0 0.0
!@!XDegrees
!@!YCounts
53.000 7.614722
53.005 7.594124
53.010 7.367694
53.015 7.082787
53.020 6.76572
53.025 6.544513
53.030 6.575867
53.035 6.884998
53.040 7.189029
53.045 7.571727
53.050 8.320932
53.055 8.817556
53.060 8.76497
53.065 8.242135
53.070 8.033473
53.075 8.181999
53.080 8.036741
53.085 7.530306
53.090 7.265075
53.095 7.366956
53.100 7.465939
53.105 7.447504
53.110 7.096254
53.115 7.119021
53.120 7.213756
53.125 7.386425
53.130 7.416802
53.135 7.276208
53.140 7.333417
53.145 7.656861
53.150 7.9917
53.155 8.375896
53.160 8.336155
53.165 8.780151
53.170 8.774918
53.175 8.325395
53.180 7.948272
53.185 7.702071
53.190 7.677727
53.195 7.980841
53.200 7.839879
53.205 8.192022
53.210 8.354959
53.215 8.312503
53.220 8.178696
53.225 7.990455
53.230 8.144957
53.235 7.605394
53.240 7.502677
53.245 7.555356
53.250 7.559041
53.255 7.782882
53.260 7.560012
53.265 7.518961
53.270 8.008936
53.275 8.491458
53.280 8.549345
53.285 8.33805
53.290 7.964314
53.295 7.84851
53.300 7.711754
53.305 7.801934
53.310 7.961854
53.315 8.300239
53.320 8.627089
53.325 9.02465
53.330 9.328463
53.335 9.206063
53.340 8.946802
53.345 8.613242
53.350 9.16415
53.355 9.434002
53.360 9.110295
53.365 9.062626
53.370 9.745219
53.375 9.488906
53.380 9.518124
53.385 9.119268
53.390 9.36917
53.395 10.092826
53.400 10.242821
53.405 9.964936
53.410 9.797114
53.415 9.565007
53.420 9.304611
53.425 8.974525
53.430 8.553475
53.435 8.025305
53.440 8.277611
53.445 8.425739
53.450 8.18912
53.455 8.243781
53.460 8.069059
53.465 8.287643
53.470 7.941131
53.475 8.0797
53.480 8.42637
53.485 8.751311
53.490 8.584301
53.495 8.624743
53.500 8.803235
53.505 9.037578
53.510 8.781492
53.515 8.667692
53.520 8.526498
53.525 8.772084
53.530 8.548047
53.535 8.455227
53.540 8.431728
53.545 8.18551
53.550 7.991962
53.555 8.172767
53.560 8.090321
53.565 8.33868
53.570 8.380279
53.575 8.999637
53.580 9.226612
53.585 9.201159
53.590 9.507932
53.595 9.34641
53.600 9.186829
53.605 9.223763
53.610 8.719879
53.615 8.699944
53.620 8.149742
53.625 7.995155
53.630 7.900532
53.635 7.572911
53.640 7.192191
53.645 7.398699
53.650 7.630302
53.655 7.828636
53.660 7.629382
53.665 8.011961
53.670 8.754354
53.675 9.006234
53.680 8.646751
53.685 8.591528
53.690 8.793186
53.695 9.016297
53.700 8.717078
53.705 8.393611
53.710 8.574152
53.715 8.788404
53.720 9.139112
53.725 9.243606
53.730 9.03829
53.735 8.871643
53.740 9.376116
53.745 8.989655
53.750 9.220472
53.755 8.732479
53.760 8.350876
53.765 8.55436
53.770 8.306574
53.775 8.050989
53.780 8.349025
53.785 8.350435
53.790 8.988346
53.795 9.159396
53.800 9.064676
53.805 9.037328
53.810 8.921678
53.815 8.789109
53.820 8.274828
53.825 7.902967
53.830 7.912122
53.835 8.456968
53.840 8.725336
53.845 8.92947
53.850 8.977309
53.855 8.942025
53.860 9.076832
53.865 8.826801
53.870 8.45949
53.875 8.539226
53.880 8.271339
53.885 8.181558
53.890 8.484942
53.895 8.610744
53.900 8.931441
53.905 8.783884
53.910 8.796642
53.915 9.23755
53.920 9.597752
53.925 9.864037
53.930 10.457749
53.935 10.198995
53.940 10.217009
53.945 9.959176
53.950 9.681462
53.955 9.508839
53.960 8.759124
53.965 8.307961
53.970 8.719484
53.975 8.814519
53.980 8.835374
53.985 8.679511
53.990 8.850327
53.995 8.523223
54.000 8.318542
54.005 7.943625
54.010 8.020644
54.015 8.11841
54.020 8.384654
54.025 8.662938
54.030 8.701348
54.035 8.697682
54.040 8.680927
54.045 8.566325
54.050 8.30934
54.055 8.147193
54.060 8.440262
54.065 9.001725
54.070 9.140862
54.075 9.291083
54.080 9.627019
54.085 9.904428
54.090 9.51599
54.095 9.335474
54.100 9.258692
54.105 9.244743
54.110 9.347302
54.115 9.304137
54.120 9.574344
54.125 9.552869
54.130 9.674866
54.135 9.983073
54.140 9.580564
54.145 9.266924
54.150 8.963062
54.155 8.819292
54.160 8.964863
54.165 8.606654
54.170 8.239382
54.175 8.109498
54.180 8.251107
54.185 8.349578
54.190 8.392817
54.195 8.404524
54.200 8.714057
54.205 9.134423
54.210 9.57822
54.215 9.295374
54.220 9.35677
54.225 10.022779
54.230 10.011292
54.235 9.733345
54.240 9.368008
54.245 9.514797
54.250 9.717265
54.255 9.538489
54.260 9.0322
54.265 9.068164
54.270 9.665637
54.275 10.252672
54.280 10.097234
54.285 10.09083
54.290 9.881817
54.295 9.884822
54.300 9.573622
54.305 8.652936
54.310 8.212519
54.315 7.925729
54.320 7.696252
54.325 7.741555
54.330 7.902055
54.335 8.457327
54.340 9.104546
54.345 9.668017
54.350 9.94729
54.355 9.915244
54.360 10.02473
54.365 9.643357
54.370 9.18857
54.375 8.987417
54.380 8.537369
54.385 8.854909
54.390 9.53576
54.395 9.416687
54.400 9.822923
54.405 9.945374
54.410 9.928159
54.415 9.70657
54.420 9.157636
54.425 8.970664
54.430 8.921229
54.435 8.924407
54.440 9.296025
54.445 10.02817
54.450 10.649778
54.455 10.98025
54.460 10.99862
54.465 11.213713
54.470 10.83218
54.475 9.940105
54.480 9.349622
54.485 9.17103
54.490 9.091614
54.495 9.039876
54.500 8.513265
54.505 8.789104
54.510 8.9967
54.515 9.043722
54.520 9.23294
54.525 9.2699
54.530 9.130548
54.535 9.471069
54.540 9.41132
54.545 9.386506
54.550 9.254835
54.555 9.085136
54.560 8.961408
54.565 9.151879
54.570 9.063623
54.575 8.648157
54.580 8.403722
54.585 8.114432
54.590 7.833607
54.595 7.712735
54.600 7.694576
54.605 7.867059
54.610 8.677721
54.615 9.124817
54.620 9.512056
54.625 9.941294
54.630 10.021214
54.635 9.983232
54.640 9.990838
54.645 9.886711
54.650 9.660224
54.655 9.336377
54.660 9.084252
54.665 9.079871
54.670 8.748004
54.675 8.786453
54.680 8.986367
54.685 9.393904
54.690 9.414824
54.695 9.203081
54.700 9.284225
54.705 9.293032
54.710 9.29214
54.715 8.764222
54.720 8.544491
54.725 8.619475
54.730 8.833792
54.735 9.038872
54.740 9.426904
54.745 9.366657
54.750 8.973638
54.755 8.942889
54.760 9.076259
54.765 9.324227
54.770 9.463151
54.775 9.167311
54.780 9.173278
54.785 9.689066
54.790 9.781819
54.795 9.472439
54.800 9.00592
54.805 8.371037
54.810 8.174162
54.815 8.172201
54.820 8.371079
54.825 8.689134
54.830 9.161507
54.835 9.397525
54.840 10.092686
54.845 10.205755
54.850 10.087771
54.855 9.526845
54.860 9.376379
54.865 9.161316
54.870 9.264691
54.875 9.387167
54.880 9.942296
54.885 10.431767
54.890 10.799125
54.895 10.590937
54.900 10.027857
54.905 10.092054
54.910 9.644134
54.915 9.336811
54.920 8.914217
54.925 9.109484
54.930 9.444864
54.935 9.893995
54.940 9.683209
54.945 9.865245
54.950 10.005878
54.955 9.683667
54.960 8.968471
54.965 9.136978
54.970 9.129991
54.975 8.661487
54.980 8.204751
54.985 7.871899
54.990 7.993735
54.995 8.679729
55.000 8.475807
55.005 8.734528
55.010 9.133974
55.015 9.393531
55.020 9.671165
55.025 9.462884
55.030 8.921305
55.035 8.881588
55.040 8.607791
55.045 8.564988
55.050 8.942492
55.055 9.210108
55.060 9.496714
55.065 9.443749
55.070 9.325227
55.075 9.400341
55.080 9.144454
55.085 8.832865
55.090 8.47175
55.095 8.863126
55.100 9.203724
55.105 9.127627
55.110 9.486141
55.115 9.572366
55.120 9.320796
55.125 8.949266
55.130 8.595418
55.135 8.656024
55.140 9.070844
55.145 8.988732
55.150 8.807285
55.155 9.037251
55.160 9.286053
55.165 9.049709
55.170 9.034019
55.175 8.483192
55.180 8.436674
55.185 8.996922
55.190 9.917748
55.195 10.197996
55.200 10.477048
55.205 10.416357
55.210 10.857166
55.215 11.252048
55.220 10.930482
55.225 10.204196
55.230 10.111265
55.235 10.244953
55.240 10.421201
55.245 10.281008
55.250 10.001056
55.255 10.007635
55.260 9.635645
55.265 9.909913
55.270 9.895257
55.275 9.794156
55.280 9.66807
55.285 9.973551
55.290 10.050189
55.295 10.283908
55.300 10.007821
55.305 10.053778
55.310 9.94823
55.315 9.774825
55.320 9.905487
55.325 10.354329
55.330 10.054906
55.335 9.525214
55.340 9.31129
55.345 9.657621
55.350 9.934218
55.355 9.47335
55.360 9.411036
55.365 9.847056
55.370 10.261564
55.375 10.282402
55.380 9.993609
55.385 9.852474
55.390 9.710788
55.395 9.542806
55.400 9.201089
55.405 9.041351
55.410 9.119853
55.415 9.368643
55.420 9.60039
55.425 9.402133
55.430 9.202219
55.435 9.511857
55.440 9.702038
55.445 9.226469
55.450 8.890574
55.455 8.968394
55.460 9.191655
55.465 9.433564
55.470 9.578209
55.475 9.812757
55.480 10.388936
55.485 10.441609
55.490 10.140822
55.495 10.173401
55.500 10.263485
55.505 10.115526
55.510 9.722949
55.515 9.856085
55.520 9.558908
55.525 9.61913
55.530 9.881176
55.535 9.872487
55.540 9.984844
55.545 9.781259
55.550 10.083837
55.555 10.468917
55.560 10.198447
55.565 9.960756
55.570 10.209906
55.575 9.975989
55.580 9.86731
55.585 9.405412
55.590 9.566888
55.595 9.768768
55.600 9.819535
55.605 9.738019
55.610 10.454265
55.615 10.842583
55.620 11.400831
55.625 11.320553
55.630 11.478733
55.635 11.52751
55.640 11.414073
55.645 11.40608
55.650 11.158712
55.655 10.989415
55.660 10.637897
55.665 10.520987
55.670 10.39665
55.675 10.109995
55.680 9.898266
55.685 9.884813
55.690 9.386893
55.695 9.440777
55.700 9.893619
55.705 10.306591
55.710 10.349266
55.715 10.64586
55.720 10.87813
55.725 11.875486
55.730 11.902689
55.735 11.030791
55.740 10.265882
55.745 10.242051
55.750 10.208349
55.755 9.679039
55.760 8.596064
55.765 8.239043
55.770 8.621412
55.775 8.96879
55.780 8.857885
55.785 8.439476
55.790 8.581771
55.795 8.859614
55.800 9.138304
55.805 9.542089
55.810 9.738752
55.815 10.371333
55.820 10.661171
55.825 10.893099
55.830 11.257544
55.835 11.136567
55.840 10.276579
55.845 10.493127
55.850 10.28443
55.855 10.230204
55.860 10.313692
55.865 9.9374
55.870 10.130527
55.875 10.162517
55.880 9.655373
55.885 9.418499
55.890 9.752831
55.895 10.222571
55.900 10.157544
55.905 10.48338
55.910 11.149893
55.915 10.833597
55.920 10.577028
55.925 9.856014
55.930 9.855496
55.935 10.410813
55.940 9.993156
55.945 9.993972
55.950 10.203108
55.955 11.010403
55.960 11.541862
55.965 11.708858
55.970 11.769338
55.975 11.660893
55.980 11.492784
55.985 11.563653
55.990 10.916391
55.995 10.175558
56.000 9.525022
56.005 9.218114
56.010 9.950292
56.015 9.775539
56.020 9.631301
56.025 10.146697
56.030 10.058315
56.035 10.445124
56.040 10.411924
56.045 10.104428
56.050 10.3289
56.055 10.593174
56.060 10.305754
56.065 10.644094
56.070 10.502026
56.075 10.634971
56.080 10.884338
56.085 10.985291
56.090 10.757921
56.095 11.192245
56.100 11.149706
56.105 11.077142
56.110 10.739842
56.115 10.184947
56.120 10.108301
56.125 9.930121
56.130 9.623816
56.135 9.709059
56.140 9.513469
56.145 9.845132
56.150 9.914989
56.155 10.137835
56.160 10.034827
56.165 9.922269
56.170 10.144988
56.175 10.299765
56.180 10.048898
56.185 10.119522
56.190 9.964422
56.195 9.910136
56.200 10.11475
56.205 10.076374
56.210 9.986609
56.215 10.451322
56.220 10.441835
56.225 10.292223
56.230 10.298334
56.235 10.282596
56.240 10.258717
56.245 10.434121
56.250 10.449189
56.255 10.701463
56.260 10.842599
56.265 11.029659
56.270 11.372145
56.275 11.562472
56.280 11.257701
56.285 10.88999
56.290 10.868393
56.295 11.119032
56.300 10.836587
56.305 10.74154
56.310 10.720091
56.315 10.587612
56.320 10.5035
56.325 10.627555
56.330 10.89069
56.335 10.878965
56.340 10.498832
56.345 10.265599
56.350 10.485729
56.355 10.244365
56.360 10.017079
56.365 9.946902
56.370 9.390032
56.375 9.485063
56.380 9.935267
56.385 10.507797
56.390 10.947445
56.395 11.028432
56.400 11.188518
56.405 11.86771
56.410 12.256866
56.415 12.186078
56.420 11.832558
56.425 11.782085
56.430 11.898434
56.435 11.766447
56.440 11.328368
56.445 10.881964
56.450 10.421309
56.455 10.252334
56.460 10.200773
56.465 9.922181
56.470 10.003169
56.475 10.145982
56.480 10.10375
56.485 10.18342
56.490 11.033115
56.495 10.827859
56.500 11.038834
56.505 11.090569
56.510 11.344829
56.515 11.524247
56.520 11.408906
56.525 10.766271
56.530 10.243326
56.535 10.424587
56.540 10.891785
56.545 10.83478
56.550 11.029543
56.555 10.973779
56.560 11.367134
56.565 11.935166
56.570 11.15255
56.575 10.561889
56.580 10.140572
56.585 10.144873
56.590 10.201634
56.595 10.009022
56.600 9.793987
56.605 9.789583
56.610 10.056588
56.615 9.776698
56.620 9.850792
56.625 10.272446
56.630 10.43012
56.635 11.019659
56.640 11.130914
56.645 11.087349
56.650 11.718669
56.655 11.905436
56.660 11.671633
56.665 11.644743
56.670 11.600329
56.675 12.019137
56.680 12.162898
56.685 12.11013
56.690 11.711055
56.695 11.710427
56.700 11.202784
56.705 11.228094
56.710 11.420103
56.715 11.177096
56.720 11.0318
56.725 11.492039
56.730 11.926678
56.735 12.232474
56.740 11.531711
56.745 10.696898
56.750 11.065455
56.755 11.300509
56.760 11.181849
56.765 10.655982
56.770 10.978273
56.775 11.465873
56.780 11.63034
56.785 10.91154
56.790 10.292214
56.795 10.314346
56.800 10.716033
56.805 10.488032
56.810 10.344683
56.815 10.823771
56.820 11.327324
56.825 11.67207
56.830 11.77805
56.835 11.782059
56.840 11.516618
56.845 11.250327
56.850 11.074248
56.855 11.098883
56.860 10.856067
56.865 10.28572
56.870 10.444251
56.875 11.37508
56.880 11.795839
56.885 11.412402
56.890 11.023151
56.895 10.913305
56.900 10.861498
56.905 10.763952
56.910 9.930579
56.915 10.100986
56.920 10.61908
56.925 11.447237
56.930 11.421307
56.935 11.214671
56.940 10.918648
56.945 11.164673
56.950 10.612564
56.955 10.512242
56.960 10.170364
56.965 10.56272
56.970 11.119022
56.975 11.530908
56.980 11.350504
56.985 11.612769
56.990 11.641787
56.995 11.730312
57.000 11.336234
57.005 11.077479
57.010 10.611067
57.015 11.067722
57.020 11.157517
57.025 11.31431
57.030 10.866154
57.035 10.684513
57.040 10.538903
57.045 10.477384
57.050 10.655016
57.055 10.825282
57.060 10.722903
57.065 11.078708
57.070 11.668496
57.075 12.340049
57.080 13.042764
57.085 12.725568
57.090 12.282877
57.095 12.280831
57.100 12.41744
57.105 12.198905
57.110 11.569815
57.115 10.644526
57.120 10.404364
57.125 10.458176
57.130 10.479308
57.135 10.548463
57.140 10.586613
57.145 11.133426
57.150 11.348262
57.155 11.39558
57.160 11.76986
57.165 11.876395
57.170 11.569173
57.175 11.739431
57.180 11.639962
57.185 11.693281
57.190 11.561421
57.195 11.202613
57.200 11.289021
57.205 11.503626
57.210 11.332846
57.215 10.97522
57.220 11.141397
57.225 11.663481
57.230 11.790434
57.235 11.592199
57.240 11.05966
57.245 10.693113
57.250 10.850438
57.255 10.746475
57.260 10.371109
57.265 10.391864
57.270 10.565428
57.275 11.128775
57.280 11.19084
57.285 10.852854
57.290 10.772277
57.295 10.492705
57.300 10.940992
57.305 10.989965
57.310 10.543753
57.315 10.642393
57.320 10.903329
57.325 11.218939
57.330 11.320497
57.335 10.789863
57.340 11.019637
57.345 11.420416
57.350 11.658199
57.355 11.794747
57.360 11.50941
57.365 11.721849
57.370 11.888532
57.375 11.531105
57.380 11.403845
57.385 10.985535
57.390 11.087059
57.395 11.073992
57.400 10.832227
57.405 11.021567
57.410 11.07952
57.415 11.196529
57.420 11.483079
57.425 11.333952
57.430 11.452728
57.435 11.275879
57.440 11.107537
57.445 11.318417
57.450 11.836895
57.455 11.76246
57.460 11.913527
57.465 12.164896
57.470 12.25068
57.475 12.190487
57.480 12.120001
57.485 12.206141
57.490 12.253279
57.495 12.034229
57.500 12.536596
57.505 12.497263
57.510 12.162943
57.515 11.918268
57.520 11.629285
57.525 12.475728
57.530 12.311978
57.535 11.749388
57.540 12.266096
57.545 12.287161
57.550 12.122259
57.555 11.671637
57.560 11.138201
57.565 11.138165
57.570 11.679482
57.575 11.692255
57.580 11.824653
57.585 12.157582
57.590 12.450999
57.595 12.786529
57.600 13.22611
57.605 13.015489
57.610 12.584355
57.615 12.673425
57.620 12.143929
57.625 11.471898
57.630 10.928326
57.635 10.313761
57.640 10.02571
57.645 10.234513
57.650 10.471951
57.655 11.073142
57.660 11.669301
57.665 12.106393
57.670 11.989731
57.675 12.030993
57.680 11.843472
57.685 11.818161
57.690 11.885758
57.695 12.026666
57.700 11.95031
57.705 12.31817
57.710 12.96788
57.715 13.290895
57.720 13.370224
57.725 13.405464
57.730 13.065844
57.735 13.058535
57.740 12.572364
57.745 12.125583
57.750 12.078404
57.755 12.06056
57.760 12.088267
57.765 12.039678
57.770 12.071671
57.775 12.261237
57.780 11.787979
57.785 11.453636
57.790 11.214212
57.795 10.883921
57.800 10.58907
57.805 10.623438
57.810 11.175776
57.815 11.65875
57.820 12.027878
57.825 12.08405
57.830 12.234446
57.835 12.073607
57.840 11.639719
57.845 11.165734
57.850 10.944793
57.855 10.61913
57.860 10.542726
57.865 10.627081
57.870 10.812248
57.875 10.715564
57.880 10.729092
57.885 10.766677
57.890 10.615157
57.895 11.113304
57.900 11.377036
57.905 11.897996
57.910 12.047155
57.915 11.889616
57.920 11.837686
57.925 11.636279
57.930 11.487926
57.935 11.270654
57.940 10.716312
57.945 10.918546
57.950 11.545774
57.955 11.745142
57.960 11.996056
57.965 11.825919
57.970 11.388067
57.975 11.509624
57.980 11.299833
57.985 11.518967
57.990 11.479619
57.995 11.509907
58.000 11.890722
58.005 12.013641
58.010 12.774048
58.015 12.814651
58.020 12.364287
58.025 12.834373
58.030 12.77033
58.035 12.77349
58.040 12.998028
58.045 12.97055
58.050 13.008893
58.055 12.996493
58.060 13.066974
58.065 12.630927
58.070 12.7772
58.075 12.730317
58.080 12.767146
58.085 12.81263
58.090 12.900949
58.095 12.784482
58.100 12.796271
58.105 12.824142
58.110 12.823379
58.115 12.530623
58.120 12.753429
58.125 12.777613
58.130 13.091388
58.135 12.891798
58.140 12.22488
58.145 12.161242
58.150 11.297476
58.155 10.887319
58.160 11.028231
58.165 10.935413
58.170 11.271924
58.175 11.821428
58.180 12.004914
58.185 12.497547
58.190 12.84488
58.195 12.73419
58.200 13.064586
58.205 13.405489
58.210 13.259402
58.215 13.32842
58.220 13.524778
58.225 12.637246
58.230 11.999448
58.235 11.522073
58.240 11.225422
58.245 11.201944
58.250 11.102939
58.255 11.375801
58.260 11.950141
58.265 12.114205
58.270 12.035166
58.275 12.102847
58.280 12.428467
58.285 12.46565
58.290 12.160245
58.295 12.055546
58.300 12.144634
58.305 12.63905
58.310 13.185612
58.315 13.225451
58.320 13.218506
58.325 13.405766
58.330 13.262342
58.335 13.4236
58.340 13.525549
58.345 12.832405
58.350 12.672635
58.355 13.009435
58.360 13.533749
58.365 13.867981
58.370 14.182223
58.375 14.159456
58.380 14.432758
58.385 14.437272
58.390 14.459211
58.395 14.166885
58.400 14.296403
58.405 13.650138
58.410 13.696769
58.415 13.805135
58.420 13.50716
58.425 13.548622
58.430 13.351286
58.435 12.955079
58.440 12.696866
58.445 12.323864
58.450 12.219788
58.455 12.432881
58.460 11.913693
58.465 11.424043
58.470 11.78447
58.475 12.502024
58.480 12.929385
58.485 13.212931
58.490 13.987078
58.495 14.850103
58.500 15.5208
58.505 15.665108
58.510 15.245128
58.515 15.118359
58.520 14.980386
58.525 14.09412
58.530 13.434303
58.535 12.983838
58.540 13.009634
58.545 13.366014
58.550 13.23455
58.555 13.166274
58.560 13.673584
58.565 14.100469
58.570 14.507234
58.575 14.255115
58.580 14.311605
58.585 13.977055
