!@!!GADDS PLOTSO FILE: Chi integration type
!@!!Title/SampleName: map-174
!@!!Comment: ?
!@!!User: Bruker Instrument Administrator
!@!!Site: University of Illinois Chicago
!@!!Frame: map-174_01_000.gfrm
!@!!Wavelengths    1.54184   1.54056   1.54439
!@!!Frame angles: 2Theta: 63.000 Omega: 50.000 Phi: 0.000 Chi: 90.000
!@!!Integration range: 2Theta: 53.000 to 73.000  Gamma: -105.000 to -75.000
!@!!Integration method: bin normalized
!@!N
!@!SS
!@!M
!@!L 0.0 0.0 0.0 0.0
!@!XDegrees
!@!YCounts
53.000 4.068272
53.005 3.997999
53.010 3.981048
53.015 4.27145
53.020 4.508148
53.025 4.363822
53.030 4.276609
53.035 4.331646
53.040 4.480182
53.045 4.366116
53.050 4.09622
53.055 3.856172
53.060 3.832294
53.065 4.132606
53.070 4.436634
53.075 4.531669
53.080 4.586116
53.085 4.499839
53.090 4.496503
53.095 4.427946
53.100 4.216322
53.105 3.892467
53.110 3.849833
53.115 3.993188
53.120 4.479097
53.125 4.555806
53.130 4.360666
53.135 4.06785
53.140 3.821421
53.145 3.914783
53.150 3.919032
53.155 3.664807
53.160 3.825427
53.165 4.137749
53.170 4.529253
53.175 4.599427
53.180 4.445501
53.185 4.104283
53.190 3.977835
53.195 3.755272
53.200 3.507777
53.205 3.353646
53.210 3.394596
53.215 3.499187
53.220 3.917644
53.225 4.180949
53.230 4.253146
53.235 4.346807
53.240 4.413815
53.245 4.469443
53.250 4.476978
53.255 4.345948
53.260 4.532782
53.265 4.447013
53.270 4.286912
53.275 4.116269
53.280 3.935156
53.285 3.854096
53.290 3.741825
53.295 3.594176
53.300 3.647728
53.305 3.918653
53.310 3.870604
53.315 3.851768
53.320 4.178954
53.325 4.138983
53.330 3.987941
53.335 3.760094
53.340 3.599714
53.345 3.523383
53.350 3.506169
53.355 3.372022
53.360 3.418165
53.365 3.44265
53.370 3.64805
53.375 3.863864
53.380 4.203305
53.385 4.169543
53.390 4.07688
53.395 4.431623
53.400 4.567253
53.405 4.6112
53.410 4.612983
53.415 4.453299
53.420 4.499179
53.425 4.656709
53.430 4.620452
53.435 4.886144
53.440 4.701816
53.445 4.861309
53.450 4.880212
53.455 4.735143
53.460 4.510023
53.465 4.550292
53.470 4.346466
53.475 4.100962
53.480 3.904693
53.485 4.087441
53.490 3.989764
53.495 3.902654
53.500 3.562104
53.505 3.622945
53.510 3.755908
53.515 3.86044
53.520 3.727025
53.525 3.836972
53.530 3.932716
53.535 4.339653
53.540 4.614399
53.545 4.818587
53.550 4.730171
53.555 4.576415
53.560 4.693691
53.565 4.271611
53.570 3.962501
53.575 3.67221
53.580 3.450378
53.585 3.29797
53.590 3.36576
53.595 3.320955
53.600 3.362901
53.605 3.541224
53.610 3.460858
53.615 3.747332
53.620 4.129086
53.625 4.312336
53.630 4.223378
53.635 4.180359
53.640 3.915079
53.645 3.849371
53.650 3.62173
53.655 3.205217
53.660 3.240818
53.665 3.590454
53.670 3.919124
53.675 4.224763
53.680 4.333224
53.685 4.658689
53.690 4.910349
53.695 4.774136
53.700 4.81871
53.705 4.767879
53.710 4.697868
53.715 4.694373
53.720 4.5644
53.725 4.614755
53.730 4.707848
53.735 4.467356
53.740 4.321338
53.745 4.316989
53.750 4.200839
53.755 4.276032
53.760 4.337287
53.765 4.609256
53.770 4.810238
53.775 4.817578
53.780 4.451392
53.785 4.261459
53.790 4.087486
53.795 3.772811
53.800 3.300801
53.805 3.062075
53.810 3.079935
53.815 3.271264
53.820 3.350428
53.825 3.150837
53.830 3.164845
53.835 3.281788
53.840 3.449586
53.845 3.741114
53.850 4.086444
53.855 4.115967
53.860 4.211824
53.865 4.276562
53.870 4.109255
53.875 3.916313
53.880 3.441772
53.885 3.312885
53.890 3.438344
53.895 3.602856
53.900 3.724994
53.905 4.040943
53.910 4.37315
53.915 4.760248
53.920 4.859114
53.925 4.837352
53.930 4.832934
53.935 4.968492
53.940 5.062219
53.945 4.904807
53.950 4.477775
53.955 4.213323
53.960 4.119242
53.965 3.975925
53.970 3.637543
53.975 3.711921
53.980 3.868488
53.985 3.930723
53.990 3.970172
53.995 4.288194
54.000 4.370262
54.005 4.211728
54.010 3.932795
54.015 3.832351
54.020 3.704993
54.025 3.580741
54.030 3.62748
54.035 3.676028
54.040 3.597543
54.045 3.633189
54.050 3.843491
54.055 4.193857
54.060 4.174252
54.065 3.962571
54.070 4.029676
54.075 4.397242
54.080 4.574554
54.085 4.370279
54.090 4.321277
54.095 4.131589
54.100 4.263137
54.105 4.200092
54.110 4.484391
54.115 4.870043
54.120 4.711126
54.125 4.774062
54.130 4.604607
54.135 4.358834
54.140 4.326886
54.145 3.964792
54.150 3.893578
54.155 4.479268
54.160 4.483182
54.165 4.824934
54.170 4.606588
54.175 4.488075
54.180 4.293487
54.185 3.951112
54.190 3.773592
54.195 3.874548
54.200 3.834229
54.205 4.003703
54.210 3.852381
54.215 3.846703
54.220 3.864428
54.225 3.828271
54.230 3.746763
54.235 3.857826
54.240 3.88755
54.245 3.969589
54.250 4.366688
54.255 4.421906
54.260 4.634135
54.265 4.414461
54.270 4.406155
54.275 4.662941
54.280 4.70154
54.285 4.17668
54.290 3.953899
54.295 3.699319
54.300 3.860038
54.305 3.624409
54.310 3.240603
54.315 3.142903
54.320 3.527751
54.325 3.639995
54.330 3.829993
54.335 3.946719
54.340 4.146478
54.345 4.529221
54.350 4.400738
54.355 4.092268
54.360 3.988102
54.365 3.893982
54.370 4.049611
54.375 4.022874
54.380 4.272889
54.385 4.432903
54.390 4.711038
54.395 4.974231
54.400 4.922189
54.405 4.836989
54.410 4.705782
54.415 4.476111
54.420 4.546585
54.425 4.580487
54.430 4.543011
54.435 4.644266
54.440 4.731879
54.445 4.999119
54.450 5.12886
54.455 4.980174
54.460 4.694383
54.465 4.384223
54.470 4.35911
54.475 4.175238
54.480 3.835076
54.485 3.534109
54.490 3.76278
54.495 4.060524
54.500 4.17364
54.505 4.074557
54.510 3.933186
54.515 3.938139
54.520 3.819725
54.525 3.535523
54.530 3.460139
54.535 3.644062
54.540 3.642873
54.545 3.897996
54.550 3.918451
54.555 4.063191
54.560 3.990828
54.565 3.726902
54.570 3.922364
54.575 4.183837
54.580 4.422596
54.585 4.418816
54.590 4.194842
54.595 4.443958
54.600 4.304489
54.605 3.861034
54.610 3.531544
54.615 3.429984
54.620 3.712208
54.625 3.941407
54.630 4.103049
54.635 4.120236
54.640 4.377377
54.645 4.504111
54.650 4.258
54.655 4.095302
54.660 3.74551
54.665 3.718334
54.670 3.930513
54.675 3.898521
54.680 3.937077
54.685 4.029455
54.690 4.00861
54.695 4.178797
54.700 3.918199
54.705 3.714937
54.710 3.483147
54.715 3.385627
54.720 3.295589
54.725 3.637993
54.730 3.521795
54.735 3.612897
54.740 3.563536
54.745 3.531378
54.750 3.385751
54.755 3.636523
54.760 3.407218
54.765 3.296205
54.770 3.18375
54.775 3.41656
54.780 3.643657
54.785 3.94571
54.790 3.743677
54.795 3.990824
54.800 4.33852
54.805 4.66186
54.810 4.719012
54.815 4.474355
54.820 4.479584
54.825 4.460128
54.830 4.21214
54.835 4.321979
54.840 4.057585
54.845 4.02908
54.850 4.083998
54.855 4.017404
54.860 4.113327
54.865 4.052296
54.870 3.897599
54.875 3.922451
54.880 3.891879
54.885 3.863202
54.890 3.771882
54.895 3.751762
54.900 3.878334
54.905 3.917229
54.910 4.08525
54.915 4.178605
54.920 4.431117
54.925 4.545042
54.930 4.508332
54.935 4.226535
54.940 4.084025
54.945 4.114797
54.950 4.104095
54.955 3.916972
54.960 3.848959
54.965 3.947669
54.970 4.107176
54.975 4.078891
54.980 3.80758
54.985 3.824109
54.990 3.695019
54.995 3.643294
55.000 3.593926
55.005 3.872887
55.010 3.78143
55.015 3.80756
55.020 3.754819
55.025 3.939694
55.030 3.86005
55.035 4.05549
55.040 3.84497
55.045 3.981398
55.050 4.112628
55.055 4.122269
55.060 4.182316
55.065 4.126487
55.070 3.871531
55.075 3.873833
55.080 3.910992
55.085 3.749238
55.090 3.669315
55.095 3.415049
55.100 3.567803
55.105 3.543537
55.110 3.487778
55.115 3.44047
55.120 3.383049
55.125 3.432037
55.130 3.778819
55.135 3.911372
55.140 4.148411
55.145 4.234549
55.150 4.361855
55.155 4.234055
55.160 4.409056
55.165 4.35782
55.170 4.367852
55.175 4.333376
55.180 4.515314
55.185 4.593955
55.190 4.560349
55.195 4.23702
55.200 3.921633
55.205 3.928666
55.210 3.895464
55.215 3.900126
55.220 3.725251
55.225 4.066205
55.230 4.181754
55.235 4.018231
55.240 3.810791
55.245 3.982799
55.250 4.073591
55.255 3.960613
55.260 3.931204
55.265 4.047247
55.270 4.486202
55.275 4.589969
55.280 4.585635
55.285 4.66629
55.290 4.996803
55.295 5.146818
55.300 5.240412
55.305 4.877865
55.310 4.687478
55.315 4.279238
55.320 4.193868
55.325 3.811524
55.330 3.468152
55.335 3.186239
55.340 3.283833
55.345 3.385542
55.350 3.542025
55.355 3.610539
55.360 3.847727
55.365 4.105109
55.370 4.478692
55.375 4.10961
55.380 3.937088
55.385 3.802641
55.390 3.628545
55.395 3.526382
55.400 3.374367
55.405 3.540615
55.410 3.73451
55.415 4.096498
55.420 4.217211
55.425 4.417865
55.430 4.428222
55.435 4.15095
55.440 4.223057
55.445 4.271774
55.450 4.337722
55.455 4.148861
55.460 4.313096
55.465 4.357663
55.470 4.431277
55.475 4.312315
55.480 4.191698
55.485 4.194509
55.490 4.087008
55.495 4.120083
55.500 4.152669
55.505 4.281786
55.510 4.509168
55.515 4.566238
55.520 4.433594
55.525 4.671849
55.530 4.181427
55.535 4.184914
55.540 3.873233
55.545 3.638062
55.550 3.62569
55.555 3.603512
55.560 3.703578
55.565 4.118987
55.570 4.174958
55.575 4.234163
55.580 4.418153
55.585 4.440079
55.590 4.523387
55.595 4.530253
55.600 4.747866
55.605 4.728952
55.610 4.669236
55.615 4.581154
55.620 4.482699
55.625 4.15785
55.630 4.168151
55.635 3.958892
55.640 3.863928
55.645 3.955995
55.650 4.113989
55.655 4.524785
55.660 4.763193
55.665 4.532546
55.670 4.904509
55.675 5.089506
55.680 5.155709
55.685 5.103583
55.690 4.916937
55.695 4.839027
55.700 4.898102
55.705 4.853154
55.710 4.777816
55.715 4.905782
55.720 4.843489
55.725 4.816643
55.730 4.821773
55.735 4.682157
55.740 4.501202
55.745 4.307038
55.750 4.14993
55.755 4.208571
55.760 3.952012
55.765 4.011051
55.770 4.328906
55.775 4.737172
55.780 5.01192
55.785 5.119938
55.790 5.070396
55.795 5.242297
55.800 4.924062
55.805 4.611143
55.810 4.066332
55.815 3.701143
55.820 3.723048
55.825 3.890388
55.830 3.870671
55.835 4.159436
55.840 4.23353
55.845 4.689236
55.850 5.089395
55.855 4.960237
55.860 5.115825
55.865 5.303615
55.870 5.249519
55.875 5.041898
55.880 4.965858
55.885 4.640981
55.890 4.61671
55.895 4.294306
55.900 4.285578
55.905 4.302682
55.910 4.355969
55.915 4.406303
55.920 4.833242
55.925 4.794396
55.930 4.600555
55.935 4.339439
55.940 4.606741
55.945 4.71972
55.950 4.620128
55.955 4.55676
55.960 4.89003
55.965 5.282311
55.970 5.496518
55.975 5.393225
55.980 5.337305
55.985 5.209179
55.990 4.917788
55.995 4.895891
56.000 4.778315
56.005 4.94636
56.010 5.019533
56.015 4.878685
56.020 5.066763
56.025 5.252072
56.030 5.152797
56.035 4.865574
56.040 4.407871
56.045 4.462462
56.050 4.726483
56.055 4.478227
56.060 4.43717
56.065 4.352304
56.070 4.393009
56.075 4.306642
56.080 3.973538
56.085 4.18134
56.090 4.149145
56.095 3.869299
56.100 4.136543
56.105 4.29684
56.110 4.400724
56.115 4.518272
56.120 4.105028
56.125 4.24154
56.130 4.317233
56.135 4.360455
56.140 4.66599
56.145 4.503201
56.150 4.309195
56.155 4.382111
56.160 4.301695
56.165 4.312376
56.170 4.228197
56.175 4.047121
56.180 4.026182
56.185 3.983865
56.190 3.891476
56.195 4.381026
56.200 4.328356
56.205 4.347866
56.210 4.494622
56.215 4.553816
56.220 4.547782
56.225 4.891262
56.230 4.922312
56.235 4.888506
56.240 4.700273
56.245 4.824592
56.250 5.137185
56.255 5.297323
56.260 5.095552
56.265 4.841506
56.270 5.184269
56.275 5.333567
56.280 5.178965
56.285 5.143148
56.290 5.308704
56.295 5.317902
56.300 5.174783
56.305 4.938974
56.310 4.797288
56.315 4.831007
56.320 4.396882
56.325 4.3473
56.330 4.483905
56.335 4.572346
56.340 4.58733
56.345 4.631864
56.350 4.672124
56.355 4.729339
56.360 4.525074
56.365 4.627969
56.370 4.735832
56.375 4.605678
56.380 4.619018
56.385 4.861262
56.390 4.832653
56.395 4.529859
56.400 4.182883
56.405 4.146032
56.410 4.201495
56.415 4.077768
56.420 4.187283
56.425 4.232574
56.430 4.321718
56.435 4.249939
56.440 4.240864
56.445 4.563303
56.450 4.701515
56.455 4.610013
56.460 4.755897
56.465 5.062785
56.470 5.071234
56.475 4.76644
56.480 4.796264
56.485 4.68867
56.490 4.949506
56.495 5.086462
56.500 4.974578
56.505 5.080588
56.510 4.896005
56.515 4.747398
56.520 4.942233
56.525 4.833192
56.530 4.670646
56.535 4.666972
56.540 4.848466
56.545 5.13666
56.550 5.213096
56.555 4.729816
56.560 4.669029
56.565 4.717166
56.570 4.994817
56.575 4.969022
56.580 5.036954
56.585 5.419965
56.590 5.461769
56.595 5.307559
56.600 5.121127
56.605 4.796228
56.610 4.828014
56.615 4.80651
56.620 4.552348
56.625 4.673804
56.630 4.918481
56.635 4.873771
56.640 4.965147
56.645 5.341099
56.650 5.350797
56.655 5.409168
56.660 5.414231
56.665 5.34819
56.670 5.4933
56.675 5.525903
56.680 5.244761
56.685 5.153648
56.690 5.311584
56.695 5.332469
56.700 5.219805
56.705 5.313476
56.710 5.188218
56.715 5.250215
56.720 5.141475
56.725 4.985199
56.730 4.931551
56.735 4.623723
56.740 4.237159
56.745 4.300854
56.750 4.447286
56.755 4.688079
56.760 4.568051
56.765 4.424792
56.770 4.815706
56.775 5.01662
56.780 4.885962
56.785 4.533657
56.790 4.69176
56.795 4.867562
56.800 5.16435
56.805 5.334623
56.810 5.230491
56.815 5.330086
56.820 5.462879
56.825 5.31214
56.830 5.331286
56.835 5.117889
56.840 4.98595
56.845 5.179064
56.850 4.959219
56.855 4.859541
56.860 4.527139
56.865 4.991046
56.870 5.298833
56.875 5.32641
56.880 5.457096
56.885 5.700216
56.890 5.823577
56.895 6.21276
56.900 5.993788
56.905 6.114377
56.910 6.578376
56.915 6.69444
56.920 6.701057
56.925 6.457814
56.930 6.390577
56.935 6.140495
56.940 5.715945
56.945 5.305037
56.950 5.224415
56.955 5.188577
56.960 5.21542
56.965 5.382484
56.970 5.338734
56.975 5.41736
56.980 5.130712
56.985 4.813562
56.990 4.741072
56.995 4.545957
57.000 4.245986
57.005 4.073656
57.010 4.182387
57.015 4.132522
57.020 4.062948
57.025 3.881683
57.030 3.887528
57.035 3.871507
57.040 3.960563
57.045 3.826655
57.050 3.808893
57.055 4.113107
57.060 4.184052
57.065 4.263237
57.070 4.472331
57.075 4.640344
57.080 4.843334
57.085 4.799676
57.090 4.921749
57.095 5.025554
57.100 5.103621
57.105 5.033998
57.110 4.91884
57.115 5.087085
57.120 5.534276
57.125 5.373871
57.130 5.370177
57.135 5.099661
57.140 5.22087
57.145 5.386028
57.150 4.976996
57.155 4.709297
57.160 4.642776
57.165 4.752562
57.170 4.892708
57.175 4.82967
57.180 4.645213
57.185 4.731007
57.190 4.94281
57.195 5.005016
57.200 4.947717
57.205 4.939271
57.210 4.810481
57.215 4.72709
57.220 4.475619
57.225 4.259085
57.230 4.101156
57.235 4.155796
57.240 4.220813
57.245 4.229916
57.250 4.218453
57.255 4.611464
57.260 4.828918
57.265 5.227459
57.270 5.262161
57.275 5.174225
57.280 5.12853
57.285 5.420712
57.290 5.09663
57.295 4.700941
57.300 4.788264
57.305 5.022663
57.310 5.089672
57.315 5.408887
57.320 5.320342
57.325 5.727438
57.330 6.15191
57.335 5.741509
57.340 5.762979
57.345 5.67649
57.350 5.425552
57.355 5.261871
57.360 5.093637
57.365 4.945862
57.370 4.899445
57.375 4.895469
57.380 4.918685
57.385 4.985189
57.390 5.133297
57.395 5.021193
57.400 5.112772
57.405 5.183304
57.410 5.185756
57.415 5.364778
57.420 5.609784
57.425 5.402492
57.430 5.504736
57.435 5.797128
57.440 5.743269
57.445 5.517498
57.450 5.138662
57.455 4.76538
57.460 4.677373
57.465 4.598502
57.470 4.27734
57.475 4.18249
57.480 4.125067
57.485 4.561364
57.490 4.849988
57.495 4.889771
57.500 4.813724
57.505 4.563748
57.510 4.287346
57.515 4.362336
57.520 4.308404
57.525 4.62928
57.530 4.608534
57.535 4.961552
57.540 5.242145
57.545 5.454026
57.550 5.255541
57.555 5.265659
57.560 4.91673
57.565 4.828808
57.570 4.693388
57.575 4.845968
57.580 4.731596
57.585 4.634282
57.590 4.378059
57.595 4.977545
57.600 5.209219
57.605 4.974572
57.610 4.996536
57.615 5.54029
57.620 5.751866
57.625 5.809662
57.630 5.424763
57.635 5.460807
57.640 5.677509
57.645 5.374221
57.650 4.943662
57.655 5.014029
57.660 5.086274
57.665 5.161808
57.670 4.949973
57.675 5.036583
57.680 5.152635
57.685 5.108224
57.690 4.882092
57.695 4.77668
57.700 5.011414
57.705 5.196795
57.710 5.27777
57.715 5.470035
57.720 5.761889
57.725 5.664765
57.730 5.461668
57.735 4.97773
57.740 4.574972
57.745 4.264067
57.750 4.056335
57.755 4.161562
57.760 4.645219
57.765 5.059046
57.770 5.22062
57.775 5.399698
57.780 5.695433
57.785 5.977528
57.790 5.70584
57.795 5.223018
57.800 4.831113
57.805 5.049132
57.810 5.059417
57.815 5.251461
57.820 5.314013
57.825 5.48961
57.830 5.62698
57.835 5.810057
57.840 5.762081
57.845 5.693011
57.850 5.439385
57.855 5.182742
57.860 5.019984
57.865 5.061311
57.870 4.760371
57.875 4.651352
57.880 4.569171
57.885 4.568541
57.890 4.466644
57.895 4.197649
57.900 4.458039
57.905 4.463223
57.910 4.58477
57.915 4.776697
57.920 4.739021
57.925 5.059005
57.930 5.078085
57.935 5.12089
57.940 5.316286
57.945 5.269914
57.950 5.225713
57.955 4.95458
57.960 4.883652
57.965 4.917105
57.970 4.802963
57.975 4.868051
57.980 4.968544
57.985 4.879106
57.990 5.472854
57.995 5.481117
58.000 5.610016
58.005 5.347147
58.010 5.07715
58.015 4.822784
58.020 4.669953
58.025 4.277474
58.030 4.029879
58.035 4.029719
58.040 4.019309
58.045 4.051628
58.050 4.131194
58.055 4.516189
58.060 4.610974
58.065 4.886619
58.070 4.854117
58.075 5.31428
58.080 5.627486
58.085 5.774889
58.090 5.809343
58.095 5.969661
58.100 6.02709
58.105 6.255712
58.110 6.122893
58.115 6.05944
58.120 6.253458
58.125 6.103165
58.130 5.996666
58.135 6.170985
58.140 6.26391
58.145 6.355249
58.150 6.224912
58.155 5.853574
58.160 5.823594
58.165 5.769337
58.170 5.257496
58.175 5.077755
58.180 5.362395
58.185 5.340528
58.190 5.141329
58.195 5.462675
58.200 5.591774
58.205 5.777055
58.210 6.089672
58.215 5.831943
58.220 5.899959
58.225 6.142828
58.230 5.916974
58.235 6.149945
58.240 6.206247
58.245 5.918944
58.250 5.897033
58.255 5.761692
58.260 5.318001
58.265 5.100286
58.270 4.725182
58.275 4.880125
58.280 4.935212
58.285 4.774971
58.290 4.82253
58.295 4.943464
58.300 4.846395
58.305 4.706912
58.310 4.287624
58.315 3.821131
58.320 3.897279
58.325 3.93857
58.330 4.170039
58.335 4.094517
58.340 4.537611
58.345 5.016216
58.350 5.196289
58.355 5.41217
58.360 5.484679
58.365 5.463221
58.370 5.757727
58.375 5.44014
58.380 5.173908
58.385 5.315447
58.390 5.315609
58.395 5.237677
58.400 5.126568
58.405 5.104245
58.410 4.761312
58.415 5.083414
58.420 5.2621
58.425 5.598557
58.430 5.765027
58.435 5.75743
58.440 5.962131
58.445 6.146147
58.450 6.046113
58.455 5.613454
58.460 5.522612
58.465 5.552176
58.470 5.491492
58.475 5.322695
58.480 5.223553
58.485 5.347011
58.490 5.631313
58.495 5.412552
58.500 5.121078
58.505 5.152892
58.510 4.982251
58.515 5.08182
58.520 5.081478
58.525 4.935541
58.530 5.134295
58.535 5.406535
58.540 5.493216
58.545 5.554184
58.550 5.284781
58.555 5.051198
58.560 5.241919
58.565 5.226696
58.570 5.324845
58.575 5.32917
58.580 5.518513
58.585 5.789775
58.590 5.922829
58.595 6.007089
58.600 6.21392
58.605 6.325833
58.610 6.525679
58.615 6.681006
58.620 6.543065
58.625 6.440223
58.630 6.524301
58.635 6.459095
58.640 6.527801
58.645 5.974089
58.650 5.425819
58.655 5.234112
58.660 5.315933
58.665 4.885529
58.670 4.643232
58.675 4.814648
58.680 5.535006
58.685 6.116665
58.690 6.544077
58.695 7.088383
58.700 7.137212
58.705 7.081514
58.710 6.803877
58.715 6.521945
58.720 6.387702
58.725 5.902017
58.730 5.466548
58.735 5.65532
58.740 5.779058
58.745 5.723343
58.750 5.494369
58.755 5.657313
58.760 6.083163
