!@!!GADDS PLOTSO FILE: Chi integration type
!@!!Title/SampleName: map-4a
!@!!Comment: ?
!@!!User: Bruker Instrument Administrator
!@!!Site: University of Illinois Chicago
!@!!Frame: map-4a_01_000.gfrm
!@!!Wavelengths    1.54184   1.54056   1.54439
!@!!Frame angles: 2Theta: 63.000 Omega: 50.000 Phi: 0.000 Chi: 90.000
!@!!Integration range: 2Theta: 53.000 to 73.000  Gamma: -105.000 to -75.000
!@!!Integration method: bin normalized
!@!N
!@!SS
!@!M
!@!L 0.0 0.0 0.0 0.0
!@!XDegrees
!@!YCounts
53.000 9.229193
53.005 8.993787
53.010 8.675014
53.015 8.336614
53.020 8.221355
53.025 8.129687
53.030 8.276731
53.035 8.470082
53.040 9.036537
53.045 9.587819
53.050 9.749128
53.055 10.006652
53.060 10.064016
53.065 9.743611
53.070 9.254519
53.075 9.172839
53.080 8.988573
53.085 8.697811
53.090 8.478534
53.095 8.59222
53.100 9.224151
53.105 9.517886
53.110 9.651508
53.115 10.035588
53.120 10.239048
53.125 9.620331
53.130 9.37443
53.135 9.321959
53.140 9.131708
53.145 8.781073
53.150 8.96647
53.155 9.33344
53.160 9.842843
53.165 10.422651
53.170 10.654463
53.175 10.681911
53.180 10.658726
53.185 11.003623
53.190 10.865355
53.195 11.012806
53.200 10.669186
53.205 10.260927
53.210 10.40279
53.215 10.346655
53.220 9.862291
53.225 9.496675
53.230 8.893288
53.235 9.278893
53.240 9.528401
53.245 9.414802
53.250 9.201449
53.255 9.219769
53.260 9.620025
53.265 9.711551
53.270 9.829488
53.275 10.017952
53.280 10.197093
53.285 10.448518
53.290 10.523385
53.295 10.517874
53.300 10.217204
53.305 9.600223
53.310 9.589804
53.315 9.168888
53.320 9.191422
53.325 9.223512
53.330 9.430107
53.335 9.837339
53.340 9.657105
53.345 9.582685
53.350 9.765922
53.355 9.62674
53.360 9.496891
53.365 9.021724
53.370 9.081633
53.375 9.525777
53.380 9.448152
53.385 10.050153
53.390 9.958015
53.395 10.233993
53.400 10.363895
53.405 9.837464
53.410 10.005836
53.415 9.937059
53.420 9.559535
53.425 9.525796
53.430 9.38732
53.435 9.430838
53.440 9.989554
53.445 10.153117
53.450 9.91223
53.455 10.332994
53.460 10.589535
53.465 10.698991
53.470 10.889302
53.475 10.158588
53.480 9.859468
53.485 10.106472
53.490 10.168687
53.495 10.143437
53.500 10.408129
53.505 10.412361
53.510 10.506791
53.515 10.996125
53.520 10.622313
53.525 10.597591
53.530 10.146361
53.535 9.729015
53.540 9.552221
53.545 9.72549
53.550 9.60194
53.555 9.827449
53.560 9.910724
53.565 10.220399
53.570 10.497598
53.575 10.449435
53.580 10.616466
53.585 10.318357
53.590 10.18154
53.595 10.39228
53.600 10.229011
53.605 10.508448
53.610 10.630523
53.615 10.526976
53.620 10.549905
53.625 10.534285
53.630 10.418136
53.635 10.295691
53.640 9.840816
53.645 9.692716
53.650 9.380128
53.655 9.544478
53.660 9.415475
53.665 9.391129
53.670 9.563982
53.675 10.022857
53.680 10.25419
53.685 10.421029
53.690 10.691468
53.695 10.976498
53.700 11.193505
53.705 11.342692
53.710 11.059836
53.715 10.946417
53.720 10.907303
53.725 10.331198
53.730 10.049903
53.735 9.429715
53.740 9.395418
53.745 8.988024
53.750 8.869974
53.755 9.255002
53.760 9.392141
53.765 9.499374
53.770 9.454391
53.775 9.669782
53.780 10.194397
53.785 10.208641
53.790 10.220655
53.795 10.793858
53.800 10.943839
53.805 11.122556
53.810 11.340277
53.815 11.398396
53.820 11.851186
53.825 11.913363
53.830 11.976551
53.835 12.015996
53.840 11.725219
53.845 10.720846
53.850 10.559113
53.855 10.303908
53.860 9.542292
53.865 9.782867
53.870 10.154885
53.875 10.477813
53.880 10.643939
53.885 10.391113
53.890 10.176308
53.895 10.650462
53.900 10.575041
53.905 10.227962
53.910 10.290855
53.915 10.574152
53.920 10.780119
53.925 10.627881
53.930 10.439589
53.935 9.985655
53.940 10.311988
53.945 10.401777
53.950 10.360239
53.955 10.298062
53.960 10.412919
53.965 10.384088
53.970 10.798875
53.975 10.495921
53.980 10.345803
53.985 10.290461
53.990 10.593015
53.995 10.598286
54.000 10.370131
54.005 9.818968
54.010 10.363778
54.015 10.453966
54.020 10.381418
54.025 10.336811
54.030 10.201579
54.035 10.109824
54.040 10.120933
54.045 9.86562
54.050 10.07373
54.055 9.902387
54.060 9.67651
54.065 9.615561
54.070 9.948613
54.075 9.990949
54.080 10.116332
54.085 10.041937
54.090 10.164601
54.095 10.695507
54.100 10.812414
54.105 10.846781
54.110 10.734751
54.115 10.738223
54.120 10.627009
54.125 10.669179
54.130 10.381239
54.135 10.357246
54.140 10.2843
54.145 10.392601
54.150 10.71656
54.155 11.024869
54.160 10.830309
54.165 11.183811
54.170 11.617263
54.175 11.756928
54.180 11.819305
54.185 11.709176
54.190 11.84531
54.195 12.026128
54.200 12.007689
54.205 12.097435
54.210 12.005206
54.215 11.589482
54.220 11.174824
54.225 11.053699
54.230 11.165617
54.235 11.134758
54.240 10.793048
54.245 10.909717
54.250 11.318214
54.255 11.425992
54.260 10.99079
54.265 10.147544
54.270 9.980348
54.275 10.345653
54.280 10.192721
54.285 10.084628
54.290 10.380988
54.295 10.642101
54.300 10.936465
54.305 10.948844
54.310 10.828711
54.315 10.892212
54.320 10.783435
54.325 10.977136
54.330 11.153494
54.335 11.169319
54.340 10.842613
54.345 10.899241
54.350 11.23978
54.355 11.216448
54.360 11.187504
54.365 11.085166
54.370 10.567817
54.375 10.58472
54.380 10.323068
54.385 10.546462
54.390 10.933704
54.395 11.054748
54.400 11.374615
54.405 11.071774
54.410 10.943755
54.415 11.120437
54.420 10.530727
54.425 10.289778
54.430 10.357424
54.435 11.087775
54.440 11.809509
54.445 12.190062
54.450 12.10678
54.455 12.090662
54.460 11.940595
54.465 11.190865
54.470 10.581652
54.475 10.704419
54.480 10.307372
54.485 10.014272
54.490 10.470714
54.495 10.930024
54.500 11.351366
54.505 11.417665
54.510 11.698932
54.515 12.019918
54.520 12.145409
54.525 11.451987
54.530 11.161264
54.535 10.978562
54.540 10.795473
54.545 10.336897
54.550 10.258118
54.555 10.759855
54.560 11.275445
54.565 11.125689
54.570 11.155845
54.575 11.518228
54.580 11.643923
54.585 11.390739
54.590 10.677705
54.595 10.65487
54.600 10.854594
54.605 11.040656
54.610 10.512158
54.615 10.051587
54.620 10.294244
54.625 10.602354
54.630 10.431629
54.635 10.09704
54.640 10.085603
54.645 10.392641
54.650 10.570187
54.655 10.56722
54.660 10.545115
54.665 10.602734
54.670 10.648284
54.675 9.950248
54.680 10.036117
54.685 10.182279
54.690 10.031784
54.695 10.021524
54.700 10.121116
54.705 10.529096
54.710 11.123178
54.715 11.117602
54.720 11.049526
54.725 11.318622
54.730 11.358389
54.735 11.868505
54.740 12.291295
54.745 12.895347
54.750 12.867751
54.755 12.576811
54.760 12.821157
54.765 12.856876
54.770 12.94947
54.775 12.60672
54.780 12.243602
54.785 12.785954
54.790 12.723514
54.795 12.428964
54.800 12.684939
54.805 12.379389
54.810 12.256824
54.815 12.658349
54.820 12.512039
54.825 12.733225
54.830 12.577322
54.835 12.233752
54.840 12.107851
54.845 12.445446
54.850 12.156355
54.855 12.068378
54.860 12.00701
54.865 11.691937
54.870 11.462481
54.875 11.394088
54.880 11.630931
54.885 11.621441
54.890 11.639394
54.895 11.817764
54.900 12.391681
54.905 12.801393
54.910 12.965596
54.915 12.524916
54.920 13.107924
54.925 13.610952
54.930 13.313322
54.935 13.199063
54.940 12.978049
54.945 12.933327
54.950 13.173655
54.955 12.683904
54.960 12.433861
54.965 12.356762
54.970 11.723429
54.975 11.397039
54.980 11.435559
54.985 11.690275
54.990 11.952331
54.995 11.790359
55.000 11.858591
55.005 12.297992
55.010 12.773458
55.015 12.669661
55.020 12.599344
55.025 12.566689
55.030 12.704816
55.035 13.231956
55.040 13.377989
55.045 13.024055
55.050 12.640308
55.055 12.074975
55.060 12.276868
55.065 12.181077
55.070 11.370757
55.075 10.6554
55.080 10.096591
55.085 9.847404
55.090 9.84003
55.095 9.305085
55.100 9.620866
55.105 9.912135
55.110 10.358987
55.115 11.051755
55.120 11.774711
55.125 12.101456
55.130 12.264297
55.135 12.660022
55.140 13.129941
55.145 13.223525
55.150 12.782747
55.155 12.34376
55.160 12.444774
55.165 12.436237
55.170 11.816362
55.175 11.50532
55.180 11.919972
55.185 12.114846
55.190 12.015198
55.195 12.036382
55.200 12.346507
55.205 12.990022
55.210 13.099357
55.215 12.620885
55.220 12.9821
55.225 13.120696
55.230 12.636931
55.235 11.806069
55.240 11.37923
55.245 11.178194
55.250 11.307802
55.255 11.332263
55.260 11.843813
55.265 12.166392
55.270 12.069858
55.275 12.665174
55.280 12.910631
55.285 13.079169
55.290 13.003934
55.295 12.890817
55.300 13.207169
55.305 13.33501
55.310 12.336556
55.315 11.991294
55.320 12.094623
55.325 11.481173
55.330 10.818288
55.335 10.175628
55.340 10.314492
55.345 10.904414
55.350 10.853934
55.355 10.266934
55.360 10.560224
55.365 10.78896
55.370 11.124734
55.375 11.054447
55.380 11.188567
55.385 11.209123
55.390 11.480061
55.395 11.265514
55.400 11.668701
55.405 11.869245
55.410 12.005572
55.415 11.833112
55.420 11.595902
55.425 12.390594
55.430 12.625678
55.435 12.008339
55.440 11.937765
55.445 12.408929
55.450 13.071577
55.455 13.585237
55.460 12.944744
55.465 13.177262
55.470 13.317163
55.475 13.453846
55.480 13.047341
55.485 12.313186
55.490 12.321411
55.495 12.08409
55.500 11.916289
55.505 12.61394
55.510 12.41686
55.515 12.56264
55.520 12.623875
55.525 12.432921
55.530 12.490419
55.535 12.011337
55.540 11.628884
55.545 11.624893
55.550 11.584159
55.555 11.824041
55.560 11.692635
55.565 11.705282
55.570 12.012243
55.575 12.11531
55.580 11.79855
55.585 11.437415
55.590 11.765095
55.595 11.898584
55.600 12.13165
55.605 12.049835
55.610 11.954322
55.615 11.689212
55.620 11.939742
55.625 12.152621
55.630 12.473212
55.635 12.576414
55.640 12.578994
55.645 12.590754
55.650 12.9562
55.655 12.590024
55.660 12.338047
55.665 12.084874
55.670 12.132778
55.675 11.878525
55.680 11.880705
55.685 11.905724
55.690 11.807631
55.695 11.565693
55.700 11.522057
55.705 11.49644
55.710 11.801191
55.715 11.650056
55.720 11.666802
55.725 11.790873
55.730 12.017819
55.735 12.304543
55.740 12.640876
55.745 13.299684
55.750 13.521609
55.755 13.555775
55.760 13.21068
55.765 13.228374
55.770 12.862947
55.775 12.132546
55.780 11.498139
55.785 11.273993
55.790 11.37879
55.795 11.770514
55.800 11.789603
55.805 12.031082
55.810 12.480642
55.815 12.81505
55.820 12.885261
55.825 12.878754
55.830 12.741947
55.835 13.11257
55.840 13.588335
55.845 13.509741
55.850 14.079748
55.855 13.820979
55.860 13.401427
55.865 13.465881
55.870 12.899567
55.875 12.789428
55.880 12.296275
55.885 11.887045
55.890 12.160673
55.895 12.499684
55.900 12.480968
55.905 12.599676
55.910 12.537135
55.915 12.809438
55.920 13.089876
55.925 12.797795
55.930 12.263938
55.935 11.865726
55.940 11.2356
55.945 12.042897
55.950 12.016981
55.955 11.96629
55.960 12.241505
55.965 12.795686
55.970 13.113773
55.975 12.945024
55.980 12.351086
55.985 12.580866
55.990 12.532386
55.995 12.318127
56.000 12.033875
56.005 12.300797
56.010 12.369619
56.015 11.979171
56.020 11.609909
56.025 12.196856
56.030 12.812016
56.035 12.743554
56.040 12.847493
56.045 13.104297
56.050 13.11107
56.055 13.253806
56.060 12.631939
56.065 12.269267
56.070 12.229041
56.075 11.946807
56.080 12.218035
56.085 12.326362
56.090 11.786664
56.095 12.127268
56.100 12.177455
56.105 12.20609
56.110 11.716217
56.115 11.305568
56.120 11.244576
56.125 11.504683
56.130 11.15317
56.135 11.32265
56.140 11.755392
56.145 12.41583
56.150 12.49277
56.155 12.960741
56.160 13.269137
56.165 13.38656
56.170 13.18903
56.175 12.809278
56.180 12.530794
56.185 12.523929
56.190 12.714878
56.195 12.719783
56.200 13.004397
56.205 13.071828
56.210 13.344456
56.215 13.002278
56.220 13.234302
56.225 13.285414
56.230 13.355692
56.235 13.776168
56.240 14.159233
56.245 14.902184
56.250 15.265298
56.255 14.871973
56.260 14.644468
56.265 14.343799
56.270 13.956609
56.275 13.671807
56.280 12.704394
56.285 12.657828
56.290 12.847077
56.295 12.733988
56.300 12.792502
56.305 12.835248
56.310 12.662939
56.315 13.071287
56.320 12.96721
56.325 12.604058
56.330 12.18651
56.335 12.475151
56.340 12.290328
56.345 12.652021
56.350 12.520174
56.355 12.041611
56.360 12.298689
56.365 12.388032
56.370 11.900213
56.375 11.700521
56.380 11.605978
56.385 12.004265
56.390 12.196593
56.395 12.534434
56.400 12.865535
56.405 13.648648
56.410 13.857077
56.415 14.024804
56.420 14.036623
56.425 14.104816
56.430 14.053712
56.435 13.647717
56.440 13.584352
56.445 13.832565
56.450 13.220801
56.455 13.092772
56.460 13.285532
56.465 13.544985
56.470 13.716621
56.475 13.028094
56.480 12.831404
56.485 13.140585
56.490 13.77437
56.495 13.58289
56.500 13.315072
56.505 13.591432
56.510 14.348844
56.515 14.658607
56.520 14.611416
56.525 14.258698
56.530 14.193198
56.535 14.20563
56.540 14.048729
56.545 13.25932
56.550 12.833848
56.555 13.383904
56.560 13.788496
56.565 13.433568
56.570 13.048257
56.575 13.073274
56.580 13.245676
56.585 13.332005
56.590 12.850614
56.595 12.5436
56.600 12.581512
56.605 12.615057
56.610 13.396015
56.615 13.845614
56.620 13.503139
56.625 13.160771
56.630 13.098847
56.635 13.381516
56.640 13.45632
56.645 12.892776
56.650 13.070253
56.655 13.955617
56.660 14.074105
56.665 14.681237
56.670 15.098515
56.675 14.963002
56.680 14.57906
56.685 14.359583
56.690 14.170277
56.695 14.137393
56.700 13.82653
56.705 13.408074
56.710 13.474639
56.715 13.745511
56.720 13.227759
56.725 13.227172
56.730 13.180031
56.735 13.338202
56.740 13.727754
56.745 13.824031
56.750 13.987676
56.755 14.179561
56.760 14.568421
56.765 15.0909
56.770 15.013711
56.775 14.900434
56.780 15.080968
56.785 15.223163
56.790 15.435725
56.795 15.072933
56.800 14.534781
56.805 14.084881
56.810 13.944331
56.815 13.646684
56.820 13.228782
56.825 13.110492
56.830 13.239675
56.835 12.96073
56.840 12.987754
56.845 12.773743
56.850 12.935627
56.855 13.103868
56.860 12.501654
56.865 12.240228
56.870 12.955844
56.875 13.208172
56.880 13.139841
56.885 13.786381
56.890 13.925744
56.895 14.440842
56.900 14.664857
56.905 14.90412
56.910 14.99363
56.915 15.434115
56.920 15.141053
56.925 15.469832
56.930 15.39386
56.935 15.275374
56.940 14.879991
56.945 14.476278
56.950 14.002482
56.955 13.723047
56.960 13.861677
56.965 13.754601
56.970 13.787017
56.975 13.891518
56.980 14.049475
56.985 14.324619
56.990 14.244387
56.995 13.814239
57.000 14.070319
57.005 14.535177
57.010 14.877295
57.015 15.044286
57.020 14.516514
57.025 14.647704
57.030 14.584991
57.035 14.169498
57.040 13.089156
57.045 12.703088
57.050 12.564704
57.055 12.231394
57.060 11.977981
57.065 12.532743
57.070 12.956475
57.075 13.176142
57.080 12.760982
57.085 12.26727
57.090 12.711033
57.095 12.548321
57.100 12.17925
57.105 12.178644
57.110 13.233685
57.115 14.105436
57.120 14.625894
57.125 15.113711
57.130 15.391884
57.135 15.619371
57.140 15.06445
57.145 15.129618
57.150 15.687618
57.155 15.466577
57.160 15.373745
57.165 15.331979
57.170 15.213504
57.175 15.603514
57.180 14.862826
57.185 14.445235
57.190 14.692084
57.195 14.634501
57.200 14.557414
57.205 14.581261
57.210 14.248841
57.215 13.34918
57.220 13.04896
57.225 12.868015
57.230 12.596009
57.235 12.53781
57.240 12.563705
57.245 13.300961
57.250 14.29715
57.255 14.534331
57.260 14.33041
57.265 14.209327
57.270 14.306737
57.275 14.179646
57.280 14.31951
57.285 13.876552
57.290 14.007218
57.295 13.956788
57.300 14.143414
57.305 14.393506
57.310 14.130032
57.315 13.47078
57.320 13.586047
57.325 13.493585
57.330 13.405467
57.335 13.383135
57.340 13.629086
57.345 13.781701
57.350 14.034822
57.355 13.854964
57.360 14.518647
57.365 14.706209
57.370 14.561882
57.375 14.585386
57.380 14.512364
57.385 14.548345
57.390 14.600603
57.395 14.04131
57.400 13.847853
57.405 13.636171
57.410 13.174435
57.415 13.241264
57.420 13.610037
57.425 13.49051
57.430 14.215535
57.435 15.008865
57.440 15.262893
57.445 15.210203
57.450 14.965071
57.455 14.70999
57.460 14.558578
57.465 14.133449
57.470 13.620463
57.475 13.762756
57.480 13.791003
57.485 13.727365
57.490 13.617437
57.495 13.959823
57.500 13.901942
57.505 13.795108
57.510 13.844469
57.515 14.49702
57.520 14.941126
57.525 14.82547
57.530 14.946333
57.535 14.544878
57.540 14.54927
57.545 14.031586
57.550 13.221678
57.555 13.4465
57.560 13.364299
57.565 12.645819
57.570 13.010752
57.575 13.473709
57.580 14.063601
57.585 14.075727
57.590 13.52856
57.595 13.641733
57.600 14.306053
57.605 14.630959
57.610 14.364951
57.615 14.512857
57.620 14.898413
57.625 15.026731
57.630 15.455518
57.635 15.525604
57.640 15.329554
57.645 16.013956
57.650 16.255424
57.655 16.202799
57.660 16.382114
57.665 16.085278
57.670 15.656791
57.675 15.668379
57.680 14.935957
57.685 14.447627
57.690 14.550056
57.695 14.51368
57.700 14.783627
57.705 15.120723
57.710 15.136377
57.715 15.653073
57.720 16.052174
57.725 15.891183
57.730 15.818513
57.735 15.954966
57.740 16.522186
57.745 16.370449
57.750 15.942907
57.755 15.941507
57.760 16.490238
57.765 16.957994
57.770 16.877487
57.775 16.697926
57.780 17.037701
57.785 17.137308
57.790 17.608793
57.795 17.30283
57.800 16.968023
57.805 16.768164
57.810 16.579458
57.815 15.851902
57.820 15.66656
57.825 15.32379
57.830 15.474406
57.835 16.131226
57.840 16.170321
57.845 16.055325
57.850 16.235071
57.855 15.835607
57.860 15.307546
57.865 15.385895
57.870 15.001332
57.875 14.584965
57.880 14.833328
57.885 15.082138
57.890 15.662663
57.895 16.101532
57.900 15.975408
57.905 15.899296
57.910 16.103786
57.915 16.229212
57.920 16.776567
57.925 16.530058
57.930 16.289404
57.935 16.582895
57.940 17.036163
57.945 17.809137
57.950 17.744473
57.955 17.362528
57.960 17.503017
57.965 17.346157
57.970 16.991199
57.975 16.688084
57.980 16.562311
57.985 16.687418
57.990 16.823292
57.995 16.777
58.000 16.691584
58.005 16.95228
58.010 17.52491
58.015 16.82789
58.020 16.195267
58.025 16.025114
58.030 16.699429
58.035 17.200144
58.040 16.673452
58.045 15.983667
58.050 16.384247
58.055 17.019415
58.060 17.171524
58.065 17.190939
58.070 17.194571
58.075 17.293922
58.080 17.206093
58.085 16.859108
58.090 16.12578
58.095 15.19107
58.100 14.463597
58.105 14.662115
58.110 14.731831
58.115 14.904602
58.120 15.446859
58.125 16.236498
58.130 16.459854
58.135 16.355612
58.140 15.816509
58.145 15.86225
58.150 16.188463
58.155 16.531582
58.160 16.448107
58.165 17.283186
58.170 17.849661
58.175 17.92098
58.180 17.636261
58.185 17.158678
58.190 17.006001
58.195 17.379942
58.200 17.301844
58.205 17.74029
58.210 17.797733
58.215 18.612637
58.220 19.17996
58.225 18.812946
58.230 18.668777
58.235 18.833223
58.240 19.066988
58.245 19.270969
58.250 19.415581
58.255 19.322771
58.260 19.648886
58.265 19.758959
58.270 19.234993
58.275 18.761116
58.280 18.799795
58.285 18.194292
58.290 18.264986
58.295 18.055428
58.300 17.925962
58.305 18.458815
58.310 18.460981
58.315 18.468512
58.320 18.899086
58.325 19.645201
58.330 20.01774
58.335 20.184429
58.340 19.481491
58.345 20.326147
58.350 21.518496
58.355 21.46797
58.360 21.124411
58.365 21.02803
58.370 20.969404
58.375 21.322966
58.380 21.625179
58.385 20.829052
58.390 20.617657
58.395 21.162741
58.400 21.514908
58.405 21.864929
58.410 22.086342
58.415 21.785156
58.420 22.718731
58.425 22.658955
58.430 22.743504
58.435 23.631077
58.440 24.493307
58.445 25.20175
58.450 25.483269
58.455 25.510489
58.460 26.831902
58.465 26.711893
58.470 26.665131
