!@!!GADDS PLOTSO FILE: Chi integration type
!@!!Title/SampleName: map-175
!@!!Comment: ?
!@!!User: Bruker Instrument Administrator
!@!!Site: University of Illinois Chicago
!@!!Frame: map-175_01_000.gfrm
!@!!Wavelengths    1.54184   1.54056   1.54439
!@!!Frame angles: 2Theta: 63.000 Omega: 50.000 Phi: 0.000 Chi: 90.000
!@!!Integration range: 2Theta: 53.000 to 73.000  Gamma: -105.000 to -75.000
!@!!Integration method: bin normalized
!@!N
!@!SS
!@!M
!@!L 0.0 0.0 0.0 0.0
!@!XDegrees
!@!YCounts
53.000 4.371144
53.005 4.421346
53.010 4.466141
53.015 4.345281
53.020 4.323884
53.025 4.33939
53.030 4.693655
53.035 5.092373
53.040 5.313756
53.045 5.102789
53.050 5.265923
53.055 5.452397
53.060 5.36358
53.065 5.08629
53.070 4.780236
53.075 4.647844
53.080 4.603012
53.085 4.704623
53.090 4.492198
53.095 4.511498
53.100 4.322361
53.105 4.209354
53.110 4.193825
53.115 4.058595
53.120 3.964789
53.125 3.991396
53.130 4.241838
53.135 4.282845
53.140 4.492259
53.145 4.758606
53.150 4.586563
53.155 4.443436
53.160 4.664332
53.165 4.808107
53.170 5.192555
53.175 5.089936
53.180 5.152029
53.185 5.746214
53.190 5.63246
53.195 5.07759
53.200 4.796465
53.205 4.371619
53.210 4.104293
53.215 3.950099
53.220 3.99239
53.225 4.122429
53.230 4.263121
53.235 4.265834
53.240 4.573461
53.245 4.788629
53.250 4.93347
53.255 4.729542
53.260 5.116662
53.265 5.073755
53.270 5.338703
53.275 5.567475
53.280 5.653178
53.285 5.732657
53.290 5.685289
53.295 5.693878
53.300 5.959561
53.305 5.782763
53.310 5.323695
53.315 5.291405
53.320 5.231255
53.325 5.209464
53.330 5.079954
53.335 4.677269
53.340 4.658686
53.345 4.912357
53.350 4.900508
53.355 4.926969
53.360 4.998321
53.365 4.878142
53.370 4.719718
53.375 4.570835
53.380 4.413181
53.385 4.432276
53.390 4.4846
53.395 4.381206
53.400 4.819286
53.405 5.010999
53.410 5.394001
53.415 5.482094
53.420 5.264358
53.425 5.397656
53.430 5.465291
53.435 5.438016
53.440 5.289896
53.445 5.158947
53.450 5.317194
53.455 5.362587
53.460 5.144504
53.465 5.076001
53.470 4.883177
53.475 4.830664
53.480 4.411453
53.485 4.424736
53.490 4.482073
53.495 4.742288
53.500 4.527329
53.505 4.633627
53.510 4.63087
53.515 4.975897
53.520 4.825516
53.525 4.632108
53.530 4.705962
53.535 4.89732
53.540 5.233963
53.545 4.939441
53.550 4.822472
53.555 4.976989
53.560 5.090697
53.565 4.986166
53.570 4.825418
53.575 4.532086
53.580 4.622617
53.585 4.459288
53.590 4.239236
53.595 4.214937
53.600 4.29677
53.605 4.566573
53.610 4.701756
53.615 4.661643
53.620 4.943857
53.625 4.823841
53.630 4.959476
53.635 4.763794
53.640 4.472291
53.645 4.503016
53.650 4.830152
53.655 4.49893
53.660 4.773707
53.665 4.473164
53.670 4.516108
53.675 4.571734
53.680 4.745866
53.685 4.726942
53.690 4.64848
53.695 4.398566
53.700 4.619631
53.705 4.650897
53.710 4.553346
53.715 4.599813
53.720 4.886853
53.725 5.440776
53.730 5.353877
53.735 5.255924
53.740 5.529859
53.745 5.533557
53.750 4.908858
53.755 4.508628
53.760 4.37411
53.765 4.695885
53.770 5.034157
53.775 4.748981
53.780 4.961856
53.785 5.4907
53.790 5.434676
53.795 5.691126
53.800 5.547691
53.805 5.804977
53.810 5.905834
53.815 5.99201
53.820 6.245477
53.825 6.704346
53.830 6.240113
53.835 6.081147
53.840 5.855361
53.845 5.862654
53.850 5.696186
53.855 5.409402
53.860 4.958033
53.865 4.996959
53.870 4.949209
53.875 4.836227
53.880 5.03315
53.885 4.956669
53.890 4.81076
53.895 5.101132
53.900 5.363379
53.905 5.632588
53.910 5.614209
53.915 5.229643
53.920 5.137221
53.925 4.940138
53.930 4.589772
53.935 4.446292
53.940 4.296078
53.945 4.590841
53.950 4.801972
53.955 4.985496
53.960 5.12595
53.965 5.146575
53.970 4.895463
53.975 4.472451
53.980 4.465942
53.985 4.156692
53.990 3.966241
53.995 4.139587
54.000 4.36698
54.005 4.5629
54.010 4.696512
54.015 4.435467
54.020 4.422924
54.025 4.606316
54.030 4.760008
54.035 4.872158
54.040 5.282593
54.045 5.640153
54.050 6.187081
54.055 6.17044
54.060 5.909797
54.065 5.795094
54.070 5.915495
54.075 5.972884
54.080 5.731327
54.085 5.539361
54.090 5.659878
54.095 5.717333
54.100 5.415627
54.105 4.90744
54.110 4.670438
54.115 4.699941
54.120 4.532006
54.125 4.284257
54.130 4.260203
54.135 4.322678
54.140 4.423356
54.145 4.285467
54.150 4.339076
54.155 4.909631
54.160 5.255328
54.165 5.683477
54.170 6.161558
54.175 6.175686
54.180 6.280551
54.185 6.215356
54.190 5.731576
54.195 5.567007
54.200 4.795712
54.205 4.531047
54.210 4.570148
54.215 4.36762
54.220 4.440143
54.225 4.635875
54.230 4.645893
54.235 4.974104
54.240 4.944941
54.245 4.906481
54.250 4.957818
54.255 5.020194
54.260 5.180908
54.265 5.280175
54.270 5.488175
54.275 5.748881
54.280 5.569026
54.285 5.677317
54.290 5.629814
54.295 5.161005
54.300 5.039027
54.305 4.854865
54.310 4.77309
54.315 5.200282
54.320 4.99979
54.325 5.160074
54.330 5.337745
54.335 5.444007
54.340 5.420136
54.345 5.575255
54.350 5.457728
54.355 5.376992
54.360 5.62473
54.365 5.965517
54.370 5.953206
54.375 5.874099
54.380 5.706147
54.385 5.7205
54.390 5.551823
54.395 5.147784
54.400 4.475603
54.405 4.295077
54.410 4.229313
54.415 4.179462
54.420 4.538749
54.425 4.923712
54.430 5.045826
54.435 5.187051
54.440 5.74319
54.445 6.007755
54.450 5.840515
54.455 5.480697
54.460 5.438488
54.465 5.822551
54.470 6.103207
54.475 5.516713
54.480 5.572823
54.485 5.771687
54.490 5.965601
54.495 5.994837
54.500 5.686207
54.505 5.399627
54.510 5.429066
54.515 5.379358
54.520 5.387396
54.525 5.312345
54.530 5.205545
54.535 5.350511
54.540 5.356128
54.545 5.327225
54.550 5.168159
54.555 5.157357
54.560 5.259723
54.565 5.299708
54.570 5.09602
54.575 5.066499
54.580 5.200329
54.585 5.167408
54.590 5.00226
54.595 4.915251
54.600 5.145484
54.605 5.38513
54.610 5.441052
54.615 5.255323
54.620 5.437373
54.625 5.391222
54.630 5.316245
54.635 5.062573
54.640 5.168448
54.645 5.080182
54.650 5.187404
54.655 5.300793
54.660 5.696805
54.665 6.211311
54.670 6.215112
54.675 6.262474
54.680 6.531105
54.685 6.338861
54.690 6.359037
54.695 6.24263
54.700 6.156245
54.705 6.267527
54.710 6.445988
54.715 6.055867
54.720 5.990379
54.725 5.719613
54.730 5.348195
54.735 5.25458
54.740 5.088627
54.745 5.197662
54.750 5.68821
54.755 5.683532
54.760 5.541228
54.765 5.385882
54.770 5.310343
54.775 5.503857
54.780 5.631126
54.785 5.522989
54.790 5.778483
54.795 6.285508
54.800 6.838915
54.805 6.972425
54.810 6.814089
54.815 6.24634
54.820 6.092416
54.825 6.446074
54.830 6.074711
54.835 5.942006
54.840 5.851247
54.845 5.90648
54.850 6.119664
54.855 6.081035
54.860 5.742666
54.865 5.531318
54.870 5.554254
54.875 5.759532
54.880 5.940578
54.885 6.100293
54.890 6.062478
54.895 5.917043
54.900 5.863789
54.905 5.38551
54.910 5.401571
54.915 5.174344
54.920 5.198533
54.925 5.29481
54.930 5.623962
54.935 5.840044
54.940 5.684605
54.945 5.458552
54.950 5.663185
54.955 5.831992
54.960 5.63788
54.965 5.382435
54.970 5.705128
54.975 6.040884
54.980 6.189395
54.985 5.808934
54.990 5.635625
54.995 5.90291
55.000 6.122234
55.005 5.904347
55.010 5.978777
55.015 5.840895
55.020 6.159854
55.025 6.208997
55.030 5.857396
55.035 5.582162
55.040 5.563599
55.045 5.505148
55.050 5.619972
55.055 5.695057
55.060 5.851497
55.065 5.918895
55.070 5.948779
55.075 5.645447
55.080 5.637686
55.085 5.293789
55.090 4.819936
55.095 4.451221
55.100 4.332286
55.105 4.299907
55.110 4.551437
55.115 4.539858
55.120 4.681585
55.125 5.032311
55.130 5.693297
55.135 6.283357
55.140 6.180274
55.145 6.219414
55.150 6.318955
55.155 6.217458
55.160 6.256721
55.165 6.151039
55.170 6.101079
55.175 6.33796
55.180 6.400359
55.185 6.447324
55.190 6.615105
55.195 6.309251
55.200 6.149583
55.205 6.089252
55.210 5.829076
55.215 5.629954
55.220 6.031425
55.225 6.198388
55.230 6.677505
55.235 6.809367
55.240 6.845944
55.245 7.352962
55.250 7.648119
55.255 6.996467
55.260 6.158626
55.265 5.578484
55.270 5.251335
55.275 5.244286
55.280 5.076598
55.285 4.885502
55.290 5.121622
55.295 5.395942
55.300 5.874106
55.305 6.084315
55.310 5.964291
55.315 5.714107
55.320 5.500225
55.325 5.474097
55.330 5.75222
55.335 5.597438
55.340 5.310273
55.345 5.339788
55.350 5.379706
55.355 5.722397
55.360 5.955816
55.365 5.639537
55.370 5.75008
55.375 5.430902
55.380 5.218351
55.385 4.958066
55.390 4.69057
55.395 4.767722
55.400 4.662895
55.405 4.551277
55.410 5.018284
55.415 5.260426
55.420 5.253858
55.425 5.07998
55.430 5.09766
55.435 5.461572
55.440 5.44555
55.445 5.643315
55.450 5.928038
55.455 6.367117
55.460 6.65168
55.465 6.740687
55.470 6.81198
55.475 6.781329
55.480 6.458219
55.485 6.191223
55.490 6.127859
55.495 6.137599
55.500 5.642581
55.505 5.652397
55.510 5.931672
55.515 5.972403
55.520 6.032962
55.525 5.699136
55.530 5.822734
55.535 6.391048
55.540 6.300653
55.545 6.269746
55.550 6.4724
55.555 6.5718
55.560 6.578383
55.565 6.542884
55.570 6.287181
55.575 6.112215
55.580 5.873848
55.585 5.732921
55.590 6.003519
55.595 5.96283
55.600 5.806774
55.605 5.627981
55.610 5.700367
55.615 5.838179
55.620 5.969423
55.625 5.611582
55.630 5.680028
55.635 5.659038
55.640 5.69156
55.645 5.876436
55.650 6.018097
55.655 5.60324
55.660 5.536843
55.665 5.401315
55.670 5.309811
55.675 5.256479
55.680 4.874367
55.685 4.780496
55.690 5.297976
55.695 5.339575
55.700 5.465734
55.705 5.441423
55.710 5.361062
55.715 5.569582
55.720 5.373249
55.725 5.406147
55.730 5.388329
55.735 5.278109
55.740 5.434538
55.745 5.360877
55.750 5.330296
55.755 5.36562
55.760 5.583993
55.765 6.140702
55.770 6.225196
55.775 6.241693
55.780 6.516891
55.785 6.675513
55.790 6.854277
55.795 6.775938
55.800 6.490412
55.805 6.613707
55.810 6.510451
55.815 6.194165
55.820 5.714529
55.825 5.328747
55.830 5.008541
55.835 5.173724
55.840 5.42992
55.845 5.689062
55.850 6.071916
55.855 6.249615
55.860 6.491351
55.865 6.736131
55.870 6.661771
55.875 6.542845
55.880 6.335748
55.885 6.334225
55.890 6.571946
55.895 6.738075
55.900 6.425766
55.905 6.503764
55.910 6.533673
55.915 6.772501
55.920 6.380521
55.925 6.130179
55.930 5.783914
55.935 5.844641
55.940 6.000784
55.945 6.003389
55.950 6.132416
55.955 6.496234
55.960 6.626115
55.965 6.847111
55.970 7.105104
55.975 7.217017
55.980 7.321782
55.985 7.117835
55.990 6.90581
55.995 6.763788
56.000 6.825615
56.005 6.691172
56.010 6.177098
56.015 5.642067
56.020 5.607526
56.025 5.911351
56.030 6.228565
56.035 6.118417
56.040 5.772422
56.045 5.716702
56.050 5.969572
56.055 6.244697
56.060 6.246683
56.065 5.971616
56.070 5.965456
56.075 6.316076
56.080 6.909399
56.085 6.994752
56.090 6.777208
56.095 6.518616
56.100 6.498649
56.105 6.343155
56.110 6.211643
56.115 5.861266
56.120 5.509991
56.125 5.537854
56.130 5.669219
56.135 5.714896
56.140 5.953023
56.145 6.024144
56.150 6.243897
56.155 6.438158
56.160 6.365762
56.165 6.40531
56.170 6.308061
56.175 6.316887
56.180 6.486845
56.185 6.111912
56.190 5.936995
56.195 5.655562
56.200 5.361244
56.205 5.470456
56.210 5.399847
56.215 5.406721
56.220 5.758979
56.225 5.86767
56.230 6.067091
56.235 6.142919
56.240 5.879361
56.245 5.459163
56.250 5.188048
56.255 4.971247
56.260 5.159451
56.265 5.239282
56.270 5.202158
56.275 5.226619
56.280 5.415237
56.285 5.71838
56.290 5.714731
56.295 5.694263
56.300 5.806131
56.305 5.741778
56.310 5.789511
56.315 5.413363
56.320 5.235149
56.325 5.130391
56.330 5.21567
56.335 5.28693
56.340 5.47118
56.345 6.035076
56.350 6.349689
56.355 6.534787
56.360 6.707767
56.365 6.494166
56.370 6.41924
56.375 6.37314
56.380 6.030779
56.385 6.013266
56.390 5.949638
56.395 5.914738
56.400 5.944098
56.405 5.602206
56.410 5.540508
56.415 5.767178
56.420 5.859945
56.425 5.790868
56.430 5.857751
56.435 6.112307
56.440 6.439479
56.445 6.323919
56.450 6.16615
56.455 6.417315
56.460 6.378504
56.465 6.358407
56.470 6.082497
56.475 6.094971
56.480 6.034059
56.485 5.952378
56.490 6.138944
56.495 6.378004
56.500 6.414049
56.505 6.714337
56.510 7.063886
56.515 7.205205
56.520 7.192424
56.525 6.607603
56.530 6.192833
56.535 6.29847
56.540 6.239959
56.545 5.776088
56.550 5.89544
56.555 5.633912
56.560 5.594923
56.565 5.945538
56.570 5.929343
56.575 5.708826
56.580 6.163029
56.585 6.150847
56.590 6.330113
56.595 6.575559
56.600 6.81148
56.605 6.780283
56.610 6.672112
56.615 6.364734
56.620 6.746218
56.625 6.789299
56.630 6.869945
56.635 6.556809
56.640 6.443881
56.645 6.444348
56.650 6.325033
56.655 5.912112
56.660 5.871735
56.665 5.88758
56.670 6.023402
56.675 6.321712
56.680 6.529244
56.685 6.697693
56.690 6.862676
56.695 6.857825
56.700 6.817638
56.705 6.912025
56.710 7.353694
56.715 7.62094
56.720 7.519404
56.725 7.494018
56.730 7.510287
56.735 7.458087
56.740 7.160652
56.745 6.596633
56.750 6.224872
56.755 6.187244
56.760 6.138485
56.765 6.137679
56.770 5.931445
56.775 5.869118
56.780 6.291477
56.785 6.327401
56.790 6.372254
56.795 6.142337
56.800 6.026805
56.805 6.225061
56.810 6.008686
56.815 5.620734
56.820 5.584358
56.825 5.655622
56.830 6.01617
56.835 6.221952
56.840 6.205574
56.845 6.556006
56.850 6.890465
56.855 6.923928
56.860 7.112442
56.865 7.106581
56.870 7.054893
56.875 7.038207
56.880 6.890449
56.885 6.583948
56.890 6.738915
56.895 6.536613
56.900 6.55462
56.905 6.360825
56.910 6.199153
56.915 6.158293
56.920 6.250245
56.925 6.135544
56.930 6.2206
56.935 6.528763
56.940 6.928013
56.945 7.156414
56.950 7.369186
56.955 7.288629
56.960 7.432451
56.965 7.03635
56.970 6.651518
56.975 6.428559
56.980 6.551773
56.985 6.839162
56.990 7.08245
56.995 7.203388
57.000 7.335793
57.005 7.921948
57.010 8.193796
57.015 8.003192
57.020 7.690937
57.025 7.489412
57.030 7.486801
57.035 7.265062
57.040 6.657155
57.045 6.399373
57.050 6.72394
57.055 6.879789
57.060 6.895406
57.065 6.906195
57.070 7.14318
57.075 7.110387
57.080 7.023779
57.085 6.877382
57.090 6.668327
57.095 6.579484
57.100 6.50529
57.105 6.64223
57.110 6.809433
57.115 6.879661
57.120 6.631076
57.125 6.918294
57.130 7.188817
57.135 7.161611
57.140 7.113583
57.145 7.19515
57.150 7.296044
57.155 7.377639
57.160 7.211725
57.165 6.976058
57.170 6.924733
57.175 6.61347
57.180 6.172068
57.185 6.256925
57.190 6.39607
57.195 6.60034
57.200 6.492058
57.205 6.613263
57.210 6.51051
57.215 6.727262
57.220 6.69498
57.225 6.530354
57.230 6.12466
57.235 6.249518
57.240 6.161495
57.245 6.483323
57.250 6.301847
57.255 6.412537
57.260 6.53042
57.265 6.840783
57.270 7.073547
57.275 7.183348
57.280 7.254769
57.285 7.612027
57.290 7.665118
57.295 7.323102
57.300 6.988558
57.305 6.842959
57.310 6.899656
57.315 6.653117
57.320 6.585533
57.325 6.549171
57.330 6.677795
57.335 6.646693
57.340 6.505076
57.345 6.631191
57.350 6.68734
57.355 6.753039
57.360 7.186647
57.365 7.214243
57.370 7.5223
57.375 7.367167
57.380 7.061834
57.385 6.942117
57.390 6.566718
57.395 6.234744
57.400 6.633244
57.405 6.407145
57.410 6.652989
57.415 7.31811
57.420 7.617543
57.425 7.664584
57.430 7.640576
57.435 7.47029
57.440 7.455081
57.445 7.276525
57.450 6.525231
57.455 6.406907
57.460 6.192712
57.465 6.481539
57.470 6.675012
57.475 6.94594
57.480 7.293782
57.485 7.374979
57.490 7.615113
57.495 7.779668
57.500 7.198922
57.505 6.876329
57.510 6.747894
57.515 6.605119
57.520 6.238932
57.525 5.817694
57.530 5.795349
57.535 6.404959
57.540 6.693446
57.545 6.59935
57.550 6.487701
57.555 6.662165
57.560 7.211623
57.565 7.028841
57.570 6.432008
57.575 5.939873
57.580 5.647788
57.585 5.91306
57.590 5.744609
57.595 5.842535
57.600 6.044895
57.605 6.296371
57.610 6.834861
57.615 7.095893
57.620 7.037238
57.625 7.578239
57.630 7.600636
57.635 7.394214
57.640 7.071346
57.645 7.124005
57.650 7.190351
57.655 7.143189
57.660 6.629474
57.665 6.317567
57.670 6.379026
57.675 6.839951
57.680 6.694286
57.685 6.464349
57.690 6.47172
57.695 6.660787
57.700 6.580644
57.705 6.604736
57.710 6.122056
57.715 6.25469
57.720 6.40638
57.725 6.659449
57.730 6.525914
57.735 6.596988
57.740 6.606633
57.745 6.641069
57.750 6.804314
57.755 6.761847
57.760 6.37288
57.765 6.370592
57.770 6.836672
57.775 6.969747
57.780 6.961645
57.785 6.841491
57.790 6.572987
57.795 6.512513
57.800 6.470501
57.805 6.044404
57.810 5.857927
57.815 5.815848
57.820 5.836341
57.825 6.147127
57.830 6.245686
57.835 6.415749
57.840 6.403572
57.845 6.917799
57.850 7.117659
57.855 6.855194
57.860 6.842305
57.865 7.104255
57.870 7.253754
57.875 7.424817
57.880 7.230996
57.885 7.063555
57.890 7.302351
57.895 7.178243
57.900 6.811066
57.905 6.405225
57.910 6.109537
57.915 5.876509
57.920 5.945724
57.925 5.639916
57.930 5.930812
57.935 6.405763
57.940 7.028043
57.945 7.29081
57.950 7.203357
57.955 6.93974
57.960 7.059824
57.965 7.208416
57.970 6.864621
57.975 6.490512
57.980 6.668809
57.985 6.881381
57.990 7.009859
57.995 7.128918
58.000 7.129029
58.005 7.099075
58.010 7.051518
58.015 6.810108
58.020 6.918791
58.025 6.870755
58.030 6.822766
58.035 6.693801
58.040 6.962726
58.045 6.965213
58.050 6.828827
58.055 7.132669
58.060 7.462502
58.065 7.187661
58.070 7.165126
58.075 6.826214
58.080 6.881343
58.085 6.807344
58.090 6.61073
58.095 6.212278
58.100 6.299073
58.105 6.132072
58.110 6.05567
58.115 5.768452
58.120 5.742226
58.125 5.45288
58.130 5.659036
58.135 5.639114
58.140 5.712864
58.145 5.788312
58.150 5.795641
58.155 5.833703
58.160 5.76712
58.165 5.822509
58.170 6.054915
58.175 6.124289
58.180 6.125758
58.185 6.525343
58.190 6.708574
58.195 6.94299
58.200 6.604352
58.205 6.222643
58.210 6.27374
58.215 6.224602
58.220 5.964754
58.225 6.014104
58.230 6.031813
58.235 6.244186
58.240 6.242552
58.245 6.24665
58.250 6.218418
58.255 6.022294
58.260 5.865215
58.265 5.74158
58.270 5.949944
58.275 5.946616
58.280 5.930655
58.285 6.230611
58.290 6.17873
58.295 6.251329
58.300 6.284775
58.305 6.376124
58.310 6.394762
58.315 6.281418
58.320 5.917291
58.325 6.054414
58.330 5.742063
58.335 5.652689
58.340 5.384173
58.345 5.501716
58.350 5.509244
58.355 5.558456
58.360 5.556926
58.365 5.964177
58.370 5.941162
58.375 6.00319
58.380 6.16426
58.385 6.367014
58.390 6.473157
58.395 6.623664
58.400 6.501344
58.405 6.533969
58.410 6.481755
58.415 6.473245
58.420 6.244828
58.425 6.447282
58.430 6.653481
58.435 6.620831
58.440 6.483401
58.445 6.655695
58.450 6.899595
58.455 7.086007
58.460 6.998679
58.465 6.969083
58.470 7.175406
58.475 7.518339
58.480 7.55864
58.485 7.280415
58.490 7.370602
58.495 7.649744
58.500 7.797118
58.505 8.008086
58.510 7.84178
58.515 7.743027
58.520 7.869523
58.525 7.722041
58.530 7.251356
58.535 6.620418
58.540 6.344631
58.545 6.491257
58.550 6.488076
58.555 6.241844
58.560 6.680594
58.565 7.088126
58.570 7.322337
58.575 7.46642
58.580 7.089262
58.585 6.859467
58.590 6.650796
58.595 6.290812
58.600 6.412545
58.605 6.524766
58.610 6.288013
58.615 6.098184
58.620 6.037209
58.625 6.234778
58.630 6.345586
58.635 6.006883
58.640 6.011619
58.645 6.188178
58.650 6.528761
58.655 6.826549
58.660 6.869807
58.665 6.972413
58.670 7.022112
58.675 7.001549
58.680 7.08023
58.685 7.069626
58.690 7.032124
58.695 6.886869
58.700 6.385072
58.705 6.026096
58.710 5.999134
58.715 5.950918
58.720 6.230904
58.725 6.172822
58.730 6.251396
58.735 6.454392
58.740 6.964303
58.745 7.134249
58.750 7.172067
58.755 7.047453
58.760 7.109066
