!@!!GADDS PLOTSO FILE: Chi integration type
!@!!Title/SampleName: map-29
!@!!Comment: ?
!@!!User: Bruker Instrument Administrator
!@!!Site: University of Illinois Chicago
!@!!Frame: map-29_01_000.gfrm
!@!!Wavelengths    1.54184   1.54056   1.54439
!@!!Frame angles: 2Theta: 63.000 Omega: 50.000 Phi: 0.000 Chi: 90.000
!@!!Integration range: 2Theta: 53.000 to 73.000  Gamma: -105.000 to -75.000
!@!!Integration method: bin normalized
!@!N
!@!SS
!@!M
!@!L 0.0 0.0 0.0 0.0
!@!XDegrees
!@!YCounts
53.000 6.341733
53.005 6.347695
53.010 5.967547
53.015 6.09535
53.020 6.168463
53.025 5.885473
53.030 5.761546
53.035 5.559578
53.040 5.708006
53.045 5.949007
53.050 5.944821
53.055 6.245398
53.060 6.281676
53.065 6.187407
53.070 5.918407
53.075 5.88955
53.080 5.976077
53.085 5.836837
53.090 5.924146
53.095 6.379114
53.100 6.630679
53.105 6.858169
53.110 6.71523
53.115 6.902705
53.120 7.284799
53.125 7.163505
53.130 7.287213
53.135 7.428598
53.140 7.554064
53.145 7.76188
53.150 7.479557
53.155 7.300295
53.160 7.379381
53.165 7.065997
53.170 7.304898
53.175 7.313143
53.180 7.45862
53.185 7.636579
53.190 8.080297
53.195 7.950532
53.200 7.927557
53.205 7.81277
53.210 7.817984
53.215 8.048267
53.220 7.953463
53.225 7.596455
53.230 7.483898
53.235 7.606342
53.240 7.645001
53.245 7.543973
53.250 7.363881
53.255 6.759863
53.260 6.755839
53.265 6.771744
53.270 6.629752
53.275 6.350107
53.280 6.413705
53.285 6.481046
53.290 6.851415
53.295 6.935653
53.300 6.658025
53.305 6.692419
53.310 6.887084
53.315 6.799051
53.320 6.791637
53.325 7.158379
53.330 7.319179
53.335 7.475928
53.340 7.271465
53.345 6.887856
53.350 7.078663
53.355 7.228317
53.360 7.065326
53.365 6.988493
53.370 6.705193
53.375 7.032004
53.380 7.270817
53.385 7.057723
53.390 6.902928
53.395 6.624028
53.400 6.465744
53.405 7.113962
53.410 7.111015
53.415 7.206195
53.420 7.328282
53.425 7.190574
53.430 7.038908
53.435 7.229412
53.440 6.641585
53.445 6.500162
53.450 6.258132
53.455 6.000029
53.460 6.034125
53.465 6.278428
53.470 6.112313
53.475 6.214981
53.480 6.168355
53.485 6.292204
53.490 6.598295
53.495 6.760436
53.500 7.325972
53.505 7.473859
53.510 7.359297
53.515 7.826668
53.520 7.94317
53.525 8.005557
53.530 7.815099
53.535 7.313076
53.540 7.337647
53.545 7.335073
53.550 7.168931
53.555 7.349869
53.560 7.470741
53.565 7.723315
53.570 7.86741
53.575 7.954127
53.580 8.15404
53.585 8.177784
53.590 8.014923
53.595 7.860864
53.600 7.985072
53.605 8.141582
53.610 8.483816
53.615 8.467172
53.620 8.248731
53.625 8.639966
53.630 8.355587
53.635 8.366608
53.640 8.326626
53.645 7.647304
53.650 7.299991
53.655 7.411639
53.660 7.496582
53.665 7.227175
53.670 6.964746
53.675 7.143187
53.680 7.472612
53.685 7.486082
53.690 7.758751
53.695 7.861145
53.700 8.755265
53.705 8.55475
53.710 8.473861
53.715 8.525543
53.720 8.276114
53.725 7.326618
53.730 7.314511
53.735 7.05766
53.740 7.363307
53.745 7.615247
53.750 7.614228
53.755 8.133492
53.760 8.471556
53.765 8.505161
53.770 8.430302
53.775 8.106666
53.780 8.036571
53.785 8.144629
53.790 8.277534
53.795 8.07013
53.800 8.070419
53.805 7.777612
53.810 7.871286
53.815 8.196051
53.820 7.892494
53.825 8.142735
53.830 8.010654
53.835 7.729622
53.840 7.81585
53.845 7.641076
53.850 7.458084
53.855 7.657897
53.860 8.093435
53.865 8.276201
53.870 8.327433
53.875 8.506669
53.880 8.360893
53.885 8.456637
53.890 8.293666
53.895 7.681042
53.900 7.727862
53.905 8.12374
53.910 8.385278
53.915 8.394268
53.920 8.441951
53.925 8.484525
53.930 8.64722
53.935 8.941964
53.940 8.881136
53.945 8.649195
53.950 8.82973
53.955 8.451137
53.960 8.478381
53.965 8.454502
53.970 8.122262
53.975 7.976023
53.980 8.064606
53.985 7.581482
53.990 7.698528
53.995 7.187247
54.000 7.597008
54.005 7.632995
54.010 7.267726
54.015 7.122817
54.020 6.964325
54.025 7.3211
54.030 7.826634
54.035 7.737947
54.040 7.470836
54.045 7.92264
54.050 8.456623
54.055 8.892586
54.060 8.654216
54.065 8.287405
54.070 8.344853
54.075 8.492752
54.080 8.627197
54.085 8.320369
54.090 8.055655
54.095 8.224109
54.100 8.848726
54.105 9.477116
54.110 9.417686
54.115 9.513939
54.120 9.694143
54.125 9.792769
54.130 9.882913
54.135 9.439757
54.140 9.163498
54.145 9.214217
54.150 8.943157
54.155 8.992177
54.160 8.868134
54.165 8.27439
54.170 8.040971
54.175 8.051127
54.180 8.089368
54.185 7.927408
54.190 7.771549
54.195 8.078644
54.200 8.659063
54.205 8.779489
54.210 8.717739
54.215 9.015483
54.220 9.577776
54.225 9.705534
54.230 9.468868
54.235 9.228836
54.240 9.26601
54.245 9.022415
54.250 8.757747
54.255 8.890146
54.260 9.012454
54.265 8.650793
54.270 8.392629
54.275 8.310297
54.280 8.771253
54.285 8.412334
54.290 8.359862
54.295 8.300346
54.300 8.583034
54.305 8.879025
54.310 8.918912
54.315 8.719212
54.320 8.897458
54.325 8.704629
54.330 9.05626
54.335 9.450006
54.340 9.535636
54.345 9.099572
54.350 9.059965
54.355 9.030848
54.360 9.221777
54.365 8.723052
54.370 8.238689
54.375 8.1581
54.380 8.281499
54.385 8.222928
54.390 7.883166
54.395 7.320305
54.400 7.086035
54.405 7.101065
54.410 7.516914
54.415 7.584986
54.420 7.544645
54.425 7.932052
54.430 8.725358
54.435 9.279154
54.440 9.538033
54.445 9.161704
54.450 9.241087
54.455 10.038958
54.460 10.387511
54.465 9.958281
54.470 9.350301
54.475 8.633888
54.480 8.787222
54.485 8.486092
54.490 7.90333
54.495 7.41349
54.500 7.235432
54.505 7.396163
54.510 7.669988
54.515 7.676461
54.520 7.704564
54.525 7.855708
54.530 8.100408
54.535 8.431434
54.540 8.846247
54.545 8.804626
54.550 8.987844
54.555 8.863404
54.560 8.799398
54.565 8.740907
54.570 8.571907
54.575 8.515138
54.580 8.269212
54.585 8.280973
54.590 8.108307
54.595 8.69116
54.600 8.732949
54.605 8.767229
54.610 8.74473
54.615 9.012701
54.620 9.445363
54.625 9.563823
54.630 8.9527
54.635 9.059376
54.640 9.217976
54.645 9.474002
54.650 9.149954
54.655 8.852525
54.660 8.896566
54.665 8.937228
54.670 9.054246
54.675 8.625599
54.680 8.856109
54.685 8.520531
54.690 8.434788
54.695 8.455964
54.700 8.489341
54.705 8.223458
54.710 8.768484
54.715 9.108564
54.720 9.57237
54.725 9.43705
54.730 9.515635
54.735 9.284703
54.740 9.196928
54.745 8.821973
54.750 8.168914
54.755 8.49684
54.760 8.981822
54.765 9.074398
54.770 9.528917
54.775 9.779164
54.780 9.767659
54.785 9.56758
54.790 9.052349
54.795 8.737843
54.800 8.524746
54.805 8.415581
54.810 8.021488
54.815 8.146995
54.820 8.534036
54.825 8.847805
54.830 9.23065
54.835 9.295184
54.840 9.458417
54.845 9.719576
54.850 9.858359
54.855 9.591427
54.860 8.931709
54.865 8.67672
54.870 8.882813
54.875 8.853347
54.880 9.189425
54.885 9.031181
54.890 9.180632
54.895 9.243864
54.900 9.147861
54.905 8.807325
54.910 9.180116
54.915 8.964744
54.920 9.047283
54.925 9.467688
54.930 9.789267
54.935 9.84626
54.940 9.950507
54.945 9.271598
54.950 9.340495
54.955 9.257652
54.960 8.976817
54.965 8.92653
54.970 9.116323
54.975 9.249622
54.980 9.535158
54.985 9.941077
54.990 10.465551
54.995 10.364185
55.000 10.122249
55.005 9.753885
55.010 9.509941
55.015 9.376573
55.020 9.226196
55.025 9.107928
55.030 9.357442
55.035 9.808245
55.040 10.508028
55.045 10.314418
55.050 10.620391
55.055 10.297721
55.060 10.257626
55.065 9.871436
55.070 9.395835
55.075 9.209921
55.080 9.398948
55.085 8.463092
55.090 8.004437
55.095 7.964846
55.100 7.998406
55.105 8.148612
55.110 8.10156
55.115 8.461061
55.120 9.216494
55.125 9.593773
55.130 9.887831
55.135 10.35375
55.140 10.26278
55.145 10.206668
55.150 9.923958
55.155 9.55646
55.160 9.522031
55.165 9.511818
55.170 9.710546
55.175 9.732265
55.180 9.814903
55.185 10.005648
55.190 10.415374
55.195 10.63105
55.200 10.501514
55.205 10.459848
55.210 10.282922
55.215 10.405713
55.220 10.250776
55.225 10.416245
55.230 10.277657
55.235 10.113235
55.240 9.631659
55.245 9.57049
55.250 9.429754
55.255 8.925778
55.260 8.539437
55.265 8.601871
55.270 9.189313
55.275 9.752759
55.280 10.285384
55.285 10.383647
55.290 10.753379
55.295 10.772777
55.300 10.411372
55.305 9.842918
55.310 9.515077
55.315 8.988571
55.320 9.029816
55.325 8.829642
55.330 8.640367
55.335 8.830059
55.340 8.72333
55.345 8.626722
55.350 8.533418
55.355 8.212313
55.360 8.526398
55.365 9.156281
55.370 9.219807
55.375 9.285575
55.380 9.428243
55.385 9.71903
55.390 10.328445
55.395 9.949631
55.400 9.529927
55.405 9.866982
55.410 9.923915
55.415 9.602201
55.420 9.705636
55.425 9.538297
55.430 9.862206
55.435 9.874475
55.440 9.634845
55.445 9.785347
55.450 10.262965
55.455 10.24299
55.460 10.312656
55.465 10.225753
55.470 10.294644
55.475 10.450555
55.480 10.271096
55.485 10.43516
55.490 10.368729
55.495 10.552959
55.500 10.535909
55.505 10.510082
55.510 10.611646
55.515 10.975047
55.520 11.025193
55.525 10.675185
55.530 9.917014
55.535 9.656559
55.540 9.837924
55.545 9.779675
55.550 9.489484
55.555 9.075558
55.560 8.779563
55.565 9.067267
55.570 8.984352
55.575 9.154535
55.580 9.3016
55.585 9.764474
55.590 10.692725
55.595 11.546223
55.600 12.033674
55.605 12.010614
55.610 12.168164
55.615 11.967299
55.620 11.541726
55.625 10.524313
55.630 9.958666
55.635 9.316957
55.640 9.27562
55.645 8.771849
55.650 8.308769
55.655 8.499353
55.660 8.988684
55.665 9.229526
55.670 9.58858
55.675 9.840242
55.680 10.148932
55.685 10.601859
55.690 10.613076
55.695 10.77636
55.700 10.779931
55.705 11.085402
55.710 10.683342
55.715 10.471889
55.720 10.676084
55.725 10.856282
55.730 10.972443
55.735 10.586002
55.740 10.332137
55.745 10.482354
55.750 10.629902
55.755 10.329834
55.760 9.859743
55.765 9.757002
55.770 10.099948
55.775 9.996799
55.780 9.881422
55.785 9.733229
55.790 9.99683
55.795 10.206469
55.800 10.419484
55.805 10.295452
55.810 10.831049
55.815 11.124681
55.820 10.964799
55.825 10.894231
55.830 11.167669
55.835 11.137537
55.840 11.091177
55.845 10.818102
55.850 10.750003
55.855 10.824862
55.860 10.636519
55.865 10.578218
55.870 10.579546
55.875 10.567083
55.880 10.632704
55.885 10.30926
55.890 9.996099
55.895 9.827013
55.900 9.243258
55.905 8.886024
55.910 8.822932
55.915 8.706334
55.920 9.038134
55.925 9.636066
55.930 9.606426
55.935 10.161904
55.940 10.547954
55.945 10.446866
55.950 10.037919
55.955 9.871716
55.960 9.302795
55.965 9.176757
55.970 9.358188
55.975 9.725522
55.980 10.164998
55.985 10.425734
55.990 10.516858
55.995 10.673257
56.000 10.597606
56.005 10.397441
56.010 10.375607
56.015 10.467937
56.020 10.765053
56.025 10.842093
56.030 11.012255
56.035 11.089205
56.040 10.926445
56.045 10.47916
56.050 10.316503
56.055 10.307457
56.060 10.442156
56.065 10.840178
56.070 11.473868
56.075 11.825984
56.080 12.107509
56.085 11.879574
56.090 11.622203
56.095 11.735266
56.100 11.116852
56.105 10.553272
56.110 9.85336
56.115 9.906044
56.120 10.15051
56.125 10.072253
56.130 10.1546
56.135 10.2151
56.140 10.467219
56.145 10.106992
56.150 9.879741
56.155 10.080146
56.160 10.023645
56.165 9.771038
56.170 9.742593
56.175 9.904339
56.180 10.670981
56.185 10.604788
56.190 10.550366
56.195 10.752358
56.200 11.345592
56.205 11.919479
56.210 12.167157
56.215 11.849601
56.220 11.995523
56.225 11.78205
56.230 11.402702
56.235 11.041739
56.240 10.381266
56.245 10.549457
56.250 11.051088
56.255 10.703095
56.260 11.148027
56.265 11.20997
56.270 11.336834
56.275 11.259242
56.280 10.738114
56.285 10.585797
56.290 10.715521
56.295 10.85125
56.300 11.142754
56.305 11.027385
56.310 10.886346
56.315 10.942994
56.320 10.802692
56.325 10.631311
56.330 9.693309
56.335 9.26928
56.340 9.370564
56.345 9.730479
56.350 9.941857
56.355 9.973864
56.360 10.099431
56.365 10.797843
56.370 11.012634
56.375 10.808253
56.380 10.549604
56.385 10.169667
56.390 10.040556
56.395 10.176624
56.400 9.888107
56.405 9.636802
56.410 9.780829
56.415 9.814552
56.420 9.570513
56.425 10.194915
56.430 10.539547
56.435 10.37218
56.440 10.596812
56.445 10.526241
56.450 10.688036
56.455 10.804854
56.460 10.500939
56.465 10.809228
56.470 11.07638
56.475 11.163222
56.480 11.077629
56.485 11.083776
56.490 11.266531
56.495 10.935048
56.500 10.728176
56.505 10.341449
56.510 10.13247
56.515 10.036144
56.520 10.041542
56.525 10.290548
56.530 10.190136
56.535 10.151117
56.540 10.252135
56.545 10.625682
56.550 11.244512
56.555 11.561921
56.560 11.55098
56.565 11.285587
56.570 11.451323
56.575 11.475493
56.580 11.471754
56.585 10.951723
56.590 11.414237
56.595 11.844192
56.600 12.682826
56.605 12.602143
56.610 12.40976
56.615 12.496044
56.620 12.370437
56.625 11.722696
56.630 11.442635
56.635 11.236092
56.640 11.448289
56.645 11.570157
56.650 11.12041
56.655 11.195503
56.660 11.158281
56.665 10.785941
56.670 10.83811
56.675 10.606333
56.680 10.722352
56.685 11.379804
56.690 11.695274
56.695 11.928251
56.700 12.026558
56.705 11.665034
56.710 11.833798
56.715 12.013076
56.720 11.657468
56.725 11.538697
56.730 11.528293
56.735 11.975555
56.740 12.046693
56.745 11.855185
56.750 11.703589
56.755 11.691683
56.760 11.653219
56.765 11.606939
56.770 11.902448
56.775 11.950999
56.780 11.989417
56.785 12.070806
56.790 11.670198
56.795 11.563693
56.800 11.388185
56.805 11.050266
56.810 11.19698
56.815 10.721516
56.820 10.756412
56.825 11.38461
56.830 11.618447
56.835 12.492649
56.840 12.798542
56.845 13.076392
56.850 13.232516
56.855 13.079795
56.860 12.576993
56.865 12.667085
56.870 12.411509
56.875 12.420518
56.880 12.280787
56.885 12.529445
56.890 12.81486
56.895 13.076664
56.900 12.745479
56.905 12.708016
56.910 12.910584
56.915 12.87358
56.920 13.106462
56.925 13.005779
56.930 13.613715
56.935 13.427882
56.940 13.080938
56.945 12.841248
56.950 12.976041
56.955 12.667909
56.960 12.546502
56.965 11.99119
56.970 12.30645
56.975 12.567031
56.980 12.345148
56.985 12.295509
56.990 12.721162
56.995 13.073988
57.000 13.062333
57.005 12.301432
57.010 11.954465
57.015 12.294163
57.020 12.510913
57.025 12.06333
57.030 11.432553
57.035 11.592608
57.040 11.494802
57.045 11.467501
57.050 11.11437
57.055 11.059629
57.060 11.875076
57.065 12.266286
57.070 12.475425
57.075 12.942018
57.080 12.871517
57.085 12.732591
57.090 12.33943
57.095 12.266139
57.100 11.99628
57.105 11.405512
57.110 11.1296
57.115 11.382976
57.120 11.483889
57.125 11.682442
57.130 11.555514
57.135 11.990396
57.140 12.323823
57.145 12.089828
57.150 11.848798
57.155 11.788168
57.160 11.48863
57.165 11.255753
57.170 10.962749
57.175 11.281672
57.180 11.742508
57.185 11.987754
57.190 12.124949
57.195 12.494201
57.200 12.835214
57.205 13.229118
57.210 13.306929
57.215 13.629384
57.220 13.216465
57.225 13.447309
57.230 13.402236
57.235 13.127584
57.240 12.898843
57.245 12.916146
57.250 12.552031
57.255 12.648607
57.260 12.391258
57.265 12.543992
57.270 12.568934
57.275 12.624861
57.280 12.506812
57.285 12.493737
57.290 12.505939
57.295 12.710343
57.300 12.422633
57.305 12.441381
57.310 12.269026
57.315 12.262422
57.320 12.75421
57.325 12.776452
57.330 12.228885
57.335 12.355576
57.340 12.405036
57.345 12.365789
57.350 12.474903
57.355 12.343225
57.360 12.440796
57.365 12.791349
57.370 12.771358
57.375 12.803755
57.380 13.091911
57.385 13.455143
57.390 13.428365
57.395 13.430326
57.400 13.654942
57.405 13.932349
57.410 13.831583
57.415 13.39756
57.420 13.294935
57.425 13.309084
57.430 13.581467
57.435 13.350251
57.440 12.723969
57.445 12.529506
57.450 12.604077
57.455 11.945241
57.460 12.35951
57.465 12.635163
57.470 12.603541
57.475 12.797331
57.480 13.021215
57.485 12.904032
57.490 13.211302
57.495 13.331156
57.500 13.084606
57.505 13.477598
57.510 13.907854
57.515 13.768674
57.520 13.962387
57.525 13.859984
57.530 13.055824
57.535 12.92707
57.540 12.264811
57.545 11.850301
57.550 11.551323
57.555 11.81551
57.560 11.886419
57.565 12.073268
57.570 11.86654
57.575 12.07432
57.580 12.463279
57.585 13.011438
57.590 12.991061
57.595 13.349369
57.600 13.431572
57.605 13.630409
57.610 13.537292
57.615 13.438621
57.620 13.402535
57.625 13.193444
57.630 12.417399
57.635 12.43758
57.640 12.358834
57.645 12.543723
57.650 12.593864
57.655 12.547108
57.660 13.011722
57.665 12.934327
57.670 12.913603
57.675 12.781147
57.680 12.584436
57.685 12.15726
57.690 11.953161
57.695 11.701681
57.700 11.985614
57.705 11.908569
57.710 11.735035
57.715 11.583414
57.720 11.694651
57.725 11.600441
57.730 11.099644
57.735 11.097645
57.740 11.351376
57.745 11.904658
57.750 11.923906
57.755 12.164529
57.760 12.52463
57.765 12.645347
57.770 12.208399
57.775 12.044147
57.780 12.296828
57.785 12.735168
57.790 12.606493
57.795 12.337373
57.800 12.67016
57.805 13.348475
57.810 13.7498
57.815 13.83209
57.820 14.174517
57.825 14.345918
57.830 14.68047
57.835 15.265429
57.840 15.057555
57.845 14.657041
57.850 13.926861
57.855 13.358393
57.860 13.158004
57.865 12.688371
57.870 12.224925
57.875 12.21765
57.880 12.269526
57.885 12.582922
57.890 13.024093
57.895 13.005194
57.900 13.498009
57.905 13.209762
57.910 13.021061
57.915 13.039151
57.920 12.648564
57.925 12.352159
57.930 12.561972
57.935 12.1274
57.940 12.285171
57.945 12.525601
57.950 12.741714
57.955 13.395187
57.960 13.363873
57.965 13.203802
57.970 12.586587
57.975 12.360325
57.980 11.951903
57.985 12.162479
57.990 11.740746
57.995 11.889342
58.000 12.104923
58.005 13.139772
58.010 13.689402
58.015 13.574849
58.020 13.686425
58.025 13.847555
58.030 14.264196
58.035 14.47973
58.040 14.548482
58.045 14.368733
58.050 14.18802
58.055 14.113937
58.060 13.96769
58.065 13.997869
58.070 13.756178
58.075 13.209965
58.080 13.317575
58.085 13.425928
58.090 13.521755
58.095 13.361815
58.100 13.050019
58.105 13.299865
58.110 13.602083
58.115 13.499587
58.120 13.599354
58.125 13.637016
58.130 13.564045
58.135 13.29906
58.140 13.301184
58.145 13.191096
58.150 13.239135
58.155 12.639289
58.160 12.246519
58.165 12.436488
58.170 12.496387
58.175 12.51343
58.180 12.545115
58.185 12.726476
58.190 12.930506
58.195 12.891607
58.200 12.796898
58.205 12.967693
58.210 13.104262
58.215 13.531865
58.220 13.741257
58.225 13.875026
58.230 14.073053
58.235 13.984606
58.240 13.665312
58.245 13.455394
58.250 13.243469
58.255 13.472256
58.260 13.605845
58.265 13.469563
58.270 13.761192
58.275 13.949494
58.280 13.858385
58.285 13.838446
58.290 13.518549
58.295 13.569846
58.300 13.892646
58.305 14.060315
58.310 14.066629
58.315 14.365471
58.320 14.47404
58.325 14.401145
58.330 14.016819
58.335 13.888709
58.340 13.764815
58.345 13.55543
58.350 13.359176
58.355 13.096621
58.360 13.246161
58.365 13.80443
58.370 13.948489
58.375 13.938191
58.380 14.062495
58.385 14.008118
58.390 14.642841
58.395 14.649252
58.400 14.579819
58.405 14.190379
58.410 14.12654
58.415 13.860829
58.420 13.699988
58.425 13.596395
58.430 13.57947
58.435 13.578441
58.440 13.813629
58.445 13.799996
58.450 13.646412
58.455 13.126575
58.460 12.966841
58.465 12.59103
58.470 11.847523
58.475 11.645872
58.480 11.465911
58.485 11.7307
58.490 11.509017
58.495 11.191217
58.500 11.698496
58.505 12.494242
58.510 12.403626
58.515 13.209117
58.520 13.718201
58.525 14.47524
58.530 14.309169
58.535 14.410734
58.540 14.484994
58.545 15.092714
58.550 14.568048
58.555 13.810611
58.560 13.569162
58.565 13.880328
58.570 13.832607
58.575 13.341949
58.580 12.894234
58.585 13.084974
