!@!!GADDS PLOTSO FILE: Chi integration type
!@!!Title/SampleName: map-f7
!@!!Comment: ?
!@!!User: Bruker Instrument Administrator
!@!!Site: University of Illinois Chicago
!@!!Frame: map-f7_01_000.gfrm
!@!!Wavelengths    1.54184   1.54056   1.54439
!@!!Frame angles: 2Theta: 63.000 Omega: 50.000 Phi: 0.000 Chi: 90.000
!@!!Integration range: 2Theta: 53.000 to 73.000  Gamma: -105.000 to -75.000
!@!!Integration method: bin normalized
!@!N
!@!SS
!@!M
!@!L 0.0 0.0 0.0 0.0
!@!XDegrees
!@!YCounts
53.000 5.074976
53.005 5.318785
53.010 5.417237
53.015 5.453472
53.020 5.629808
53.025 5.37988
53.030 5.389709
53.035 5.376519
53.040 5.353051
53.045 5.58044
53.050 5.963827
53.055 5.867073
53.060 5.987941
53.065 5.716562
53.070 5.41887
53.075 5.354009
53.080 5.230324
53.085 4.878989
53.090 5.243494
53.095 5.50852
53.100 5.862913
53.105 6.304897
53.110 6.51348
53.115 6.485532
53.120 6.355377
53.125 5.955276
53.130 5.58718
53.135 5.715958
53.140 5.576034
53.145 5.137643
53.150 4.665638
53.155 4.971648
53.160 5.049483
53.165 5.071067
53.170 4.931684
53.175 4.858076
53.180 5.400314
53.185 5.336145
53.190 5.26511
53.195 5.4012
53.200 5.484604
53.205 5.585545
53.210 5.902447
53.215 5.922588
53.220 6.077396
53.225 6.1187
53.230 5.967396
53.235 5.786438
53.240 5.248009
53.245 4.962669
53.250 4.943699
53.255 5.19768
53.260 4.958759
53.265 5.323188
53.270 5.555998
53.275 5.744078
53.280 5.760825
53.285 6.247562
53.290 6.059372
53.295 6.1689
53.300 5.868473
53.305 6.021515
53.310 6.203985
53.315 5.983213
53.320 5.473168
53.325 5.721203
53.330 5.568224
53.335 5.356822
53.340 5.354967
53.345 5.056425
53.350 5.159047
53.355 5.123896
53.360 5.001612
53.365 5.169566
53.370 5.355031
53.375 5.699105
53.380 5.8103
53.385 5.686675
53.390 5.76532
53.395 5.928342
53.400 6.011652
53.405 5.520074
53.410 5.38528
53.415 5.776385
53.420 6.246955
53.425 6.043975
53.430 5.784604
53.435 5.607333
53.440 5.827813
53.445 5.68097
53.450 5.474343
53.455 5.206161
53.460 5.397932
53.465 5.365421
53.470 5.522697
53.475 5.553969
53.480 5.520908
53.485 5.489875
53.490 5.485742
53.495 5.553113
53.500 5.57996
53.505 5.623969
53.510 5.635949
53.515 5.516735
53.520 5.641578
53.525 5.766548
53.530 5.95473
53.535 6.307212
53.540 6.217413
53.545 6.27594
53.550 6.806853
53.555 6.938957
53.560 6.716379
53.565 6.556566
53.570 6.616134
53.575 6.736556
53.580 6.720657
53.585 6.198627
53.590 6.073873
53.595 6.326044
53.600 6.335053
53.605 6.242128
53.610 6.347819
53.615 6.202349
53.620 6.183185
53.625 6.553034
53.630 6.769893
53.635 6.74626
53.640 6.807893
53.645 6.538846
53.650 6.627931
53.655 6.677499
53.660 6.356266
53.665 6.027401
53.670 5.764679
53.675 5.48521
53.680 5.536696
53.685 5.434566
53.690 5.090695
53.695 4.914987
53.700 5.27769
53.705 5.638778
53.710 5.696968
53.715 5.885754
53.720 5.933497
53.725 6.312142
53.730 6.266943
53.735 6.32277
53.740 6.45025
53.745 6.336137
53.750 6.158438
53.755 6.080651
53.760 5.811127
53.765 6.078162
53.770 6.139986
53.775 6.029806
53.780 6.230719
53.785 6.268989
53.790 6.578564
53.795 7.048673
53.800 6.586689
53.805 6.183221
53.810 5.894228
53.815 5.857569
53.820 6.28642
53.825 6.181159
53.830 5.882682
53.835 6.17509
53.840 6.34898
53.845 7.018098
53.850 6.927543
53.855 6.780087
53.860 6.784366
53.865 6.595777
53.870 6.62239
53.875 6.882664
53.880 6.737355
53.885 6.54722
53.890 6.291452
53.895 6.429605
53.900 6.676932
53.905 6.672792
53.910 6.300457
53.915 6.079694
53.920 6.43224
53.925 6.620296
53.930 6.446132
53.935 6.02334
53.940 5.922526
53.945 6.151361
53.950 6.176425
53.955 6.276514
53.960 6.601858
53.965 6.973008
53.970 6.810417
53.975 7.175115
53.980 7.751348
53.985 8.054949
53.990 7.721484
53.995 7.61757
54.000 7.654575
54.005 7.663738
54.010 7.054891
54.015 6.579444
54.020 6.514914
54.025 6.559627
54.030 6.620018
54.035 6.721813
54.040 7.017009
54.045 6.850379
54.050 6.903893
54.055 6.909372
54.060 6.709602
54.065 6.75666
54.070 6.49511
54.075 6.638542
54.080 7.238139
54.085 7.247738
54.090 7.612304
54.095 7.725726
54.100 7.486635
54.105 7.755936
54.110 7.749892
54.115 7.422221
54.120 7.341887
54.125 7.080034
54.130 7.016746
54.135 6.888833
54.140 6.797367
54.145 6.855018
54.150 6.554792
54.155 6.452661
54.160 6.419918
54.165 6.68937
54.170 7.008101
54.175 7.218813
54.180 7.247489
54.185 7.378177
54.190 7.296212
54.195 7.374202
54.200 7.406355
54.205 7.4132
54.210 6.801521
54.215 6.6737
54.220 6.776551
54.225 6.593801
54.230 6.618522
54.235 6.89338
54.240 7.125879
54.245 7.312992
54.250 7.0271
54.255 7.071211
54.260 7.473659
54.265 7.400825
54.270 7.177731
54.275 6.731008
54.280 6.800407
54.285 7.282722
54.290 7.486441
54.295 7.612607
54.300 7.307048
54.305 7.374952
54.310 7.712426
54.315 7.682481
54.320 7.492819
54.325 7.094568
54.330 7.045337
54.335 7.323447
54.340 6.85344
54.345 7.047793
54.350 7.058259
54.355 7.047341
54.360 7.34643
54.365 7.324873
54.370 7.217595
54.375 7.640838
54.380 7.494238
54.385 7.500101
54.390 7.203864
54.395 6.639918
54.400 6.505205
54.405 6.762107
54.410 6.934561
54.415 7.001398
54.420 7.062885
54.425 7.114821
54.430 7.41526
54.435 7.403603
54.440 7.268696
54.445 7.269915
54.450 7.199986
54.455 7.469967
54.460 7.78998
54.465 7.987023
54.470 8.003894
54.475 7.915402
54.480 8.148268
54.485 8.252098
54.490 8.258245
54.495 7.884792
54.500 7.405032
54.505 7.518149
54.510 7.530356
54.515 7.102795
54.520 6.814361
54.525 6.643091
54.530 6.990339
54.535 7.110091
54.540 7.157252
54.545 7.433651
54.550 7.550812
54.555 7.94484
54.560 8.225959
54.565 8.257915
54.570 8.418803
54.575 8.231609
54.580 8.283123
54.585 8.235351
54.590 8.001708
54.595 8.190187
54.600 8.333758
54.605 8.484756
54.610 8.327369
54.615 8.168591
54.620 8.839161
54.625 9.003841
54.630 8.692576
54.635 8.332947
54.640 8.114619
54.645 7.726147
54.650 7.191366
54.655 6.831959
54.660 6.881734
54.665 6.724459
54.670 6.479681
54.675 6.961236
54.680 7.346545
54.685 7.42233
54.690 7.482524
54.695 7.355772
54.700 7.630591
54.705 7.723374
54.710 7.41792
54.715 7.795341
54.720 7.976
54.725 7.594652
54.730 7.909133
54.735 7.864177
54.740 7.832433
54.745 7.795798
54.750 7.231093
54.755 7.329851
54.760 7.481496
54.765 7.395791
54.770 7.540573
54.775 7.838763
54.780 8.0925
54.785 8.086713
54.790 7.689798
54.795 7.618253
54.800 7.635404
54.805 7.468633
54.810 7.101835
54.815 7.242881
54.820 7.35058
54.825 7.470432
54.830 7.241852
54.835 7.248518
54.840 7.267794
54.845 7.414916
54.850 7.515472
54.855 7.538403
54.860 7.743469
54.865 7.690322
54.870 7.865138
54.875 8.006703
54.880 7.449982
54.885 7.253047
54.890 7.244514
54.895 7.308944
54.900 7.404253
54.905 6.920072
54.910 6.948846
54.915 7.205047
54.920 7.214007
54.925 7.376951
54.930 7.414351
54.935 7.878613
54.940 7.6348
54.945 7.450132
54.950 7.599476
54.955 7.980326
54.960 7.664576
54.965 7.426248
54.970 7.322498
54.975 7.805857
54.980 8.062781
54.985 7.735865
54.990 7.247301
54.995 7.25094
55.000 7.07825
55.005 7.096172
55.010 7.312362
55.015 7.665597
55.020 8.063774
55.025 8.407856
55.030 8.390895
55.035 8.487627
55.040 8.303378
55.045 8.115546
55.050 7.867658
55.055 7.665818
55.060 7.382449
55.065 7.263834
55.070 7.202873
55.075 7.123355
55.080 6.711298
55.085 6.415571
55.090 6.686158
55.095 7.120193
55.100 7.628961
55.105 7.836333
55.110 7.996835
55.115 8.632988
55.120 9.002682
55.125 9.276156
55.130 9.154576
55.135 9.035365
55.140 9.241005
55.145 9.034141
55.150 9.137815
55.155 8.872643
55.160 8.525664
55.165 8.377588
55.170 8.071399
55.175 7.791924
55.180 7.934028
55.185 7.350436
55.190 6.680323
55.195 6.706402
55.200 6.661775
55.205 6.537193
55.210 6.454762
55.215 6.56344
55.220 6.976417
55.225 7.67808
55.230 7.82048
55.235 8.14087
55.240 8.576323
55.245 8.805582
55.250 8.421663
55.255 8.172381
55.260 8.374246
55.265 8.20266
55.270 8.205039
55.275 8.178743
55.280 8.034604
55.285 8.002058
55.290 8.073393
55.295 8.406096
55.300 8.782283
55.305 8.774406
55.310 8.781678
55.315 9.027591
55.320 9.234076
55.325 9.411785
55.330 8.964657
55.335 9.077816
55.340 9.079487
55.345 8.990583
55.350 8.914217
55.355 8.678144
55.360 8.335826
55.365 8.086527
55.370 7.971401
55.375 7.951055
55.380 7.987426
55.385 7.975288
55.390 8.261626
55.395 8.488019
55.400 8.513807
55.405 8.544699
55.410 8.221245
55.415 8.14583
55.420 8.46724
55.425 8.321835
55.430 8.113954
55.435 8.145118
55.440 8.298688
55.445 8.556462
55.450 8.701274
55.455 8.573199
55.460 8.635671
55.465 8.900583
55.470 9.028977
55.475 8.870942
55.480 8.578236
55.485 8.269065
55.490 8.483369
55.495 8.373822
55.500 8.120233
55.505 7.786696
55.510 7.795085
55.515 7.553824
55.520 7.771485
55.525 7.652762
55.530 7.441922
55.535 7.627432
55.540 7.918849
55.545 8.207376
55.550 8.698435
55.555 8.554129
55.560 8.301793
55.565 8.478499
55.570 8.296809
55.575 8.470975
55.580 8.437548
55.585 8.293478
55.590 8.269488
55.595 8.420157
55.600 8.834442
55.605 8.840378
55.610 8.395278
55.615 8.475146
55.620 8.699947
55.625 8.97242
55.630 8.964581
55.635 8.603725
55.640 8.261629
55.645 8.057323
55.650 7.922198
55.655 7.775048
55.660 7.652367
55.665 7.864318
55.670 8.024601
55.675 8.702056
55.680 9.409472
55.685 9.520672
55.690 9.426966
55.695 9.442858
55.700 9.763607
55.705 9.804586
55.710 9.710958
55.715 9.022376
55.720 9.19742
55.725 9.577469
55.730 9.249822
55.735 9.059133
55.740 8.931394
55.745 8.720203
55.750 8.753222
55.755 8.796347
55.760 8.62095
55.765 8.899147
55.770 8.903579
55.775 8.928579
55.780 9.076453
55.785 9.068647
55.790 9.121533
55.795 9.341685
55.800 8.987849
55.805 9.024542
55.810 9.072324
55.815 9.507909
55.820 9.551088
55.825 9.185281
55.830 9.212094
55.835 9.881116
55.840 10.275424
55.845 9.848442
55.850 9.418576
55.855 9.407696
55.860 9.384295
55.865 9.349168
55.870 9.245112
55.875 8.980484
55.880 9.715953
55.885 9.772585
55.890 9.800936
55.895 10.011526
55.900 9.861127
55.905 9.172034
55.910 9.021693
55.915 8.438937
55.920 8.094254
55.925 8.031079
55.930 8.189634
55.935 8.664495
55.940 9.185965
55.945 9.779813
55.950 10.13868
55.955 10.711474
55.960 10.382586
55.965 9.958435
55.970 9.777317
55.975 9.655329
55.980 9.602349
55.985 9.550881
55.990 9.051091
55.995 8.911896
56.000 8.809552
56.005 8.62598
56.010 8.200111
56.015 7.717533
56.020 7.958895
56.025 8.076954
56.030 8.527908
56.035 9.10582
56.040 9.079512
56.045 9.391825
56.050 9.563662
56.055 9.375131
56.060 9.578298
56.065 9.30156
56.070 8.824275
56.075 8.854493
56.080 8.419105
56.085 8.165294
56.090 8.359985
56.095 8.59473
56.100 8.624992
56.105 8.511372
56.110 8.809647
56.115 9.163988
56.120 9.237888
56.125 9.212489
56.130 9.116638
56.135 9.398368
56.140 9.959046
56.145 9.648761
56.150 9.792071
56.155 9.971449
56.160 9.907059
56.165 9.928583
56.170 9.717341
56.175 9.161064
56.180 9.676373
56.185 9.441296
56.190 9.323782
56.195 9.455704
56.200 9.567587
56.205 9.438574
56.210 9.397519
56.215 9.424168
56.220 9.192676
56.225 8.982615
56.230 9.001911
56.235 8.847336
56.240 9.225352
56.245 9.211983
56.250 8.789767
56.255 9.530575
56.260 9.976153
56.265 10.29632
56.270 10.267995
56.275 10.358944
56.280 10.595352
56.285 10.9552
56.290 10.365649
56.295 9.904637
56.300 9.582528
56.305 9.56279
56.310 9.656324
56.315 9.610602
56.320 9.824306
56.325 10.354333
56.330 10.637455
56.335 10.614017
56.340 10.719838
56.345 10.366436
56.350 10.228098
56.355 10.110927
56.360 9.548102
56.365 9.634967
56.370 9.552547
56.375 9.30127
56.380 9.209651
56.385 9.224496
56.390 9.347563
56.395 10.111897
56.400 10.031233
56.405 10.047315
56.410 10.099907
56.415 10.159486
56.420 10.155036
56.425 9.750158
56.430 9.443602
56.435 9.920987
56.440 9.97786
56.445 10.033204
56.450 10.369297
56.455 10.578559
56.460 10.658657
56.465 10.208071
56.470 10.120769
56.475 10.112732
56.480 10.112003
56.485 9.775105
56.490 10.14954
56.495 10.759383
56.500 10.662992
56.505 10.560891
56.510 10.734051
56.515 10.613578
56.520 10.730144
56.525 10.052343
56.530 9.485779
56.535 9.39944
56.540 9.052984
56.545 8.750076
56.550 8.973982
56.555 9.035535
56.560 8.712656
56.565 8.477948
56.570 8.945889
56.575 9.352447
56.580 9.435493
56.585 9.290676
56.590 9.090278
56.595 9.941032
56.600 10.145452
56.605 9.877215
56.610 9.967433
56.615 10.298226
56.620 10.1873
56.625 9.839122
56.630 9.493277
56.635 9.78081
56.640 9.780201
56.645 9.679492
56.650 9.589159
56.655 10.103173
56.660 10.271815
56.665 9.963455
56.670 9.149453
56.675 8.78703
56.680 8.830157
56.685 8.675248
56.690 8.267417
56.695 7.897954
56.700 7.624753
56.705 8.201895
56.710 8.261485
56.715 8.123322
56.720 8.369315
56.725 8.614185
56.730 9.214807
56.735 9.914383
56.740 10.149028
56.745 10.137302
56.750 10.005202
56.755 9.85354
56.760 9.971642
56.765 9.759634
56.770 9.610059
56.775 9.525408
56.780 9.735607
56.785 10.141622
56.790 10.346397
56.795 10.404914
56.800 10.214496
56.805 10.283875
56.810 10.528945
56.815 10.678753
56.820 10.235229
56.825 9.909135
56.830 9.970277
56.835 10.166399
56.840 10.18119
56.845 9.846606
56.850 9.634324
56.855 9.639979
56.860 10.197494
56.865 10.167427
56.870 10.29865
56.875 10.270948
56.880 10.133178
56.885 10.584355
56.890 11.099323
56.895 11.142162
56.900 11.359828
56.905 11.267586
56.910 11.274429
56.915 11.23725
56.920 10.732169
56.925 9.932073
56.930 9.572099
56.935 9.196024
56.940 9.039536
56.945 9.110104
56.950 9.315084
56.955 9.41809
56.960 9.539573
56.965 9.48667
56.970 9.849007
56.975 10.177823
56.980 10.080928
56.985 10.031794
56.990 10.107002
56.995 10.106492
57.000 10.332397
57.005 10.340419
57.010 10.464885
57.015 10.721904
57.020 11.086075
57.025 11.095768
57.030 11.218077
57.035 10.998712
57.040 10.565965
57.045 10.35079
57.050 10.379598
57.055 10.07304
57.060 10.166427
57.065 9.748786
57.070 9.418183
57.075 9.374015
57.080 9.349514
57.085 8.953711
57.090 8.678088
57.095 8.90167
57.100 9.262999
57.105 9.788881
57.110 10.293845
57.115 9.845674
57.120 9.987267
57.125 10.327806
57.130 10.933185
57.135 11.102907
57.140 10.717807
57.145 10.32328
57.150 10.581267
57.155 10.524014
57.160 10.437312
57.165 10.203027
57.170 10.245511
57.175 10.502294
57.180 10.933475
57.185 11.267547
57.190 11.555954
57.195 11.35284
57.200 10.55121
57.205 10.919685
57.210 11.394167
57.215 11.159147
57.220 10.665064
57.225 10.326336
57.230 10.288685
57.235 10.497945
57.240 10.014677
57.245 10.084712
57.250 10.265386
57.255 10.3945
57.260 10.588811
57.265 10.887033
57.270 11.17607
57.275 11.349717
57.280 11.389243
57.285 11.585188
57.290 11.936031
57.295 11.828389
57.300 11.31178
57.305 11.110226
57.310 10.958307
57.315 10.230299
57.320 9.878461
57.325 9.593398
57.330 9.426823
57.335 10.028616
57.340 10.175741
57.345 10.341278
57.350 10.793194
57.355 11.022292
57.360 10.956005
57.365 11.085899
57.370 10.850955
57.375 10.932711
57.380 10.72604
57.385 10.146502
57.390 10.238958
57.395 10.649932
57.400 10.312422
57.405 10.067029
57.410 9.437398
57.415 9.463947
57.420 9.612566
57.425 9.103458
57.430 8.795458
57.435 9.098123
57.440 9.329585
57.445 9.505693
57.450 9.757615
57.455 10.108812
57.460 10.548669
57.465 10.668965
57.470 10.74947
57.475 10.512338
57.480 10.733528
57.485 10.523428
57.490 10.53759
57.495 10.631542
57.500 10.538801
57.505 9.855317
57.510 10.069219
57.515 10.610931
57.520 10.769925
57.525 10.405071
57.530 10.557468
57.535 11.246293
57.540 12.297329
57.545 12.384348
57.550 11.847699
57.555 12.07935
57.560 12.525352
57.565 12.656719
57.570 12.508066
57.575 12.434808
57.580 12.326833
57.585 12.519794
57.590 12.755303
57.595 12.518806
57.600 12.506731
57.605 12.147386
57.610 12.212523
57.615 12.127125
57.620 11.914827
57.625 11.691703
57.630 11.879362
57.635 11.6359
57.640 11.134373
57.645 10.847908
57.650 11.658096
57.655 12.030396
57.660 12.254259
57.665 12.197267
57.670 12.620113
57.675 13.028955
57.680 12.458434
57.685 11.730143
57.690 11.702009
57.695 11.742141
57.700 11.524456
57.705 11.326945
57.710 11.54481
57.715 12.343132
57.720 12.173442
57.725 12.200267
57.730 11.776372
57.735 11.828223
57.740 11.834531
57.745 11.843064
57.750 11.735448
57.755 11.404904
57.760 11.18353
57.765 11.657777
57.770 11.549674
57.775 11.454846
57.780 11.382545
57.785 11.468547
57.790 11.615685
57.795 11.705167
57.800 11.355095
57.805 11.590022
57.810 11.539355
57.815 11.385708
57.820 11.523555
57.825 11.516171
57.830 11.232765
57.835 11.789525
57.840 12.069716
57.845 12.831717
57.850 12.51564
57.855 12.444472
57.860 12.56963
57.865 12.849447
57.870 12.374133
57.875 12.001961
57.880 11.658898
57.885 12.221295
57.890 12.312779
57.895 12.68395
57.900 12.932074
57.905 12.995076
57.910 13.271357
57.915 13.263983
57.920 13.092859
57.925 13.181257
57.930 13.233552
57.935 12.948932
57.940 13.34792
57.945 13.225171
57.950 13.158577
57.955 13.354174
57.960 13.194461
57.965 13.132271
57.970 13.415034
57.975 13.098064
57.980 13.048741
57.985 12.936298
57.990 12.090894
57.995 11.686131
58.000 11.812961
58.005 11.773397
58.010 11.399652
58.015 11.278479
58.020 11.786551
58.025 12.43773
58.030 12.858709
58.035 12.46967
58.040 12.403286
58.045 12.738358
58.050 12.795852
58.055 12.786499
58.060 13.108843
58.065 12.765267
58.070 12.790879
58.075 12.659678
58.080 12.640432
58.085 12.501818
58.090 12.431872
58.095 12.06995
58.100 12.051013
58.105 12.464793
58.110 12.668338
58.115 12.686228
58.120 12.449328
58.125 12.036079
58.130 12.425954
58.135 12.678596
58.140 12.540091
58.145 12.922192
58.150 13.539782
58.155 14.097792
58.160 14.228621
58.165 13.731356
58.170 14.049858
58.175 14.264452
58.180 13.401649
58.185 12.849917
58.190 13.182408
58.195 13.127267
58.200 13.032463
58.205 12.980364
58.210 12.908116
58.215 12.894531
58.220 13.279866
58.225 13.336527
58.230 13.293569
58.235 13.41913
58.240 13.260359
58.245 13.474628
58.250 14.742563
58.255 14.157016
58.260 13.596453
58.265 13.966716
58.270 13.980771
58.275 14.075679
58.280 13.875252
58.285 13.490159
58.290 13.556764
58.295 13.918077
58.300 14.093371
58.305 14.453629
58.310 14.48883
58.315 14.569955
58.320 14.900233
58.325 15.034715
58.330 14.784468
58.335 14.97879
58.340 14.60983
58.345 14.788688
58.350 15.088868
58.355 15.076272
58.360 15.138157
58.365 15.607062
58.370 15.341808
58.375 15.285831
58.380 15.002554
58.385 14.791647
58.390 14.793769
58.395 15.135446
58.400 15.359171
58.405 15.447228
58.410 15.753303
58.415 15.991359
58.420 15.963732
58.425 16.297535
58.430 16.436766
58.435 16.756287
58.440 17.644211
58.445 17.921238
58.450 18.417746
58.455 18.441971
58.460 18.381855
58.465 18.449997
58.470 18.286032
58.475 17.775036
58.480 18.105639
58.485 18.403433
58.490 19.382362
58.495 20.079639
58.500 20.446339
58.505 21.30258
58.510 22.005672
58.515 22.039309
58.520 21.841791
58.525 21.920679
58.530 21.882858
58.535 22.006847
58.540 21.972267
58.545 22.136881
58.550 21.939631
58.555 22.122702
58.560 23.135946
58.565 23.464741
58.570 23.122482
58.575 23.398499
58.580 23.315607
58.585 23.504337
58.590 23.706518
58.595 23.426188
58.600 24.069357
58.605 25.401058
58.610 25.517403
58.615 25.903383
58.620 26.68502
58.625 27.157471
58.630 27.367292
58.635 26.943855
58.640 26.370962
58.645 26.672523
58.650 26.724411
