!@!!GADDS PLOTSO FILE: Chi integration type
!@!!Title/SampleName: map-cb
!@!!Comment: ?
!@!!User: Bruker Instrument Administrator
!@!!Site: University of Illinois Chicago
!@!!Frame: map-cb_01_000.gfrm
!@!!Wavelengths    1.54184   1.54056   1.54439
!@!!Frame angles: 2Theta: 63.000 Omega: 50.000 Phi: 0.000 Chi: 90.000
!@!!Integration range: 2Theta: 53.000 to 73.000  Gamma: -105.000 to -75.000
!@!!Integration method: bin normalized
!@!N
!@!SS
!@!M
!@!L 0.0 0.0 0.0 0.0
!@!XDegrees
!@!YCounts
53.000 10.564042
53.005 10.2828
53.010 9.905807
53.015 9.624165
53.020 9.581811
53.025 9.780189
53.030 10.205428
53.035 10.277061
53.040 10.206139
53.045 10.220115
53.050 10.299797
53.055 10.287026
53.060 10.201517
53.065 9.580855
53.070 9.527094
53.075 9.444128
53.080 9.04777
53.085 8.998994
53.090 9.188807
53.095 9.080525
53.100 9.21349
53.105 9.083411
53.110 9.097989
53.115 8.629093
53.120 8.354864
53.125 8.264063
53.130 8.805951
53.135 9.297977
53.140 9.863546
53.145 10.155843
53.150 10.715576
53.155 10.822235
53.160 10.954529
53.165 10.514825
53.170 10.695616
53.175 10.615169
53.180 10.259779
53.185 10.146447
53.190 10.100148
53.195 10.183013
53.200 10.203984
53.205 9.810717
53.210 10.151942
53.215 10.156264
53.220 9.827538
53.225 9.670307
53.230 9.887373
53.235 9.808563
53.240 9.357403
53.245 8.869417
53.250 9.115525
53.255 9.241609
53.260 9.012148
53.265 8.693716
53.270 8.397716
53.275 8.649358
53.280 8.660593
53.285 8.717416
53.290 8.819448
53.295 9.183334
53.300 9.20188
53.305 9.153737
53.310 9.121028
53.315 8.931521
53.320 8.621529
53.325 8.204096
53.330 8.20686
53.335 8.560526
53.340 8.748818
53.345 8.704723
53.350 9.059351
53.355 9.373998
53.360 9.508327
53.365 9.099208
53.370 9.003223
53.375 9.033908
53.380 9.517325
53.385 9.595958
53.390 10.090028
53.395 10.278135
53.400 10.419773
53.405 10.439261
53.410 10.311103
53.415 10.002142
53.420 9.688261
53.425 9.458452
53.430 9.749948
53.435 9.467792
53.440 9.613468
53.445 9.54974
53.450 9.217843
53.455 9.471392
53.460 9.621639
53.465 9.276634
53.470 9.57379
53.475 9.51939
53.480 9.830667
53.485 10.051883
53.490 9.902406
53.495 9.868548
53.500 9.995727
53.505 9.612517
53.510 9.518696
53.515 9.802105
53.520 9.645802
53.525 9.197355
53.530 9.373675
53.535 9.288229
53.540 9.308754
53.545 9.437072
53.550 9.212299
53.555 9.064606
53.560 9.136051
53.565 8.942293
53.570 8.860306
53.575 8.980308
53.580 9.137922
53.585 9.841768
53.590 10.154642
53.595 10.275868
53.600 10.517215
53.605 10.566486
53.610 10.232003
53.615 9.951973
53.620 9.8153
53.625 10.529565
53.630 10.872105
53.635 11.160633
53.640 11.17263
53.645 11.202982
53.650 11.330668
53.655 10.976982
53.660 10.585645
53.665 10.616196
53.670 10.561658
53.675 10.94743
53.680 10.820248
53.685 11.028434
53.690 11.20935
53.695 11.054758
53.700 10.524952
53.705 10.358301
53.710 10.369534
53.715 10.461796
53.720 10.254578
53.725 10.04752
53.730 9.613264
53.735 9.808173
53.740 10.029666
53.745 9.985683
53.750 10.072062
53.755 10.020113
53.760 10.412801
53.765 10.722669
53.770 11.044616
53.775 11.124012
53.780 11.081684
53.785 11.150769
53.790 11.563206
53.795 11.765445
53.800 11.200017
53.805 10.753927
53.810 10.652522
53.815 10.539049
53.820 10.52588
53.825 10.3027
53.830 10.092873
53.835 10.118279
53.840 10.10063
53.845 10.143302
53.850 10.143246
53.855 9.515175
53.860 9.40849
53.865 9.870689
53.870 9.916804
53.875 10.284486
53.880 10.335382
53.885 10.438025
53.890 10.780814
53.895 10.243678
53.900 10.117429
53.905 10.235613
53.910 10.116782
53.915 10.246116
53.920 10.788076
53.925 10.831078
53.930 11.352938
53.935 11.585312
53.940 11.693819
53.945 11.698805
53.950 11.635558
53.955 11.316089
53.960 11.331323
53.965 11.186551
53.970 10.773979
53.975 10.558986
53.980 9.929771
53.985 9.782182
53.990 9.78793
53.995 9.936913
54.000 10.083697
54.005 10.384372
54.010 10.588852
54.015 10.732304
54.020 10.551828
54.025 10.294527
54.030 10.369822
54.035 10.465755
54.040 10.063801
54.045 10.184989
54.050 10.491909
54.055 10.674328
54.060 10.64575
54.065 10.425182
54.070 10.440793
54.075 10.657907
54.080 10.678769
54.085 10.648665
54.090 10.713023
54.095 10.524758
54.100 10.115261
54.105 10.419974
54.110 10.870683
54.115 11.039061
54.120 11.314269
54.125 11.674159
54.130 12.025932
54.135 12.783072
54.140 12.839892
54.145 12.683298
54.150 12.544146
54.155 11.468744
54.160 11.571626
54.165 11.100776
54.170 10.770651
54.175 10.21834
54.180 9.661091
54.185 9.82097
54.190 10.12873
54.195 9.991956
54.200 10.372337
54.205 10.191927
54.210 10.244941
54.215 10.35863
54.220 10.332439
54.225 10.550681
54.230 10.720726
54.235 10.277961
54.240 10.62543
54.245 10.988187
54.250 11.022655
54.255 11.236038
54.260 10.839462
54.265 10.643171
54.270 11.055519
54.275 11.005694
54.280 10.872874
54.285 10.700335
54.290 10.553862
54.295 11.082716
54.300 11.139096
54.305 11.007162
54.310 10.545999
54.315 10.886013
54.320 11.246316
54.325 11.185799
54.330 10.608353
54.335 10.383681
54.340 10.265381
54.345 10.555637
54.350 9.923063
54.355 9.806843
54.360 10.423329
54.365 10.596982
54.370 10.575135
54.375 10.878223
54.380 10.69024
54.385 10.700222
54.390 10.502702
54.395 10.185879
54.400 10.254146
54.405 11.027534
54.410 11.163437
54.415 11.123884
54.420 11.274693
54.425 11.494814
54.430 11.653295
54.435 11.817756
54.440 11.520712
54.445 12.107703
54.450 12.687762
54.455 12.839761
54.460 12.878634
54.465 12.933572
54.470 13.002492
54.475 12.646956
54.480 12.378003
54.485 11.696175
54.490 11.500143
54.495 11.34036
54.500 10.934476
54.505 10.068932
54.510 9.691788
54.515 9.640249
54.520 10.369369
54.525 10.589675
54.530 10.591959
54.535 10.67615
54.540 11.407964
54.545 11.290749
54.550 11.476368
54.555 11.327839
54.560 11.265018
54.565 11.44939
54.570 11.637881
54.575 11.893629
54.580 12.453457
54.585 12.455134
54.590 11.895695
54.595 11.570817
54.600 11.248064
54.605 10.744607
54.610 9.985992
54.615 9.635605
54.620 9.501578
54.625 9.645319
54.630 9.599888
54.635 9.709634
54.640 9.535449
54.645 9.846922
54.650 9.779131
54.655 10.042156
54.660 10.55536
54.665 10.81044
54.670 10.97418
54.675 11.249914
54.680 11.360286
54.685 11.25936
54.690 10.853638
54.695 10.7247
54.700 10.644784
54.705 10.659843
54.710 10.552751
54.715 10.632288
54.720 10.774875
54.725 10.982256
54.730 11.314414
54.735 11.701053
54.740 11.598934
54.745 11.237524
54.750 11.131342
54.755 10.985868
54.760 10.589971
54.765 10.466297
54.770 10.111597
54.775 10.252085
54.780 11.220069
54.785 11.404903
54.790 11.69901
54.795 11.600179
54.800 11.040563
54.805 11.099269
54.810 11.143143
54.815 10.384206
54.820 10.371348
54.825 10.419777
54.830 10.996816
54.835 11.326248
54.840 11.340758
54.845 11.189383
54.850 11.330451
54.855 11.189716
54.860 11.342956
54.865 11.244336
54.870 11.317629
54.875 11.644235
54.880 12.023177
54.885 11.839187
54.890 11.530286
54.895 10.915342
54.900 10.763288
54.905 10.985069
54.910 10.918964
54.915 10.965239
54.920 11.276401
54.925 11.437849
54.930 11.436588
54.935 11.411291
54.940 11.271637
54.945 10.924933
54.950 10.777282
54.955 10.640746
54.960 11.031285
54.965 11.548409
54.970 11.53545
54.975 11.620343
54.980 11.928252
54.985 11.860107
54.990 11.64634
54.995 11.919909
55.000 11.949495
55.005 12.59644
55.010 12.790638
55.015 12.607359
55.020 12.849214
55.025 12.633146
55.030 12.500749
55.035 12.43951
55.040 11.654718
55.045 11.16363
55.050 11.016763
55.055 11.352469
55.060 11.863574
55.065 11.388603
55.070 10.898746
55.075 11.000345
55.080 11.130812
55.085 11.159033
55.090 11.170943
55.095 11.238556
55.100 11.663478
55.105 12.447982
55.110 13.021754
55.115 13.405612
55.120 13.074959
55.125 12.069811
55.130 11.839898
55.135 11.63303
55.140 11.165829
55.145 10.723613
55.150 10.537626
55.155 10.758347
55.160 11.227804
55.165 11.411928
55.170 11.611456
55.175 11.939851
55.180 12.355067
55.185 12.37404
55.190 12.360173
55.195 11.720993
55.200 11.454091
55.205 11.330356
55.210 11.100742
55.215 11.046572
55.220 11.085421
55.225 11.49226
55.230 12.024858
55.235 11.982723
55.240 11.931788
55.245 11.545625
55.250 11.821754
55.255 11.643796
55.260 11.255166
55.265 11.234091
55.270 11.093641
55.275 10.668094
55.280 11.033994
55.285 10.671657
55.290 10.905204
55.295 11.664453
55.300 11.311653
55.305 11.425158
55.310 11.837059
55.315 11.676422
55.320 11.429413
55.325 11.131789
55.330 10.963263
55.335 11.612772
55.340 11.781906
55.345 12.299734
55.350 12.498058
55.355 12.961716
55.360 13.251945
55.365 12.784366
55.370 12.635542
55.375 12.296534
55.380 11.996024
55.385 11.82041
55.390 11.484418
55.395 11.675859
55.400 11.992599
55.405 12.388665
55.410 12.987952
55.415 12.793026
55.420 12.963526
55.425 12.929035
55.430 13.257176
55.435 13.106096
55.440 13.232309
55.445 12.657973
55.450 12.720609
55.455 12.979838
55.460 13.264621
55.465 13.226236
55.470 12.930004
55.475 12.457038
55.480 12.553832
55.485 11.949399
55.490 12.024466
55.495 12.130635
55.500 12.105244
55.505 12.344415
55.510 12.084048
55.515 12.418616
55.520 12.896937
55.525 12.558737
55.530 12.071887
55.535 11.614494
55.540 11.41171
55.545 11.783658
55.550 11.541725
55.555 11.30442
55.560 11.291063
55.565 11.444384
55.570 11.806682
55.575 11.868241
55.580 12.134173
55.585 11.875156
55.590 11.927049
55.595 12.120803
55.600 12.078343
55.605 11.96229
55.610 11.836699
55.615 11.542089
55.620 11.636391
55.625 11.700076
55.630 11.667317
55.635 11.441232
55.640 11.690784
55.645 11.9034
55.650 12.057492
55.655 12.436646
55.660 11.91218
55.665 11.72333
55.670 11.712709
55.675 11.172559
55.680 10.653682
55.685 10.896838
55.690 11.218683
55.695 11.194956
55.700 11.110373
55.705 11.513041
55.710 11.563727
55.715 11.994677
55.720 11.711613
55.725 11.248674
55.730 11.724739
55.735 12.330514
55.740 12.463469
55.745 12.421814
55.750 12.079263
55.755 12.310827
55.760 12.424205
55.765 12.256906
55.770 12.244467
55.775 12.743925
55.780 13.47858
55.785 13.745072
55.790 13.41414
55.795 13.531428
55.800 13.966202
55.805 13.678779
55.810 13.118183
55.815 12.828765
55.820 12.786903
55.825 13.093581
55.830 13.051145
55.835 12.923127
55.840 12.831525
55.845 13.082113
55.850 13.226528
55.855 12.989117
55.860 13.163521
55.865 13.202408
55.870 12.991843
55.875 12.999452
55.880 12.540762
55.885 12.042924
55.890 12.181985
55.895 11.867753
55.900 11.889003
55.905 12.026136
55.910 12.018527
55.915 12.762143
55.920 13.544395
55.925 13.589468
55.930 13.336468
55.935 13.527377
55.940 13.410835
55.945 13.068118
55.950 12.469367
55.955 12.753125
55.960 12.860658
55.965 12.544594
55.970 12.092001
55.975 12.143691
55.980 12.727206
55.985 12.864303
55.990 12.487768
55.995 12.813894
56.000 13.546263
56.005 13.665798
56.010 13.267423
56.015 12.952674
56.020 12.543622
56.025 12.221865
56.030 12.315274
56.035 12.038056
56.040 12.099711
56.045 12.438216
56.050 13.326613
56.055 14.143416
56.060 14.270007
56.065 14.242841
56.070 14.604617
56.075 14.430419
56.080 14.043492
56.085 13.441907
56.090 13.029073
56.095 12.66699
56.100 12.366455
56.105 12.347655
56.110 12.477616
56.115 12.401051
56.120 12.063237
56.125 11.873263
56.130 11.78348
56.135 11.901032
56.140 11.872219
56.145 11.791183
56.150 11.910453
56.155 12.526247
56.160 12.914444
56.165 13.04288
56.170 13.289081
56.175 13.351018
56.180 13.132918
56.185 13.073224
56.190 12.38682
56.195 12.53692
56.200 12.702432
56.205 12.858286
56.210 13.067446
56.215 13.641856
56.220 14.154831
56.225 15.098634
56.230 15.345181
56.235 15.500809
56.240 15.338894
56.245 15.229662
56.250 14.738998
56.255 14.119286
56.260 13.776486
56.265 13.81154
56.270 13.80727
56.275 13.812223
56.280 13.581351
56.285 13.282942
56.290 12.923604
56.295 12.674561
56.300 12.310759
56.305 12.070414
56.310 12.275966
56.315 12.435569
56.320 12.866161
56.325 13.120402
56.330 12.917542
56.335 12.747331
56.340 12.853596
56.345 12.933609
56.350 12.999821
56.355 12.793328
56.360 13.074305
56.365 13.296522
56.370 13.40705
56.375 13.860148
56.380 14.074824
56.385 14.309921
56.390 14.196152
56.395 13.958682
56.400 13.709961
56.405 13.502612
56.410 12.905847
56.415 12.200588
56.420 12.324259
56.425 12.703601
56.430 13.023302
56.435 13.07279
56.440 13.213471
56.445 13.394154
56.450 13.546124
56.455 13.246038
56.460 13.405965
56.465 13.007504
56.470 12.93671
56.475 12.928235
56.480 12.875651
56.485 12.70257
56.490 13.159749
56.495 12.908696
56.500 13.193608
56.505 13.325505
56.510 13.305161
56.515 13.712358
56.520 13.969338
56.525 13.629982
56.530 13.698167
56.535 13.924383
56.540 13.749362
56.545 13.266479
56.550 13.03235
56.555 12.8459
56.560 12.417818
56.565 12.261924
56.570 12.322748
56.575 12.8024
56.580 12.950663
56.585 12.924047
56.590 13.446348
56.595 14.173377
56.600 14.100208
56.605 14.013931
56.610 13.955353
56.615 13.819356
56.620 13.404066
56.625 12.880136
56.630 12.459847
56.635 12.824616
56.640 12.65561
56.645 12.739287
56.650 13.36274
56.655 13.473255
56.660 13.553823
56.665 13.869914
56.670 13.449809
56.675 13.095126
56.680 12.942759
56.685 12.919071
56.690 13.093092
56.695 13.383661
56.700 13.446974
56.705 13.918818
56.710 14.139808
56.715 14.096311
56.720 14.11495
56.725 14.059484
56.730 13.536338
56.735 12.897186
56.740 12.751319
56.745 13.091183
56.750 12.619854
56.755 12.545882
56.760 13.026747
56.765 13.553872
56.770 13.890674
56.775 13.748281
56.780 13.332445
56.785 13.225729
56.790 13.302018
56.795 13.038705
56.800 12.702269
56.805 13.109468
56.810 13.674931
56.815 14.188128
56.820 14.571729
56.825 14.426826
56.830 14.429282
56.835 14.750922
56.840 14.431633
56.845 14.122477
56.850 14.137297
56.855 14.295602
56.860 14.615185
56.865 14.627702
56.870 14.572296
56.875 14.694077
56.880 14.529948
56.885 14.779977
56.890 14.610869
56.895 14.525
56.900 14.719828
56.905 14.948146
56.910 14.812231
56.915 15.063574
56.920 14.616812
56.925 14.498436
56.930 14.362656
56.935 13.737496
56.940 13.035977
56.945 13.25072
56.950 13.020374
56.955 13.29215
56.960 13.460389
56.965 13.506257
56.970 13.855534
56.975 14.605236
56.980 14.114038
56.985 13.968637
56.990 13.904338
56.995 13.597971
57.000 13.973663
57.005 13.872721
57.010 13.841995
57.015 14.78588
57.020 14.806499
57.025 14.737102
57.030 14.774323
57.035 14.546262
57.040 14.279142
57.045 13.840136
57.050 13.172596
57.055 13.417464
57.060 13.712503
57.065 14.039132
57.070 14.1912
57.075 14.450562
57.080 15.171954
57.085 15.331224
57.090 14.939438
57.095 14.396398
57.100 14.44703
57.105 14.576076
57.110 14.503124
57.115 13.806878
57.120 13.957438
57.125 14.129101
57.130 14.131799
57.135 13.847322
57.140 13.994783
57.145 14.207658
57.150 14.294488
57.155 14.432843
57.160 14.549628
57.165 14.304718
57.170 14.298705
57.175 14.269013
57.180 14.090715
57.185 13.664899
57.190 13.398343
57.195 13.508083
57.200 14.19795
57.205 14.496486
57.210 14.241995
57.215 14.748243
57.220 15.026494
57.225 14.886356
57.230 14.968568
57.235 14.893274
57.240 14.936471
57.245 14.809529
57.250 14.929402
57.255 15.210962
57.260 15.263084
57.265 15.415895
57.270 15.091292
57.275 14.80158
57.280 14.884924
57.285 14.569345
57.290 14.712094
57.295 14.353862
57.300 14.421267
57.305 14.651938
57.310 14.623791
57.315 14.965048
57.320 15.185391
57.325 14.935267
57.330 15.686493
57.335 15.277331
57.340 15.215449
57.345 15.197904
57.350 14.430714
57.355 14.059584
57.360 13.729418
57.365 13.253784
57.370 13.390247
57.375 13.400514
57.380 13.217137
57.385 13.450589
57.390 13.763944
57.395 14.18959
57.400 14.523187
57.405 14.345888
57.410 14.493089
57.415 14.726425
57.420 14.618818
57.425 14.64876
57.430 14.719386
57.435 14.490284
57.440 14.607868
57.445 14.231027
57.450 14.363042
57.455 14.438936
57.460 14.202106
57.465 14.210765
57.470 14.145987
57.475 13.872982
57.480 14.198601
57.485 14.202203
57.490 14.583035
57.495 14.791943
57.500 14.85189
57.505 14.680436
57.510 14.851843
57.515 15.139235
57.520 14.965044
57.525 14.692779
57.530 14.524307
57.535 14.871896
57.540 15.147981
57.545 15.529544
57.550 15.024457
57.555 15.180101
57.560 15.824059
57.565 16.11907
57.570 16.160101
57.575 16.407551
57.580 16.271698
57.585 16.550041
57.590 16.269686
57.595 15.776891
57.600 15.406532
57.605 15.3227
57.610 15.554245
57.615 15.198734
57.620 15.329984
57.625 15.190625
57.630 15.26049
57.635 15.47935
57.640 15.081861
57.645 15.231961
57.650 15.54861
57.655 15.575919
57.660 15.942369
57.665 15.582553
57.670 15.036228
57.675 14.784446
57.680 14.466402
57.685 14.486225
57.690 14.353918
57.695 14.410772
57.700 15.151874
57.705 15.862415
57.710 16.161163
57.715 16.205149
57.720 16.434595
57.725 16.776937
57.730 17.042986
57.735 17.133377
57.740 16.81885
57.745 16.884771
57.750 16.341452
57.755 16.081881
57.760 15.624841
57.765 15.150621
57.770 14.614226
57.775 14.248174
57.780 14.309037
57.785 14.915448
57.790 15.015546
57.795 14.779872
57.800 14.213432
57.805 13.796792
57.810 14.122194
57.815 14.299994
57.820 13.995621
57.825 13.933228
57.830 14.048935
57.835 15.095072
57.840 15.501438
57.845 15.729794
57.850 15.940657
57.855 16.155336
57.860 16.560873
57.865 16.508041
57.870 16.135262
57.875 16.704065
57.880 16.352566
57.885 16.131897
57.890 16.27454
57.895 16.519413
57.900 17.007877
57.905 16.9967
57.910 16.76421
57.915 17.101076
57.920 16.839806
57.925 16.842476
57.930 16.534595
57.935 15.957474
57.940 15.830376
57.945 16.040663
57.950 16.127506
57.955 15.774282
57.960 15.40494
57.965 15.340102
57.970 15.383023
57.975 15.711388
57.980 15.371696
57.985 15.078527
57.990 15.430809
57.995 15.613737
58.000 16.067196
58.005 16.216473
58.010 16.211267
58.015 16.249376
58.020 16.267483
58.025 16.149324
58.030 16.129591
58.035 16.110235
58.040 15.850189
58.045 15.937636
58.050 16.474779
58.055 17.126522
58.060 17.096382
58.065 16.793516
58.070 17.052706
58.075 17.906837
58.080 17.677881
58.085 17.358099
58.090 16.952513
58.095 17.628157
58.100 17.869997
58.105 17.582754
58.110 17.492157
58.115 17.748362
58.120 17.674673
58.125 17.5958
58.130 16.881128
58.135 16.623369
58.140 16.64868
58.145 16.140902
58.150 16.179474
58.155 15.70134
58.160 15.334103
58.165 15.683253
58.170 16.502565
58.175 17.015409
58.180 17.064363
58.185 16.970505
58.190 17.229473
58.195 17.781071
58.200 18.131958
58.205 17.83083
58.210 18.031891
58.215 18.320927
58.220 18.652105
58.225 18.936245
58.230 18.657164
58.235 18.527401
58.240 17.940397
58.245 17.21409
58.250 17.442673
58.255 17.658484
58.260 17.61492
58.265 17.67429
58.270 18.113001
58.275 18.511381
58.280 18.542301
58.285 18.128628
58.290 18.006525
58.295 18.003962
58.300 17.895792
58.305 17.882847
58.310 18.577526
58.315 19.471859
58.320 19.623636
58.325 19.725304
58.330 20.199656
58.335 20.028008
58.340 19.604029
58.345 18.482456
58.350 18.556232
58.355 19.439207
58.360 20.056641
58.365 19.611092
58.370 19.821674
58.375 20.360729
58.380 21.289389
58.385 21.853786
58.390 21.4606
58.395 21.615688
58.400 22.417927
58.405 22.979366
58.410 23.105766
58.415 23.096991
58.420 23.083263
58.425 23.735762
58.430 24.391994
58.435 25.520227
58.440 26.010557
58.445 26.164993
58.450 26.609726
58.455 27.107016
58.460 27.365288
58.465 26.988663
58.470 26.938772
