!@!!GADDS PLOTSO FILE: Chi integration type
!@!!Title/SampleName: map-54
!@!!Comment: ?
!@!!User: Bruker Instrument Administrator
!@!!Site: University of Illinois Chicago
!@!!Frame: map-54_01_000.gfrm
!@!!Wavelengths    1.54184   1.54056   1.54439
!@!!Frame angles: 2Theta: 63.000 Omega: 50.000 Phi: 0.000 Chi: 90.000
!@!!Integration range: 2Theta: 53.000 to 73.000  Gamma: -105.000 to -75.000
!@!!Integration method: bin normalized
!@!N
!@!SS
!@!M
!@!L 0.0 0.0 0.0 0.0
!@!XDegrees
!@!YCounts
53.000 8.74097
53.005 8.589843
53.010 7.988077
53.015 8.097194
53.020 7.736475
53.025 7.272605
53.030 7.044671
53.035 6.877655
53.040 6.959508
53.045 6.577254
53.050 6.568365
53.055 7.059718
53.060 7.375367
53.065 7.18085
53.070 7.223579
53.075 7.553732
53.080 8.168021
53.085 8.299147
53.090 8.586856
53.095 8.670937
53.100 8.574712
53.105 8.300003
53.110 8.075186
53.115 8.517989
53.120 8.44227
53.125 8.190598
53.130 8.14773
53.135 8.065657
53.140 8.276097
53.145 7.73041
53.150 7.096701
53.155 7.059224
53.160 7.094986
53.165 7.706913
53.170 8.038385
53.175 8.173671
53.180 8.344178
53.185 8.615338
53.190 8.765091
53.195 8.412148
53.200 7.813665
53.205 8.140254
53.210 7.903926
53.215 7.907891
53.220 7.849341
53.225 7.424479
53.230 7.599592
53.235 7.612107
53.240 7.412038
53.245 8.080487
53.250 8.068625
53.255 7.675529
53.260 7.818229
53.265 7.734922
53.270 7.798476
53.275 7.616072
53.280 7.071965
53.285 7.238728
53.290 7.770393
53.295 8.482945
53.300 9.136577
53.305 9.73015
53.310 9.592802
53.315 9.461743
53.320 9.585732
53.325 9.57542
53.330 9.138801
53.335 8.59176
53.340 8.220107
53.345 8.485231
53.350 8.604702
53.355 8.295536
53.360 7.707891
53.365 7.80882
53.370 7.622077
53.375 7.642219
53.380 7.757758
53.385 8.394606
53.390 8.605027
53.395 8.774834
53.400 8.826171
53.405 8.91045
53.410 8.932542
53.415 8.734985
53.420 8.735776
53.425 8.506121
53.430 8.547787
53.435 8.922585
53.440 9.077917
53.445 9.342088
53.450 8.992992
53.455 8.707148
53.460 9.023929
53.465 9.18317
53.470 8.963549
53.475 9.519712
53.480 9.808491
53.485 10.194388
53.490 10.219278
53.495 10.114229
53.500 10.035783
53.505 9.757058
53.510 9.175921
53.515 9.040451
53.520 9.092239
53.525 9.49299
53.530 9.284892
53.535 9.392885
53.540 9.435572
53.545 9.512407
53.550 9.338536
53.555 9.011835
53.560 9.218946
53.565 8.910851
53.570 8.852116
53.575 8.829916
53.580 8.367865
53.585 8.594586
53.590 8.401604
53.595 8.11748
53.600 8.628976
53.605 8.264662
53.610 8.293541
53.615 8.512093
53.620 8.109982
53.625 7.876345
53.630 7.782579
53.635 7.599364
53.640 7.921457
53.645 7.667091
53.650 7.77555
53.655 8.361683
53.660 8.772807
53.665 8.94789
53.670 9.03756
53.675 8.755672
53.680 9.017046
53.685 8.832623
53.690 8.756973
53.695 8.42211
53.700 8.347732
53.705 8.253263
53.710 8.157027
53.715 8.243387
53.720 8.300658
53.725 8.665097
53.730 8.732683
53.735 8.880317
53.740 8.990196
53.745 9.419463
53.750 9.399907
53.755 9.444272
53.760 9.447201
53.765 9.49024
53.770 9.414483
53.775 9.360203
53.780 9.205956
53.785 8.932387
53.790 9.023238
53.795 9.085533
53.800 8.935136
53.805 9.07359
53.810 9.286572
53.815 9.673401
53.820 9.6272
53.825 9.228711
53.830 9.409529
53.835 9.282535
53.840 8.844866
53.845 8.351979
53.850 8.049892
53.855 8.269209
53.860 8.229329
53.865 8.0777
53.870 8.353296
53.875 8.596552
53.880 9.124335
53.885 9.528662
53.890 9.76558
53.895 9.68546
53.900 9.673199
53.905 9.470472
53.910 9.337738
53.915 9.133815
53.920 8.820668
53.925 8.766707
53.930 9.079499
53.935 9.25972
53.940 9.687777
53.945 9.656064
53.950 9.697718
53.955 10.065447
53.960 9.591793
53.965 9.397577
53.970 9.334323
53.975 9.463753
53.980 9.466395
53.985 9.517859
53.990 9.563734
53.995 9.938335
54.000 9.696022
54.005 9.459709
54.010 9.196636
54.015 8.976748
54.020 8.651819
54.025 8.647564
54.030 9.385269
54.035 9.359367
54.040 9.716138
54.045 9.984779
54.050 10.106122
54.055 10.311823
54.060 10.207911
54.065 9.889254
54.070 9.964583
54.075 9.743287
54.080 9.768677
54.085 9.524611
54.090 9.194098
54.095 8.482905
54.100 8.406402
54.105 8.82815
54.110 8.972192
54.115 9.483226
54.120 9.798664
54.125 9.849363
54.130 10.270922
54.135 10.218312
54.140 9.922033
54.145 9.456655
54.150 8.965488
54.155 9.213662
54.160 9.1866
54.165 8.908081
54.170 8.91797
54.175 9.242945
54.180 9.41207
54.185 8.95832
54.190 9.242038
54.195 9.751515
54.200 9.791494
54.205 9.696687
54.210 9.396992
54.215 9.609771
54.220 9.647986
54.225 8.993432
54.230 8.791398
54.235 8.543098
54.240 8.771373
54.245 8.526914
54.250 8.507669
54.255 8.608258
54.260 8.78105
54.265 9.002906
54.270 9.547647
54.275 9.730901
54.280 9.727971
54.285 9.986388
54.290 10.232986
54.295 9.958517
54.300 10.121615
54.305 10.271755
54.310 10.354492
54.315 10.562104
54.320 10.425591
54.325 10.534816
54.330 10.794498
54.335 10.478965
54.340 10.356984
54.345 10.477484
54.350 10.505832
54.355 10.45785
54.360 10.290048
54.365 10.52326
54.370 10.649263
54.375 10.076786
54.380 9.908205
54.385 9.808377
54.390 9.813555
54.395 9.544484
54.400 9.064253
54.405 8.729132
54.410 8.886304
54.415 8.682281
54.420 8.742282
54.425 8.979048
54.430 9.270693
54.435 9.546392
54.440 9.965563
54.445 10.209332
54.450 10.614477
54.455 10.476868
54.460 10.560128
54.465 10.222274
54.470 9.952615
54.475 9.259768
54.480 9.124398
54.485 8.777862
54.490 8.824057
54.495 8.498912
54.500 8.86517
54.505 8.874969
54.510 9.2674
54.515 9.180707
54.520 9.030613
54.525 9.039206
54.530 9.001778
54.535 8.710966
54.540 8.977687
54.545 9.254711
54.550 9.752222
54.555 10.054127
54.560 9.963513
54.565 9.967178
54.570 10.347974
54.575 10.297886
54.580 10.102839
54.585 10.055744
54.590 10.250094
54.595 10.30469
54.600 10.020665
54.605 10.064842
54.610 10.010952
54.615 9.729419
54.620 9.534987
54.625 9.362986
54.630 9.443369
54.635 9.390737
54.640 9.19939
54.645 9.64493
54.650 9.88168
54.655 9.983777
54.660 10.262968
54.665 10.476368
54.670 10.949156
54.675 10.831567
54.680 10.654281
54.685 10.74901
54.690 10.63557
54.695 10.904122
54.700 10.822305
54.705 10.35512
54.710 10.748904
54.715 10.770482
54.720 10.326277
54.725 10.291919
54.730 10.162835
54.735 10.403527
54.740 10.874574
54.745 10.373609
54.750 10.162298
54.755 10.160381
54.760 10.03816
54.765 10.214228
54.770 10.182922
54.775 9.996794
54.780 9.518922
54.785 9.1627
54.790 9.801175
54.795 9.615547
54.800 9.260049
54.805 9.340615
54.810 9.954235
54.815 11.138587
54.820 11.562308
54.825 11.242188
54.830 11.400739
54.835 11.246172
54.840 10.976592
54.845 10.338991
54.850 10.149868
54.855 10.019011
54.860 9.841408
54.865 9.824771
54.870 9.81771
54.875 9.587594
54.880 9.442526
54.885 9.827223
54.890 9.900477
54.895 10.014602
54.900 10.309175
54.905 10.529388
54.910 10.660675
54.915 10.943424
54.920 10.798717
54.925 10.990872
54.930 10.814351
54.935 10.395839
54.940 10.442905
54.945 10.883708
54.950 10.974903
54.955 10.57404
54.960 10.198088
54.965 10.083405
54.970 10.129519
54.975 9.680307
54.980 9.034663
54.985 9.07462
54.990 9.572445
54.995 9.647907
55.000 9.384749
55.005 9.216215
55.010 9.607883
55.015 9.919203
55.020 9.667383
55.025 9.662305
55.030 10.12175
55.035 10.558799
55.040 10.758286
55.045 10.583776
55.050 10.260401
55.055 9.910231
55.060 9.910526
55.065 9.636707
55.070 9.603044
55.075 9.762478
55.080 9.979041
55.085 9.965556
55.090 10.379207
55.095 10.328688
55.100 10.347764
55.105 10.431873
55.110 10.226221
55.115 9.95807
55.120 10.32806
55.125 10.567205
55.130 10.957601
55.135 11.242789
55.140 11.464553
55.145 11.59544
55.150 11.652715
55.155 10.972695
55.160 10.88271
55.165 10.621612
55.170 10.325536
55.175 10.298907
55.180 10.309015
55.185 10.527596
55.190 10.40724
55.195 10.195358
55.200 10.265965
55.205 10.266741
55.210 10.252738
55.215 10.911674
55.220 10.939183
55.225 10.920803
55.230 10.569057
55.235 10.740372
55.240 11.072227
55.245 10.484293
55.250 9.703379
55.255 9.727573
55.260 9.736229
55.265 10.134203
55.270 9.974031
55.275 9.609742
55.280 10.21018
55.285 10.480575
55.290 10.574421
55.295 10.952243
55.300 10.795295
55.305 10.767859
55.310 10.763028
55.315 10.315219
55.320 10.379652
55.325 10.501804
55.330 11.002275
55.335 10.915382
55.340 11.080571
55.345 11.560613
55.350 12.261383
55.355 12.515164
55.360 12.553219
55.365 11.815467
55.370 11.954312
55.375 11.715234
55.380 11.575577
55.385 11.248298
55.390 10.945577
55.395 10.740398
55.400 10.504702
55.405 10.523286
55.410 10.528116
55.415 9.90612
55.420 9.903461
55.425 9.685443
55.430 9.809073
55.435 10.11475
55.440 9.76854
55.445 10.272724
55.450 11.179782
55.455 11.3452
55.460 11.317489
55.465 11.382318
55.470 11.420995
55.475 11.653658
55.480 11.515254
55.485 11.244276
55.490 11.681636
55.495 12.148965
55.500 12.180424
55.505 12.374644
55.510 12.266369
55.515 11.875308
55.520 11.45805
55.525 10.772687
55.530 10.626128
55.535 10.649241
55.540 10.363296
55.545 10.484311
55.550 11.149863
55.555 11.857245
55.560 11.880374
55.565 11.98358
55.570 12.019873
55.575 12.670835
55.580 12.96109
55.585 12.199291
55.590 12.14444
55.595 12.291391
55.600 12.254403
55.605 12.044661
55.610 11.620364
55.615 11.422192
55.620 11.124907
55.625 10.578471
55.630 10.001763
55.635 9.695749
55.640 9.941579
55.645 9.917429
55.650 10.238418
55.655 10.429177
55.660 10.414565
55.665 11.438505
55.670 11.459869
55.675 11.500802
55.680 11.416809
55.685 11.531734
55.690 11.898228
55.695 11.774834
55.700 11.663433
55.705 11.851448
55.710 11.806524
55.715 11.450401
55.720 11.397931
55.725 11.438694
55.730 11.2576
55.735 11.320942
55.740 11.806056
55.745 11.997879
55.750 12.442606
55.755 12.666941
55.760 12.901698
55.765 13.164001
55.770 12.552822
55.775 12.309614
55.780 12.399515
55.785 12.505665
55.790 12.33648
55.795 11.952401
55.800 11.690686
55.805 12.261493
55.810 12.374897
55.815 12.060301
55.820 11.777834
55.825 11.991039
55.830 12.346805
55.835 13.077826
55.840 12.86103
55.845 12.654429
55.850 12.643946
55.855 12.401645
55.860 12.467754
55.865 12.436816
55.870 11.78195
55.875 11.973742
55.880 12.39464
55.885 13.167037
55.890 13.63575
55.895 13.618395
55.900 13.418752
55.905 13.462189
55.910 13.176907
55.915 12.362519
55.920 11.841498
55.925 11.524718
55.930 11.60813
55.935 11.784793
55.940 11.933602
55.945 12.255791
55.950 12.311743
55.955 12.281292
55.960 12.01946
55.965 11.510741
55.970 11.337072
55.975 10.922251
55.980 10.726851
55.985 10.636729
55.990 10.812989
55.995 11.153139
56.000 11.336721
56.005 11.526203
56.010 11.528594
56.015 11.499184
56.020 11.682954
56.025 11.453987
56.030 11.9405
56.035 11.840121
56.040 11.794054
56.045 11.453348
56.050 11.519955
56.055 11.662679
56.060 11.181269
56.065 11.112913
56.070 11.06219
56.075 11.456751
56.080 11.894459
56.085 11.635169
56.090 11.520745
56.095 11.184796
56.100 11.143261
56.105 10.924898
56.110 10.583716
56.115 10.672463
56.120 10.872017
56.125 10.865829
56.130 11.505688
56.135 11.576929
56.140 12.293276
56.145 12.255252
56.150 11.784952
56.155 11.887024
56.160 12.559446
56.165 12.513881
56.170 12.077788
56.175 11.714308
56.180 11.772141
56.185 12.102328
56.190 11.788583
56.195 11.148642
56.200 10.905723
56.205 10.976096
56.210 10.64015
56.215 10.695449
56.220 11.087506
56.225 11.578436
56.230 12.218637
56.235 12.696624
56.240 12.835971
56.245 13.150167
56.250 12.914575
56.255 12.575507
56.260 12.08287
56.265 11.982759
56.270 11.806394
56.275 12.01285
56.280 12.316453
56.285 12.605791
56.290 13.185163
56.295 13.441339
56.300 13.288628
56.305 13.102912
56.310 13.097867
56.315 12.791863
56.320 13.263252
56.325 13.102374
56.330 12.941066
56.335 12.832077
56.340 12.982141
56.345 12.745556
56.350 13.068223
56.355 12.313223
56.360 11.991299
56.365 12.127639
56.370 11.856557
56.375 11.788986
56.380 11.781683
56.385 11.757191
56.390 11.849722
56.395 12.007496
56.400 11.719838
56.405 11.803481
56.410 12.077454
56.415 12.872643
56.420 12.427265
56.425 12.497609
56.430 12.00894
56.435 12.111334
56.440 11.889159
56.445 11.477389
56.450 10.843983
56.455 10.289897
56.460 9.798653
56.465 9.769779
56.470 10.267223
56.475 10.764971
56.480 10.717192
56.485 10.774137
56.490 11.740507
56.495 12.706036
56.500 13.216819
56.505 12.957355
56.510 12.657683
56.515 12.893765
56.520 13.454889
56.525 13.360099
56.530 12.886927
56.535 12.388227
56.540 12.180142
56.545 12.114933
56.550 11.935096
56.555 12.371837
56.560 12.268848
56.565 12.437902
56.570 12.679056
56.575 12.57008
56.580 13.135288
56.585 13.371687
56.590 12.832048
56.595 12.83231
56.600 12.532926
56.605 12.247601
56.610 12.298717
56.615 11.742897
56.620 11.569704
56.625 11.659589
56.630 11.940148
56.635 12.231625
56.640 12.446249
56.645 12.683839
56.650 12.67595
56.655 12.149175
56.660 11.993936
56.665 11.786818
56.670 11.370866
56.675 11.18729
56.680 11.002286
56.685 10.997778
56.690 11.522254
56.695 11.113384
56.700 11.419423
56.705 11.949052
56.710 12.493157
56.715 12.773945
56.720 12.973332
56.725 13.061491
56.730 13.256526
56.735 13.609759
56.740 13.318337
56.745 12.698376
56.750 12.778549
56.755 13.071878
56.760 13.147205
56.765 12.881182
56.770 12.527756
56.775 13.150166
56.780 13.502015
56.785 13.738219
56.790 13.433309
56.795 13.360246
56.800 13.917179
56.805 14.272501
56.810 14.087831
56.815 13.925952
56.820 13.21984
56.825 13.452538
56.830 13.233382
56.835 13.251675
56.840 13.017637
56.845 13.170527
56.850 12.695376
56.855 12.411596
56.860 12.023094
56.865 12.212056
56.870 12.130445
56.875 12.008658
56.880 11.722479
56.885 11.921161
56.890 12.043027
56.895 12.520299
56.900 12.911852
56.905 13.585805
56.910 13.931271
56.915 14.524759
56.920 14.979185
56.925 15.289592
56.930 14.918775
56.935 14.277231
56.940 13.512897
56.945 13.115706
56.950 12.267558
56.955 11.784137
56.960 11.58322
56.965 11.411164
56.970 11.476556
56.975 11.400569
56.980 11.324667
56.985 11.797171
56.990 11.952875
56.995 12.192077
57.000 12.528111
57.005 12.803305
57.010 12.735439
57.015 12.652355
57.020 12.874432
57.025 12.784617
57.030 12.413839
57.035 12.017448
57.040 11.310894
57.045 11.596161
57.050 11.961376
57.055 12.210829
57.060 12.368309
57.065 12.31052
57.070 12.263354
57.075 12.459459
57.080 12.932262
57.085 13.022674
57.090 12.546768
57.095 13.404699
57.100 14.003113
57.105 14.054897
57.110 14.160662
57.115 13.791788
57.120 13.989242
57.125 14.036857
57.130 13.550621
57.135 13.65729
57.140 13.878945
57.145 13.680393
57.150 13.498577
57.155 13.123394
57.160 12.913877
57.165 12.746797
57.170 12.673923
57.175 12.829132
57.180 12.900462
57.185 13.286745
57.190 13.654268
57.195 13.962968
57.200 13.912364
57.205 13.801582
57.210 13.866752
57.215 13.881477
57.220 13.237282
57.225 13.117593
57.230 13.357975
57.235 13.498799
57.240 13.262163
57.245 13.540872
57.250 13.243646
57.255 13.642278
57.260 13.475682
57.265 13.013681
57.270 13.329759
57.275 13.270023
57.280 13.174477
57.285 13.325384
57.290 13.345751
57.295 13.355688
57.300 13.729037
57.305 13.393311
57.310 13.665751
57.315 14.206408
57.320 14.856704
57.325 14.919301
57.330 14.844392
57.335 14.603201
57.340 14.132373
57.345 13.84596
57.350 13.314859
57.355 12.7954
57.360 12.733202
57.365 12.8943
57.370 13.086447
57.375 13.624207
57.380 13.601192
57.385 13.45531
57.390 13.72549
57.395 13.873729
57.400 14.17197
57.405 14.043551
57.410 13.73036
57.415 13.72237
57.420 13.39387
57.425 13.755447
57.430 13.411508
57.435 13.437282
57.440 13.270982
57.445 13.242704
57.450 13.505711
57.455 13.577882
57.460 12.940983
57.465 12.597439
57.470 12.592312
57.475 12.672075
57.480 12.730744
57.485 12.251291
57.490 11.593992
57.495 11.574935
57.500 11.441065
57.505 11.044291
57.510 11.353757
57.515 11.531557
57.520 11.861025
57.525 12.550672
57.530 12.74082
57.535 13.343987
57.540 13.447984
57.545 13.140815
57.550 13.138124
57.555 13.293667
57.560 13.28224
57.565 13.497842
57.570 13.630823
57.575 13.789766
57.580 13.631914
57.585 13.70583
57.590 13.172159
57.595 13.438898
57.600 13.573997
57.605 13.312132
57.610 13.574211
57.615 14.046122
57.620 14.27128
57.625 15.446907
57.630 15.195276
57.635 15.08448
57.640 15.289065
57.645 14.781176
57.650 14.867611
57.655 14.794469
57.660 13.86619
57.665 13.303931
57.670 12.830709
57.675 12.427334
57.680 12.559739
57.685 12.06126
57.690 12.618424
57.695 13.438573
57.700 13.815669
57.705 14.022791
57.710 14.493732
57.715 14.781932
57.720 14.274074
57.725 13.890919
57.730 14.171995
57.735 14.023647
57.740 14.576728
57.745 14.736798
57.750 14.955511
57.755 15.256309
57.760 15.19797
57.765 15.013698
57.770 15.247498
57.775 14.840824
57.780 14.315742
57.785 14.29267
57.790 14.434511
57.795 14.223636
57.800 14.201526
57.805 13.972063
57.810 13.638313
57.815 13.583053
57.820 13.291438
57.825 13.089561
57.830 12.789365
57.835 12.38856
57.840 12.472358
57.845 12.70288
57.850 12.891873
57.855 12.933408
57.860 13.24315
57.865 13.68872
57.870 13.806588
57.875 13.656778
57.880 13.593651
57.885 13.433012
57.890 12.816434
57.895 12.187423
57.900 12.493747
57.905 12.911435
57.910 13.205834
57.915 13.355341
57.920 13.586486
57.925 14.383802
57.930 14.28885
57.935 13.939946
57.940 13.697065
57.945 13.514862
57.950 13.974049
57.955 14.408563
57.960 14.567244
57.965 14.968433
57.970 15.256174
57.975 15.974734
57.980 15.964396
57.985 15.315948
57.990 15.09921
57.995 15.705731
58.000 16.27853
58.005 16.61388
58.010 16.523237
58.015 16.945841
58.020 17.244701
58.025 17.703154
58.030 16.990704
58.035 16.449305
58.040 15.748934
58.045 15.35675
58.050 15.548542
58.055 15.358577
58.060 14.607288
58.065 14.460522
58.070 14.336895
58.075 14.694617
58.080 14.840245
58.085 14.117966
58.090 13.404113
58.095 13.353148
58.100 13.820498
58.105 13.814802
58.110 13.582092
58.115 13.243191
58.120 13.367355
58.125 13.717562
58.130 13.729948
58.135 13.425817
58.140 13.576682
58.145 13.098226
58.150 12.858284
58.155 13.196501
58.160 13.129025
58.165 13.699288
58.170 13.742103
58.175 13.414829
58.180 13.506865
58.185 13.900217
58.190 14.27868
58.195 14.052576
58.200 13.271007
58.205 13.286597
58.210 14.181407
58.215 14.377105
58.220 14.33696
58.225 14.038004
58.230 14.042417
58.235 14.266693
58.240 14.189456
58.245 13.337727
58.250 13.482196
58.255 13.288697
58.260 13.908326
58.265 14.277271
58.270 14.267576
58.275 14.589612
58.280 14.779301
58.285 14.890384
58.290 14.871336
58.295 14.559958
58.300 14.564039
58.305 14.274457
58.310 13.835205
58.315 14.226968
58.320 14.515927
58.325 14.134312
58.330 13.540742
58.335 13.122574
58.340 13.66897
58.345 14.18433
58.350 14.315203
58.355 14.192183
58.360 14.600613
58.365 14.90762
58.370 15.251147
58.375 14.465199
58.380 13.791703
58.385 13.471825
58.390 13.630728
58.395 13.802691
58.400 14.156734
58.405 14.421375
58.410 14.809162
58.415 15.116012
58.420 15.087681
58.425 15.517983
58.430 15.472438
58.435 15.747964
58.440 15.869843
58.445 15.792171
58.450 15.255156
58.455 14.907591
58.460 14.798848
58.465 14.534958
58.470 13.537308
58.475 12.712059
58.480 13.209975
58.485 13.783961
58.490 13.669057
58.495 13.123051
58.500 13.471044
58.505 13.744468
58.510 14.345369
58.515 14.06014
58.520 14.331904
58.525 14.513671
58.530 14.193832
58.535 13.996791
