!@!!GADDS PLOTSO FILE: Chi integration type
!@!!Title/SampleName: map-137
!@!!Comment: ?
!@!!User: Bruker Instrument Administrator
!@!!Site: University of Illinois Chicago
!@!!Frame: map-137_01_000.gfrm
!@!!Wavelengths    1.54184   1.54056   1.54439
!@!!Frame angles: 2Theta: 63.000 Omega: 50.000 Phi: 0.000 Chi: 90.000
!@!!Integration range: 2Theta: 53.000 to 73.000  Gamma: -105.000 to -75.000
!@!!Integration method: bin normalized
!@!N
!@!SS
!@!M
!@!L 0.0 0.0 0.0 0.0
!@!XDegrees
!@!YCounts
53.000 4.067334
53.005 4.443475
53.010 4.485094
53.015 4.247676
53.020 4.25942
53.025 4.293318
53.030 4.377875
53.035 4.149181
53.040 3.842139
53.045 3.758312
53.050 4.22182
53.055 4.130908
53.060 4.118924
53.065 3.872493
53.070 3.964807
53.075 4.094309
53.080 3.885011
53.085 3.601755
53.090 3.537204
53.095 3.644028
53.100 3.974922
53.105 4.050922
53.110 4.284321
53.115 4.47285
53.120 4.658064
53.125 4.888839
53.130 4.818995
53.135 4.706164
53.140 4.648619
53.145 4.759193
53.150 5.062813
53.155 5.064648
53.160 5.04011
53.165 5.227634
53.170 5.193828
53.175 5.473347
53.180 5.359671
53.185 5.376852
53.190 5.251425
53.195 5.135085
53.200 5.066923
53.205 5.109108
53.210 4.579074
53.215 4.441948
53.220 4.272998
53.225 4.231953
53.230 4.095186
53.235 4.279805
53.240 4.72471
53.245 4.70865
53.250 4.818707
53.255 4.857482
53.260 4.930923
53.265 4.617947
53.270 4.328405
53.275 4.018905
53.280 4.105324
53.285 3.695074
53.290 3.469006
53.295 3.686515
53.300 3.827102
53.305 3.71026
53.310 3.738726
53.315 3.923397
53.320 4.180637
53.325 4.261763
53.330 4.262316
53.335 4.212968
53.340 4.38551
53.345 4.376122
53.350 4.617759
53.355 4.641314
53.360 4.580575
53.365 4.412191
53.370 4.353984
53.375 4.144671
53.380 3.92005
53.385 3.591321
53.390 3.272035
53.395 3.175762
53.400 3.467845
53.405 3.764439
53.410 4.278564
53.415 4.209599
53.420 4.536771
53.425 4.958853
53.430 5.229864
53.435 5.264409
53.440 5.054438
53.445 4.936702
53.450 4.792289
53.455 4.49987
53.460 4.643461
53.465 4.556034
53.470 4.796263
53.475 4.719382
53.480 4.386948
53.485 4.434874
53.490 4.490158
53.495 4.523175
53.500 4.320867
53.505 4.00585
53.510 4.214279
53.515 4.591905
53.520 4.369702
53.525 4.222151
53.530 4.022086
53.535 4.450035
53.540 4.52021
53.545 4.556045
53.550 4.419256
53.555 4.239589
53.560 4.272398
53.565 3.97549
53.570 3.635577
53.575 3.870238
53.580 4.067817
53.585 4.437671
53.590 4.657546
53.595 4.764925
53.600 4.994866
53.605 4.906619
53.610 4.546497
53.615 4.573818
53.620 4.611842
53.625 4.416603
53.630 4.378864
53.635 4.747929
53.640 4.874502
53.645 4.554287
53.650 4.096289
53.655 4.190415
53.660 4.472398
53.665 4.37533
53.670 4.248762
53.675 4.599268
53.680 4.988605
53.685 5.167
53.690 5.247546
53.695 5.195742
53.700 5.286601
53.705 5.098413
53.710 5.155116
53.715 5.27888
53.720 4.887592
53.725 4.773566
53.730 4.887434
53.735 4.65394
53.740 4.620373
53.745 4.204108
53.750 4.30838
53.755 4.639799
53.760 4.907944
53.765 4.835922
53.770 4.795209
53.775 5.055792
53.780 5.466402
53.785 5.241613
53.790 5.023035
53.795 4.563088
53.800 4.735823
53.805 4.976163
53.810 4.942599
53.815 4.747727
53.820 4.886345
53.825 4.939694
53.830 5.404638
53.835 5.346498
53.840 4.839545
53.845 4.660272
53.850 4.956272
53.855 4.844012
53.860 4.645352
53.865 4.322875
53.870 4.297359
53.875 4.386643
53.880 4.560527
53.885 4.687637
53.890 4.882593
53.895 4.965806
53.900 4.60977
53.905 4.64585
53.910 4.540435
53.915 4.241608
53.920 3.827449
53.925 3.56922
53.930 3.721983
53.935 4.130202
53.940 4.31577
53.945 4.263352
53.950 4.207294
53.955 4.400893
53.960 4.519098
53.965 4.286354
53.970 4.182692
53.975 4.003828
53.980 3.966524
53.985 4.087746
53.990 4.265998
53.995 4.625793
54.000 4.729643
54.005 4.650622
54.010 5.012671
54.015 5.472174
54.020 5.731841
54.025 5.702881
54.030 5.709876
54.035 5.810531
54.040 5.735902
54.045 5.529272
54.050 5.364285
54.055 5.17454
54.060 4.854736
54.065 4.699653
54.070 4.85506
54.075 5.204685
54.080 5.184444
54.085 5.14344
54.090 5.040628
54.095 5.096672
54.100 5.279696
54.105 5.243327
54.110 4.871751
54.115 4.490415
54.120 4.384638
54.125 4.52001
54.130 4.391682
54.135 4.179674
54.140 4.319486
54.145 4.739028
54.150 5.177907
54.155 5.357558
54.160 5.183764
54.165 5.081102
54.170 4.965479
54.175 4.634867
54.180 4.557876
54.185 4.565056
54.190 4.817063
54.195 5.047305
54.200 5.464099
54.205 5.626212
54.210 5.466469
54.215 5.227978
54.220 5.041019
54.225 4.884067
54.230 5.15168
54.235 5.124142
54.240 4.893369
54.245 4.94452
54.250 4.79976
54.255 5.076606
54.260 5.005702
54.265 4.768942
54.270 4.721189
54.275 4.899606
54.280 5.003769
54.285 4.970279
54.290 4.614376
54.295 4.580951
54.300 4.753297
54.305 4.703004
54.310 4.516604
54.315 4.385177
54.320 4.642196
54.325 4.798569
54.330 4.750514
54.335 4.809678
54.340 5.202414
54.345 5.645793
54.350 5.836805
54.355 5.902621
54.360 6.020306
54.365 5.81687
54.370 5.404154
54.375 5.454428
54.380 5.001262
54.385 4.839118
54.390 4.319316
54.395 4.255929
54.400 4.201955
54.405 4.11312
54.410 3.905474
54.415 3.988731
54.420 4.233916
54.425 4.455223
54.430 4.478454
54.435 4.524918
54.440 4.405436
54.445 4.566281
54.450 4.608817
54.455 4.621286
54.460 4.491379
54.465 4.467757
54.470 4.626234
54.475 5.045744
54.480 5.097779
54.485 5.104129
54.490 5.003669
54.495 5.064152
54.500 5.259659
54.505 5.192181
54.510 5.173334
54.515 5.340994
54.520 5.320454
54.525 5.442568
54.530 5.645126
54.535 5.707036
54.540 5.763512
54.545 5.125105
54.550 5.351392
54.555 5.683993
54.560 5.521318
54.565 5.324676
54.570 5.033062
54.575 4.993152
54.580 5.214999
54.585 4.859437
54.590 5.055407
54.595 5.396598
54.600 5.638016
54.605 5.574153
54.610 5.437625
54.615 5.436181
54.620 5.319688
54.625 5.064089
54.630 4.947327
54.635 4.901495
54.640 5.083885
54.645 5.040299
54.650 5.24966
54.655 5.053197
54.660 4.989445
54.665 4.875284
54.670 4.939178
54.675 5.265028
54.680 5.287246
54.685 5.188299
54.690 5.313587
54.695 5.34446
54.700 5.479073
54.705 5.218545
54.710 4.870926
54.715 5.164409
54.720 5.096678
54.725 4.837552
54.730 4.577806
54.735 4.513825
54.740 4.986487
54.745 5.04468
54.750 5.108913
54.755 5.557307
54.760 5.999712
54.765 6.110031
54.770 6.26038
54.775 6.153183
54.780 6.328034
54.785 6.385114
54.790 6.039839
54.795 5.676939
54.800 5.626298
54.805 5.463515
54.810 5.125793
54.815 4.905819
54.820 4.542047
54.825 4.895664
54.830 5.217826
54.835 5.491449
54.840 5.579731
54.845 5.615112
54.850 5.495636
54.855 5.343315
54.860 4.851568
54.865 4.608258
54.870 4.003317
54.875 4.195718
54.880 4.756402
54.885 5.349317
54.890 5.974084
54.895 5.827646
54.900 5.981482
54.905 6.072287
54.910 6.251439
54.915 6.022439
54.920 5.263579
54.925 4.887251
54.930 5.063699
54.935 5.07921
54.940 4.906209
54.945 4.308274
54.950 3.702779
54.955 3.808997
54.960 4.156436
54.965 4.117095
54.970 3.95406
54.975 4.10041
54.980 4.504614
54.985 4.844814
54.990 4.785365
54.995 4.671476
55.000 4.863972
55.005 5.07168
55.010 5.169761
55.015 5.157241
55.020 5.287446
55.025 5.326775
55.030 5.163225
55.035 4.931818
55.040 4.453855
55.045 4.558374
55.050 4.659607
55.055 4.447957
55.060 4.265017
55.065 4.29894
55.070 4.750329
55.075 5.051666
55.080 5.009368
55.085 5.128388
55.090 5.317889
55.095 5.702968
55.100 6.107696
55.105 5.990095
55.110 5.871631
55.115 5.805582
55.120 5.699823
55.125 5.724514
55.130 5.231243
55.135 4.956228
55.140 4.847698
55.145 4.850276
55.150 4.801422
55.155 4.809187
55.160 4.893289
55.165 5.112495
55.170 5.4043
55.175 5.643499
55.180 5.700584
55.185 6.175567
55.190 6.292325
55.195 6.242064
55.200 6.149553
55.205 6.170792
55.210 6.315623
55.215 6.217628
55.220 5.939374
55.225 6.166227
55.230 6.315217
55.235 6.48332
55.240 6.372877
55.245 6.38863
55.250 6.296248
55.255 6.229604
55.260 6.185711
55.265 6.203827
55.270 5.930865
55.275 5.742988
55.280 5.645456
55.285 6.042406
55.290 6.115937
55.295 5.744496
55.300 5.594095
55.305 5.454218
55.310 5.420156
55.315 5.409602
55.320 5.015151
55.325 4.958744
55.330 5.211843
55.335 5.382837
55.340 5.502091
55.345 5.532079
55.350 5.486154
55.355 5.702841
55.360 5.781703
55.365 5.301786
55.370 5.192618
55.375 5.344394
55.380 5.122908
55.385 4.950733
55.390 4.864073
55.395 5.02133
55.400 5.201469
55.405 5.185878
55.410 5.038189
55.415 5.258391
55.420 5.328709
55.425 5.02678
55.430 4.814312
55.435 5.009071
55.440 5.242212
55.445 5.338872
55.450 5.390274
55.455 5.669462
55.460 5.902276
55.465 5.798628
55.470 5.585115
55.475 5.329299
55.480 5.384091
55.485 5.265524
55.490 4.942093
55.495 5.107121
55.500 5.406253
55.505 5.829523
55.510 5.814708
55.515 5.687624
55.520 5.835535
55.525 5.78481
55.530 5.477927
55.535 5.287113
55.540 5.051461
55.545 5.403786
55.550 5.603802
55.555 5.912969
55.560 5.941017
55.565 5.792187
55.570 5.87476
55.575 5.832237
55.580 5.309781
55.585 5.32109
55.590 5.100079
55.595 5.467799
55.600 5.617891
55.605 5.522931
55.610 5.493575
55.615 5.585294
55.620 5.494365
55.625 5.573195
55.630 5.586601
55.635 5.73826
55.640 5.842403
55.645 5.80887
55.650 5.825549
55.655 5.802232
55.660 5.721176
55.665 5.912773
55.670 5.744298
55.675 5.700924
55.680 5.741838
55.685 5.378684
55.690 5.260861
55.695 5.279334
55.700 5.260182
55.705 5.180897
55.710 5.112537
55.715 5.161312
55.720 5.490022
55.725 5.692365
55.730 5.797569
55.735 5.469787
55.740 5.708665
55.745 6.020191
55.750 6.012486
55.755 5.862195
55.760 5.467974
55.765 5.019512
55.770 4.821589
55.775 4.972168
55.780 4.764186
55.785 4.820824
55.790 5.171857
55.795 5.360899
55.800 5.54836
55.805 5.78783
55.810 5.628021
55.815 5.831827
55.820 5.932029
55.825 5.625408
55.830 5.824579
55.835 5.942979
55.840 6.043484
55.845 5.78255
55.850 5.592386
55.855 5.638273
55.860 6.115928
55.865 6.341587
55.870 6.716767
55.875 6.735663
55.880 7.14133
55.885 7.05591
55.890 6.779829
55.895 6.433094
55.900 6.299819
55.905 6.245321
55.910 6.384027
55.915 6.607343
55.920 7.057306
55.925 7.236998
55.930 7.335723
55.935 7.156456
55.940 6.885443
55.945 6.547276
55.950 6.265933
55.955 6.117392
55.960 6.010499
55.965 5.886772
55.970 6.04819
55.975 6.040144
55.980 6.290425
55.985 6.376534
55.990 6.291357
55.995 6.58934
56.000 6.616904
56.005 6.468731
56.010 6.599176
56.015 6.33084
56.020 6.258774
56.025 5.969235
56.030 5.792524
56.035 5.771885
56.040 5.958773
56.045 5.803977
56.050 5.747495
56.055 5.592826
56.060 5.607845
56.065 5.747292
56.070 5.740343
56.075 5.603933
56.080 5.436316
56.085 5.513557
56.090 5.794441
56.095 5.604402
56.100 5.301164
56.105 5.543906
56.110 5.485374
56.115 5.610256
56.120 5.802893
56.125 5.858179
56.130 6.168915
56.135 6.430407
56.140 6.56944
56.145 6.465607
56.150 6.761258
56.155 6.787956
56.160 6.936573
56.165 7.028327
56.170 7.109418
56.175 6.922999
56.180 6.716035
56.185 6.447495
56.190 6.254299
56.195 5.944128
56.200 5.832424
56.205 5.459971
56.210 5.571371
56.215 5.717544
56.220 5.714908
56.225 5.735967
56.230 5.780253
56.235 5.716403
56.240 5.805304
56.245 6.163923
56.250 6.881927
56.255 7.297166
56.260 7.278046
56.265 7.224597
56.270 7.103716
56.275 7.162491
56.280 6.452895
56.285 5.72322
56.290 5.137383
56.295 5.459446
56.300 5.716573
56.305 5.745981
56.310 5.694207
56.315 6.013553
56.320 6.254721
56.325 6.568243
56.330 6.477287
56.335 6.304616
56.340 6.253842
56.345 6.313077
56.350 6.427591
56.355 6.313181
56.360 6.321678
56.365 6.27696
56.370 6.183478
56.375 6.047955
56.380 6.166087
56.385 6.562359
56.390 7.278296
56.395 7.744383
56.400 8.01965
56.405 8.178993
56.410 8.350282
56.415 7.968491
56.420 7.543303
56.425 6.791372
56.430 6.278965
56.435 5.936212
56.440 5.915879
56.445 5.992918
56.450 6.025086
56.455 5.839096
56.460 5.846809
56.465 6.006237
56.470 6.294491
56.475 6.273336
56.480 6.443266
56.485 6.683564
56.490 6.822811
56.495 6.62855
56.500 6.381341
56.505 6.473882
56.510 6.377419
56.515 6.021224
56.520 5.888902
56.525 5.768051
56.530 5.857821
56.535 6.079159
56.540 6.388124
56.545 6.66492
56.550 6.426562
56.555 6.030182
56.560 6.101636
56.565 6.098422
56.570 5.635282
56.575 5.132569
56.580 5.165655
56.585 5.278789
56.590 5.484921
56.595 5.847057
56.600 6.348186
56.605 6.607584
56.610 6.689082
56.615 6.730769
56.620 7.009437
56.625 7.004599
56.630 6.649456
56.635 6.154544
56.640 5.965796
56.645 5.810774
56.650 5.700013
56.655 5.627532
56.660 5.568688
56.665 5.731892
56.670 6.15503
56.675 6.734513
56.680 7.063247
56.685 7.004715
56.690 7.034291
56.695 7.624003
56.700 7.672485
56.705 7.436555
56.710 7.296746
56.715 7.011855
56.720 6.962092
56.725 7.157755
56.730 7.033528
56.735 6.664577
56.740 6.476104
56.745 6.190453
56.750 6.634196
56.755 6.819817
56.760 6.522355
56.765 6.844001
56.770 7.205376
56.775 7.312452
56.780 7.483164
56.785 7.428825
56.790 7.401081
56.795 7.287454
56.800 7.000223
56.805 6.97347
56.810 6.778771
56.815 6.804361
56.820 6.701025
56.825 6.800656
56.830 6.89345
56.835 6.873302
56.840 6.689139
56.845 6.778269
56.850 6.590168
56.855 6.420111
56.860 6.232212
56.865 5.971224
56.870 6.025227
56.875 6.315401
56.880 6.183558
56.885 6.31208
56.890 6.518325
56.895 6.497233
56.900 6.717288
56.905 6.730497
56.910 6.540211
56.915 6.668566
56.920 6.358237
56.925 6.279827
56.930 6.47778
56.935 6.243219
56.940 6.187487
56.945 6.314217
56.950 6.29684
56.955 6.371505
56.960 6.361348
56.965 6.530159
56.970 6.141676
56.975 6.067534
56.980 6.257705
56.985 6.638197
56.990 7.01345
56.995 7.028142
57.000 6.876568
57.005 6.828911
57.010 6.774029
57.015 6.582783
57.020 6.601159
57.025 6.391428
57.030 6.296329
57.035 6.177504
57.040 6.227858
57.045 6.225363
57.050 6.028239
57.055 5.762315
57.060 5.646172
57.065 5.996661
57.070 6.541221
57.075 7.104191
57.080 7.095507
57.085 7.324967
57.090 7.410768
57.095 7.241641
57.100 6.692982
57.105 6.400948
57.110 6.557539
57.115 6.663916
57.120 6.355177
57.125 6.086431
57.130 6.176022
57.135 6.409369
57.140 6.407376
57.145 6.268822
57.150 6.632025
57.155 6.732952
57.160 7.192737
57.165 7.535733
57.170 7.703374
57.175 7.379613
57.180 7.176088
57.185 7.41502
57.190 7.459422
57.195 7.342376
57.200 7.008819
57.205 6.664867
57.210 6.655644
57.215 6.567689
57.220 6.012005
57.225 5.871963
57.230 5.773916
57.235 6.067998
57.240 6.323207
57.245 6.36753
57.250 6.382711
57.255 6.45233
57.260 6.55034
57.265 6.457562
57.270 6.39575
57.275 6.434472
57.280 6.651104
57.285 6.731668
57.290 6.717207
57.295 6.930327
57.300 6.828969
57.305 6.623291
57.310 6.635678
57.315 6.521652
57.320 6.721161
57.325 6.705275
57.330 6.611084
57.335 6.800937
57.340 7.017512
57.345 6.915445
57.350 6.604595
57.355 6.525499
57.360 6.642615
57.365 6.722343
57.370 7.001884
57.375 6.925584
57.380 6.983052
57.385 7.085332
57.390 7.324113
57.395 7.28448
57.400 7.410447
57.405 7.342364
57.410 7.578767
57.415 7.571669
57.420 7.518334
57.425 7.29672
57.430 7.138986
57.435 6.849971
57.440 6.76592
57.445 6.371293
57.450 6.365883
57.455 6.535628
57.460 6.839427
57.465 7.179528
57.470 7.222399
57.475 6.929945
57.480 7.063056
57.485 7.177387
57.490 7.344596
57.495 7.090885
57.500 6.916669
57.505 6.868943
57.510 7.404309
57.515 7.232069
57.520 6.915471
57.525 6.401179
57.530 6.216998
57.535 6.269751
57.540 6.445128
57.545 6.214693
57.550 6.42135
57.555 7.147686
57.560 7.557642
57.565 7.779961
57.570 7.700778
57.575 7.524569
57.580 7.590988
57.585 7.857
57.590 7.394588
57.595 6.896568
57.600 6.396972
57.605 6.648322
57.610 6.636234
57.615 6.640726
57.620 6.509603
57.625 6.282043
57.630 6.798182
57.635 7.115219
57.640 6.844104
57.645 6.830729
57.650 7.094022
57.655 7.45425
57.660 7.347401
57.665 7.031085
57.670 6.989925
57.675 7.1476
57.680 7.204257
57.685 7.193804
57.690 6.845745
57.695 7.483982
57.700 7.861172
57.705 7.80201
57.710 7.426667
57.715 7.319575
57.720 7.026395
57.725 6.865684
57.730 6.77151
57.735 6.554198
57.740 6.765806
57.745 7.102929
57.750 6.949244
57.755 6.852422
57.760 6.868559
57.765 6.356238
57.770 6.441237
57.775 6.746954
57.780 6.851153
57.785 7.066648
57.790 7.456322
57.795 7.632298
57.800 7.960948
57.805 8.181805
57.810 8.058192
57.815 7.780007
57.820 7.676836
57.825 7.393058
57.830 7.285506
57.835 7.469527
57.840 7.324178
57.845 7.140509
57.850 7.291074
57.855 7.438674
57.860 7.741211
57.865 7.88484
57.870 7.862231
57.875 7.85445
57.880 7.737853
57.885 7.852782
57.890 7.915176
57.895 7.804892
57.900 7.87429
57.905 7.728634
57.910 7.675434
57.915 8.128123
57.920 8.097088
57.925 7.925641
57.930 7.867463
57.935 7.933049
57.940 8.017237
57.945 8.024755
57.950 8.090269
57.955 8.194963
57.960 8.261168
57.965 8.30152
57.970 8.201585
57.975 8.167356
57.980 8.176829
57.985 8.166989
57.990 8.089291
57.995 8.342104
58.000 8.415189
58.005 8.893856
58.010 9.070234
58.015 9.005853
58.020 8.987866
58.025 8.814767
58.030 8.567218
58.035 8.715673
58.040 8.382624
58.045 8.718271
58.050 8.486681
58.055 8.367251
58.060 8.639488
58.065 8.606785
58.070 8.428763
58.075 8.322792
58.080 8.030663
58.085 8.142546
58.090 8.131968
58.095 8.218368
58.100 8.410509
58.105 8.507659
58.110 8.530186
58.115 8.337831
58.120 8.301449
58.125 8.125334
58.130 7.624787
58.135 7.454461
58.140 7.377075
58.145 7.389814
58.150 7.320119
58.155 7.702364
58.160 8.206422
58.165 8.609146
58.170 9.005596
58.175 8.883287
58.180 8.564413
58.185 8.822565
58.190 8.447556
58.195 7.963158
58.200 7.623495
58.205 7.468857
58.210 7.774621
58.215 7.968857
58.220 7.799293
58.225 7.567871
58.230 7.570805
58.235 7.721662
58.240 7.367475
58.245 7.073267
58.250 7.198219
58.255 7.472934
58.260 7.809467
58.265 7.501918
58.270 7.284072
58.275 7.011736
58.280 7.682137
58.285 7.989062
58.290 7.930162
58.295 8.362647
58.300 8.578812
58.305 9.222142
58.310 9.572659
58.315 8.671917
58.320 8.05314
58.325 7.887314
58.330 7.611995
58.335 7.896297
58.340 7.745883
58.345 7.861855
58.350 8.152872
58.355 8.236556
58.360 8.088598
58.365 7.798796
58.370 7.840494
58.375 7.88273
58.380 8.02891
58.385 7.970675
58.390 8.198154
58.395 8.785347
58.400 9.231832
58.405 9.316012
58.410 9.449797
58.415 9.49621
58.420 9.642994
58.425 9.893511
58.430 9.817533
58.435 9.918214
58.440 9.663156
58.445 9.535129
58.450 9.210577
58.455 9.296219
58.460 9.04103
58.465 8.838534
58.470 8.935746
58.475 8.925159
58.480 9.131216
58.485 9.93427
58.490 10.936976
58.495 11.758657
58.500 11.94324
58.505 12.23891
58.510 13.036141
58.515 13.304394
58.520 12.814228
58.525 12.204391
58.530 12.091249
58.535 12.082811
58.540 11.441112
58.545 10.909389
58.550 10.882052
58.555 11.389865
58.560 11.604121
58.565 11.449665
58.570 11.781309
58.575 12.436427
58.580 13.027352
58.585 12.932637
58.590 12.862044
58.595 12.825015
58.600 12.888553
58.605 12.715733
58.610 12.67256
58.615 12.60033
58.620 12.980324
58.625 13.089974
58.630 13.883924
58.635 14.322691
58.640 15.059736
58.645 14.862556
58.650 14.81131
58.655 14.831695
58.660 14.746797
58.665 14.807008
58.670 14.580781
58.675 14.308854
58.680 14.632223
58.685 14.833611
58.690 14.665914
58.695 15.187527
58.700 14.551799
58.705 14.524327
58.710 14.244071
58.715 13.6277
58.720 13.952263
58.725 14.145236
58.730 13.687613
58.735 13.557478
58.740 14.530448
