!@!!GADDS PLOTSO FILE: Chi integration type
!@!!Title/SampleName: map-144
!@!!Comment: ?
!@!!User: Bruker Instrument Administrator
!@!!Site: University of Illinois Chicago
!@!!Frame: map-144_01_000.gfrm
!@!!Wavelengths    1.54184   1.54056   1.54439
!@!!Frame angles: 2Theta: 63.000 Omega: 50.000 Phi: 0.000 Chi: 90.000
!@!!Integration range: 2Theta: 53.000 to 73.000  Gamma: -105.000 to -75.000
!@!!Integration method: bin normalized
!@!N
!@!SS
!@!M
!@!L 0.0 0.0 0.0 0.0
!@!XDegrees
!@!YCounts
53.000 9.160322
53.005 9.108499
53.010 9.037409
53.015 8.761261
53.020 8.707969
53.025 8.749476
53.030 9.256796
53.035 9.758123
53.040 9.697095
53.045 9.891294
53.050 10.235934
53.055 10.533326
53.060 10.515956
53.065 9.784086
53.070 9.270657
53.075 9.310061
53.080 9.283234
53.085 9.012733
53.090 8.865121
53.095 9.019563
53.100 9.302861
53.105 9.576365
53.110 9.765432
53.115 9.643918
53.120 9.663821
53.125 9.425697
53.130 9.434878
53.135 9.141991
53.140 8.992333
53.145 8.980383
53.150 9.208313
53.155 9.162474
53.160 8.784307
53.165 9.129846
53.170 9.244856
53.175 9.209513
53.180 9.246707
53.185 9.239017
53.190 9.12091
53.195 9.212568
53.200 9.165874
53.205 9.342684
53.210 9.4245
53.215 8.952416
53.220 9.148529
53.225 8.972715
53.230 9.231957
53.235 8.999849
53.240 8.890204
53.245 9.118304
53.250 9.214493
53.255 9.65801
53.260 10.290986
53.265 10.450275
53.270 10.780846
53.275 10.997829
53.280 10.982574
53.285 10.432563
53.290 9.738742
53.295 9.058447
53.300 8.840408
53.305 8.866296
53.310 8.810552
53.315 8.75995
53.320 9.249669
53.325 9.616589
53.330 10.253564
53.335 10.563246
53.340 10.417914
53.345 10.282019
53.350 10.530454
53.355 10.641685
53.360 10.168202
53.365 9.655164
53.370 9.598281
53.375 9.321078
53.380 9.14735
53.385 8.953361
53.390 9.330045
53.395 9.854869
53.400 9.787064
53.405 9.813988
53.410 10.112573
53.415 10.078224
53.420 10.185561
53.425 9.883681
53.430 10.014647
53.435 10.039948
53.440 9.753989
53.445 9.779438
53.450 9.974498
53.455 9.475098
53.460 9.480475
53.465 9.180448
53.470 9.441963
53.475 9.770549
53.480 9.670444
53.485 9.693194
53.490 9.281063
53.495 9.169943
53.500 9.152551
53.505 8.485421
53.510 8.341537
53.515 8.481819
53.520 9.092643
53.525 9.120396
53.530 9.02435
53.535 9.313797
53.540 9.619979
53.545 9.617591
53.550 9.309321
53.555 8.914407
53.560 9.83766
53.565 10.265725
53.570 10.216913
53.575 10.435345
53.580 10.374248
53.585 10.654431
53.590 10.755419
53.595 9.879437
53.600 9.308781
53.605 8.996921
53.610 8.951745
53.615 8.806696
53.620 9.019507
53.625 8.971815
53.630 9.068671
53.635 9.543798
53.640 9.500898
53.645 9.489717
53.650 9.678922
53.655 9.280374
53.660 9.586229
53.665 9.572731
53.670 9.55223
53.675 9.700885
53.680 9.821445
53.685 10.128855
53.690 10.377627
53.695 10.488136
53.700 10.509121
53.705 10.723681
53.710 10.924009
53.715 11.014766
53.720 11.14694
53.725 10.978793
53.730 10.815101
53.735 10.891685
53.740 10.766404
53.745 10.694748
53.750 10.518167
53.755 10.19232
53.760 10.357396
53.765 10.830067
53.770 11.016076
53.775 11.162492
53.780 10.87007
53.785 10.605135
53.790 10.907805
53.795 10.851176
53.800 10.553767
53.805 10.351818
53.810 10.378751
53.815 10.517629
53.820 10.464047
53.825 10.306659
53.830 10.358917
53.835 10.42907
53.840 10.066999
53.845 10.0865
53.850 10.119049
53.855 10.242948
53.860 10.257231
53.865 10.369045
53.870 10.246172
53.875 9.848047
53.880 9.603097
53.885 9.318048
53.890 9.22705
53.895 9.034657
53.900 8.936907
53.905 9.22926
53.910 9.649285
53.915 9.727038
53.920 9.786708
53.925 9.701138
53.930 10.040339
53.935 9.775523
53.940 9.707343
53.945 9.946209
53.950 10.230948
53.955 10.446723
53.960 10.41283
53.965 9.917053
53.970 9.990552
53.975 10.229366
53.980 9.621537
53.985 9.574932
53.990 9.547911
53.995 9.791238
54.000 10.191409
54.005 10.167012
54.010 10.017253
54.015 10.286053
54.020 10.344466
54.025 10.253619
54.030 10.081208
54.035 9.993595
54.040 9.873329
54.045 10.018522
54.050 9.867503
54.055 9.376087
54.060 9.189239
54.065 8.883668
54.070 9.109936
54.075 8.985811
54.080 9.434609
54.085 9.888872
54.090 10.250553
54.095 10.468228
54.100 10.522546
54.105 10.425963
54.110 10.292368
54.115 9.47707
54.120 9.510951
54.125 9.623885
54.130 9.987061
54.135 10.170475
54.140 10.289036
54.145 10.250341
54.150 10.130114
54.155 9.821494
54.160 9.995041
54.165 10.353004
54.170 10.521749
54.175 10.353653
54.180 10.133258
54.185 10.169349
54.190 10.23743
54.195 9.956279
54.200 9.587426
54.205 9.62322
54.210 9.767584
54.215 10.282197
54.220 10.32151
54.225 10.392085
54.230 10.608427
54.235 10.873966
54.240 11.239413
54.245 11.15436
54.250 11.046576
54.255 11.316752
54.260 10.854155
54.265 10.557305
54.270 10.077791
54.275 10.359398
54.280 10.62647
54.285 10.908
54.290 10.936035
54.295 11.210032
54.300 11.132388
54.305 11.141246
54.310 10.840917
54.315 11.06468
54.320 11.106353
54.325 10.856668
54.330 10.563464
54.335 10.89541
54.340 10.773061
54.345 10.717658
54.350 10.521429
54.355 10.156842
54.360 10.330861
54.365 10.279246
54.370 10.241681
54.375 10.496049
54.380 10.668907
54.385 10.607198
54.390 10.86035
54.395 10.955677
54.400 10.878599
54.405 10.82882
54.410 10.753453
54.415 10.713021
54.420 10.6648
54.425 10.87311
54.430 10.956615
54.435 10.869158
54.440 10.577847
54.445 10.46304
54.450 10.246844
54.455 10.304949
54.460 10.360427
54.465 10.334441
54.470 9.900703
54.475 9.713049
54.480 9.664615
54.485 10.522099
54.490 10.45101
54.495 10.187358
54.500 10.230541
54.505 10.727365
54.510 10.834331
54.515 10.756664
54.520 9.987267
54.525 10.245194
54.530 10.494543
54.535 10.88714
54.540 11.392559
54.545 12.095694
54.550 12.651183
54.555 12.899274
54.560 12.979553
54.565 12.695471
54.570 12.456547
54.575 11.570674
54.580 10.658104
54.585 10.417528
54.590 10.035176
54.595 9.604587
54.600 9.717232
54.605 9.941138
54.610 10.612408
54.615 10.957289
54.620 10.987796
54.625 11.053734
54.630 11.105543
54.635 10.893497
54.640 10.61681
54.645 10.534414
54.650 10.443289
54.655 10.494019
54.660 10.618564
54.665 10.881715
54.670 11.139403
54.675 11.758757
54.680 12.092223
54.685 12.30735
54.690 12.369946
54.695 12.257779
54.700 11.671721
54.705 11.397636
54.710 11.00659
54.715 10.778037
54.720 10.395107
54.725 10.666328
54.730 11.087081
54.735 11.177612
54.740 11.409643
54.745 11.17096
54.750 11.387361
54.755 11.737326
54.760 11.363188
54.765 11.307108
54.770 11.340254
54.775 11.013551
54.780 10.969986
54.785 10.723845
54.790 10.566007
54.795 10.793199
54.800 10.768726
54.805 10.713604
54.810 10.845704
54.815 10.61677
54.820 10.807274
54.825 11.054138
54.830 10.694226
54.835 11.335309
54.840 11.398457
54.845 11.250835
54.850 11.693115
54.855 11.048724
54.860 11.282659
54.865 11.34584
54.870 11.31161
54.875 12.204494
54.880 13.094709
54.885 13.275792
54.890 13.493192
54.895 13.246582
54.900 12.968068
54.905 12.615199
54.910 12.001885
54.915 11.972437
54.920 12.038549
54.925 11.961557
54.930 11.814972
54.935 11.72485
54.940 11.339351
54.945 11.507186
54.950 11.653139
54.955 11.757006
54.960 11.715307
54.965 12.423602
54.970 12.886225
54.975 13.323925
54.980 13.128629
54.985 12.805962
54.990 12.671905
54.995 12.394693
55.000 12.23597
55.005 12.535444
55.010 12.892917
55.015 12.396888
55.020 12.377056
55.025 12.838716
55.030 12.927162
55.035 12.26384
55.040 11.695142
55.045 11.190166
55.050 11.213034
55.055 11.142214
55.060 10.797151
55.065 10.740875
55.070 11.049183
55.075 10.91715
55.080 11.550387
55.085 12.361205
55.090 12.339787
55.095 12.401514
55.100 12.701163
55.105 13.119522
55.110 13.103106
55.115 12.199815
55.120 11.67315
55.125 11.936171
55.130 11.797365
55.135 11.741619
55.140 11.549664
55.145 11.875096
55.150 12.577997
55.155 12.494649
55.160 12.090915
55.165 11.955608
55.170 11.980323
55.175 11.632445
55.180 11.416228
55.185 10.752934
55.190 10.598729
55.195 11.380944
55.200 11.853809
55.205 12.04353
55.210 12.447211
55.215 12.508042
55.220 13.321578
55.225 13.291392
55.230 12.624446
55.235 12.267097
55.240 12.258771
55.245 12.255502
55.250 12.089792
55.255 11.638437
55.260 11.969944
55.265 11.997128
55.270 11.717428
55.275 11.357322
55.280 11.220607
55.285 11.231711
55.290 11.257964
55.295 10.916547
55.300 10.76388
55.305 11.030391
55.310 10.961624
55.315 10.632416
55.320 10.654966
55.325 10.687066
55.330 10.78106
55.335 10.647869
55.340 10.188305
55.345 10.330148
55.350 10.670448
55.355 10.970885
55.360 11.345272
55.365 11.450104
55.370 11.786744
55.375 12.203405
55.380 11.996296
55.385 11.601723
55.390 11.268243
55.395 11.889598
55.400 12.006525
55.405 12.055187
55.410 12.184883
55.415 12.432161
55.420 12.448404
55.425 12.431786
55.430 12.236093
55.435 12.463875
55.440 12.667626
55.445 12.37849
55.450 12.394205
55.455 12.534136
55.460 12.554386
55.465 12.580717
55.470 12.515139
55.475 12.718348
55.480 13.021333
55.485 12.621558
55.490 12.558038
55.495 12.304838
55.500 12.120801
55.505 12.289782
55.510 12.326111
55.515 12.767372
55.520 13.318181
55.525 13.509794
55.530 13.525929
55.535 13.405931
55.540 13.075192
55.545 12.589911
55.550 12.127158
55.555 11.923121
55.560 12.040149
55.565 12.386248
55.570 12.254566
55.575 12.417212
55.580 12.774741
55.585 12.735082
55.590 13.046503
55.595 12.777891
55.600 12.563259
55.605 12.108357
55.610 11.790603
55.615 11.490057
55.620 11.496269
55.625 11.287238
55.630 11.239904
55.635 11.421421
55.640 11.599174
55.645 11.882337
55.650 12.384817
55.655 12.684696
55.660 12.573679
55.665 12.75096
55.670 13.102367
55.675 13.032349
55.680 12.484343
55.685 11.895778
55.690 11.821642
55.695 12.183354
55.700 11.620902
55.705 11.631122
55.710 12.116183
55.715 12.69136
55.720 13.336184
55.725 13.384901
55.730 13.469457
55.735 13.502663
55.740 13.261172
55.745 13.112506
55.750 12.883407
55.755 12.172512
55.760 12.128405
55.765 11.967362
55.770 11.800549
55.775 11.875097
55.780 11.547138
55.785 11.334653
55.790 11.965229
55.795 12.201404
55.800 12.49676
55.805 12.337548
55.810 12.163839
55.815 12.904405
55.820 13.380803
55.825 13.341948
55.830 13.1143
55.835 13.432194
55.840 13.615409
55.845 13.837773
55.850 13.500731
55.855 13.248013
55.860 12.64345
55.865 12.497266
55.870 11.800318
55.875 11.654354
55.880 11.564632
55.885 11.560728
55.890 11.815691
55.895 12.555132
55.900 12.799863
55.905 13.214654
55.910 13.65018
55.915 13.587148
55.920 13.785951
55.925 13.365681
55.930 12.528464
55.935 12.292834
55.940 12.133106
55.945 12.773565
55.950 12.776929
55.955 12.597042
55.960 12.81974
55.965 13.601072
55.970 14.208394
55.975 14.358407
55.980 13.823618
55.985 14.235476
55.990 14.537887
55.995 14.290723
56.000 14.174075
56.005 14.088381
56.010 13.86043
56.015 13.438859
56.020 12.996943
56.025 12.704983
56.030 12.760324
56.035 12.473073
56.040 12.053621
56.045 12.266738
56.050 12.731262
56.055 13.191265
56.060 13.16484
56.065 12.996178
56.070 13.247385
56.075 13.788734
56.080 13.55797
56.085 13.340201
56.090 13.000042
56.095 12.939766
56.100 12.574009
56.105 12.769174
56.110 13.023656
56.115 12.869819
56.120 12.497396
56.125 12.577858
56.130 13.182194
56.135 13.795795
56.140 13.671038
56.145 13.189929
56.150 13.596557
56.155 13.790857
56.160 13.97418
56.165 13.655254
56.170 13.168823
56.175 12.782428
56.180 12.582276
56.185 12.595059
56.190 12.478129
56.195 12.067095
56.200 12.281055
56.205 12.380708
56.210 12.465299
56.215 12.607208
56.220 12.545308
56.225 13.038486
56.230 13.606646
56.235 13.482993
56.240 13.66871
56.245 14.189253
56.250 14.644392
56.255 14.593327
56.260 14.251219
56.265 13.866448
56.270 13.725114
56.275 13.434418
56.280 12.75809
56.285 12.301775
56.290 12.331639
56.295 12.655579
56.300 12.570956
56.305 12.101511
56.310 11.911044
56.315 12.245166
56.320 12.698476
56.325 12.461143
56.330 12.122396
56.335 12.336658
56.340 12.79083
56.345 12.936117
56.350 12.786131
56.355 12.324935
56.360 12.736458
56.365 12.910821
56.370 13.024603
56.375 13.339577
56.380 13.708506
56.385 13.754465
56.390 13.505218
56.395 13.314656
56.400 13.732893
56.405 14.016273
56.410 13.771709
56.415 13.5669
56.420 13.765734
56.425 14.212528
56.430 14.540124
56.435 14.476038
56.440 14.490778
56.445 14.60909
56.450 14.979532
56.455 14.941146
56.460 15.155606
56.465 14.977903
56.470 14.818769
56.475 14.565279
56.480 14.756578
56.485 14.049977
56.490 14.569077
56.495 13.788995
56.500 13.64282
56.505 14.075182
56.510 13.88487
56.515 14.123229
56.520 14.586723
56.525 14.351963
56.530 14.24831
56.535 14.30909
56.540 14.223134
56.545 14.226722
56.550 13.599788
56.555 13.101197
56.560 12.844325
56.565 13.417016
56.570 13.176744
56.575 13.229951
56.580 13.160047
56.585 13.278858
56.590 13.176683
56.595 12.935037
56.600 13.528021
56.605 13.624413
56.610 13.84766
56.615 13.870273
56.620 13.771705
56.625 13.827153
56.630 13.894525
56.635 12.978981
56.640 12.727737
56.645 12.372927
56.650 12.281023
56.655 12.418115
56.660 12.727389
56.665 12.56415
56.670 12.53826
56.675 13.215707
56.680 13.692842
56.685 14.179053
56.690 14.487685
56.695 14.68719
56.700 14.630755
56.705 13.925813
56.710 12.868395
56.715 12.648784
56.720 12.672742
56.725 12.272593
56.730 12.326818
56.735 12.78314
56.740 13.296519
56.745 13.628887
56.750 13.751608
56.755 13.578046
56.760 13.671385
56.765 13.476198
56.770 13.221586
56.775 13.241715
56.780 12.637271
56.785 12.591996
56.790 13.055628
56.795 13.502521
56.800 14.172654
56.805 14.519645
56.810 14.318825
56.815 14.458768
56.820 14.83575
56.825 14.237753
56.830 14.015181
56.835 13.577306
56.840 13.734486
56.845 14.580582
56.850 14.90592
56.855 14.467505
56.860 14.598599
56.865 14.640059
56.870 14.269173
56.875 13.819848
56.880 13.214523
56.885 12.972776
56.890 13.003452
56.895 13.154162
56.900 13.859097
56.905 14.312103
56.910 14.726412
56.915 15.143477
56.920 15.568765
56.925 15.809052
56.930 15.464103
56.935 14.626554
56.940 14.172463
56.945 13.694925
56.950 13.092495
56.955 12.793
56.960 12.312803
56.965 12.475904
56.970 12.346046
56.975 13.425985
56.980 13.99209
56.985 14.650793
56.990 15.024065
56.995 15.718651
57.000 15.470602
57.005 15.539254
57.010 14.405437
57.015 13.798592
57.020 13.454841
57.025 13.070575
57.030 12.413179
57.035 12.954179
57.040 13.40822
57.045 13.588325
57.050 13.708529
57.055 13.710535
57.060 13.891205
57.065 14.14852
57.070 14.056902
57.075 14.616754
57.080 14.9138
57.085 15.390977
57.090 15.293864
57.095 15.212082
57.100 15.495749
57.105 15.457676
57.110 14.981673
57.115 15.232423
57.120 14.560334
57.125 14.823975
57.130 14.655629
57.135 14.472452
57.140 14.274925
57.145 14.71933
57.150 14.526838
57.155 14.39792
57.160 13.974617
57.165 14.184945
57.170 14.100615
57.175 13.83623
57.180 13.682484
57.185 14.151314
57.190 14.69526
57.195 14.842478
57.200 14.976066
57.205 15.40569
57.210 15.977549
57.215 15.313764
57.220 14.755593
57.225 14.685931
57.230 14.458694
57.235 14.045996
57.240 13.804979
57.245 13.455937
57.250 13.532429
57.255 13.706258
57.260 13.894047
57.265 14.483117
57.270 14.469726
57.275 14.219343
57.280 14.257769
57.285 14.323967
57.290 14.417802
57.295 14.162104
57.300 13.930467
57.305 13.88671
57.310 13.855041
57.315 13.931302
57.320 14.006286
57.325 14.149274
57.330 14.2101
57.335 13.889045
57.340 14.153929
57.345 14.645136
57.350 14.174286
57.355 13.790484
57.360 13.492958
57.365 14.084547
57.370 14.61197
57.375 14.751133
57.380 14.993043
57.385 15.887829
57.390 16.516626
57.395 16.351685
57.400 16.175207
57.405 15.513021
57.410 14.84892
57.415 14.051083
57.420 13.766963
57.425 13.56141
57.430 13.804847
57.435 14.267167
57.440 15.150619
57.445 15.957008
57.450 15.963916
57.455 15.704045
57.460 15.706359
57.465 15.243537
57.470 14.331962
57.475 13.93433
57.480 13.392794
57.485 14.149551
57.490 14.247624
57.495 13.939051
57.500 14.018272
57.505 14.142821
57.510 13.994245
57.515 13.960051
57.520 13.703423
57.525 14.125866
57.530 14.715579
57.535 15.066055
57.540 14.945827
57.545 15.034011
57.550 14.651894
57.555 14.239467
57.560 13.638022
57.565 13.098516
57.570 13.261444
57.575 13.81927
57.580 14.273316
57.585 14.800161
57.590 14.869492
57.595 15.318607
57.600 15.655946
57.605 15.290469
57.610 15.220354
57.615 14.946156
57.620 14.78681
57.625 15.001659
57.630 15.072811
57.635 14.917327
57.640 15.060785
57.645 14.846346
57.650 14.883511
57.655 14.768025
57.660 14.265047
57.665 14.154747
57.670 14.389164
57.675 14.581429
57.680 15.003845
57.685 15.485681
57.690 15.621293
57.695 15.900311
57.700 16.011137
57.705 16.029587
57.710 15.946991
57.715 15.494214
57.720 15.331984
57.725 15.668838
57.730 15.913178
57.735 16.361973
57.740 16.400276
57.745 16.45216
57.750 16.688934
57.755 16.744066
57.760 16.569803
57.765 16.06319
57.770 15.257371
57.775 14.961662
57.780 15.30806
57.785 14.846816
57.790 14.670501
57.795 14.751412
57.800 14.848691
57.805 14.953318
57.810 15.075126
57.815 14.967758
57.820 14.81497
57.825 14.879835
57.830 14.440348
57.835 14.022806
57.840 13.859152
57.845 13.548873
57.850 13.383543
57.855 13.417199
57.860 13.337169
57.865 13.277092
57.870 13.934966
57.875 14.539077
57.880 14.528217
57.885 14.595873
57.890 15.363404
57.895 15.767029
57.900 15.890038
57.905 15.521166
57.910 15.372705
57.915 15.121052
57.920 15.257565
57.925 14.900259
57.930 14.839497
57.935 14.771571
57.940 15.054907
57.945 15.333987
57.950 15.933949
57.955 16.238415
57.960 16.150848
57.965 15.842109
57.970 15.952927
57.975 15.897738
57.980 15.463153
57.985 14.755384
57.990 14.136744
57.995 13.917686
58.000 13.854861
58.005 14.010346
58.010 13.950225
58.015 13.801213
58.020 14.162179
58.025 14.066091
58.030 14.457661
58.035 15.01571
58.040 15.54778
58.045 15.930155
58.050 16.028051
58.055 15.695897
58.060 15.672416
58.065 15.453426
58.070 15.510987
58.075 15.00639
58.080 14.984411
58.085 15.412233
58.090 15.798899
58.095 15.843659
58.100 16.012531
58.105 15.488266
58.110 15.293343
58.115 14.699273
58.120 14.395198
58.125 14.343322
58.130 14.191288
58.135 14.172147
58.140 14.729933
58.145 15.359026
58.150 15.993636
58.155 16.448015
58.160 16.629597
58.165 16.951199
58.170 16.698877
58.175 16.344324
58.180 15.593375
58.185 14.923467
58.190 14.805682
58.195 14.699512
58.200 14.966025
58.205 15.221496
58.210 15.104122
58.215 15.419561
58.220 15.671178
58.225 15.397602
58.230 15.264454
58.235 14.587525
58.240 14.381034
58.245 14.034052
58.250 13.773888
58.255 14.078171
58.260 14.207114
58.265 14.80628
58.270 16.086603
58.275 16.692101
58.280 17.353275
58.285 17.610704
58.290 17.311747
58.295 17.011446
58.300 16.709139
58.305 15.714814
58.310 15.171384
58.315 15.231903
58.320 15.791995
58.325 16.48321
58.330 16.663488
58.335 16.688927
58.340 17.054369
58.345 17.199924
58.350 16.534479
58.355 15.507797
58.360 14.612302
58.365 15.077242
58.370 15.058595
58.375 14.980522
58.380 14.863238
58.385 14.951716
58.390 15.188246
58.395 15.448587
58.400 14.976729
58.405 14.91278
58.410 14.569293
58.415 14.489861
58.420 14.619027
58.425 14.632072
58.430 14.906548
58.435 15.38228
58.440 15.809366
58.445 15.97574
58.450 16.253826
58.455 16.458981
58.460 16.6283
58.465 16.081154
58.470 15.639353
58.475 15.50537
58.480 15.578198
58.485 15.356563
