!@!!GADDS PLOTSO FILE: Chi integration type
!@!!Title/SampleName: map-6a
!@!!Comment: ?
!@!!User: Bruker Instrument Administrator
!@!!Site: University of Illinois Chicago
!@!!Frame: map-6a_01_000.gfrm
!@!!Wavelengths    1.54184   1.54056   1.54439
!@!!Frame angles: 2Theta: 63.000 Omega: 50.000 Phi: 0.000 Chi: 90.000
!@!!Integration range: 2Theta: 53.000 to 73.000  Gamma: -105.000 to -75.000
!@!!Integration method: bin normalized
!@!N
!@!SS
!@!M
!@!L 0.0 0.0 0.0 0.0
!@!XDegrees
!@!YCounts
53.000 8.605417
53.005 9.122386
53.010 9.065153
53.015 9.02605
53.020 8.772649
53.025 8.677672
53.030 8.957098
53.035 8.376003
53.040 7.854203
53.045 7.894803
53.050 7.828503
53.055 7.711169
53.060 8.055545
53.065 7.941647
53.070 8.04882
53.075 8.35128
53.080 8.171732
53.085 8.648792
53.090 9.351789
53.095 9.133813
53.100 9.664989
53.105 9.537786
53.110 9.515691
53.115 9.816477
53.120 9.23041
53.125 8.909975
53.130 8.791862
53.135 8.572703
53.140 8.568956
53.145 8.900893
53.150 8.650641
53.155 8.315039
53.160 8.156482
53.165 8.198909
53.170 8.142511
53.175 7.827769
53.180 7.678477
53.185 8.357244
53.190 9.115824
53.195 9.174501
53.200 9.265224
53.205 9.516815
53.210 9.537845
53.215 8.987539
53.220 8.681202
53.225 8.603339
53.230 8.855529
53.235 9.032968
53.240 8.980998
53.245 9.330651
53.250 9.185678
53.255 8.733235
53.260 8.309482
53.265 7.993025
53.270 8.11221
53.275 8.200938
53.280 8.042461
53.285 8.232212
53.290 8.424285
53.295 8.754013
53.300 8.457451
53.305 8.402137
53.310 8.198382
53.315 8.385349
53.320 8.096049
53.325 7.87935
53.330 7.521261
53.335 7.654722
53.340 7.712953
53.345 7.841868
53.350 8.066388
53.355 8.764154
53.360 9.390756
53.365 10.213288
53.370 10.178114
53.375 10.301572
53.380 10.713133
53.385 10.366629
53.390 10.321753
53.395 9.685911
53.400 9.141191
53.405 9.322186
53.410 9.315776
53.415 9.264519
53.420 9.136086
53.425 9.008045
53.430 8.996441
53.435 8.8923
53.440 8.290361
53.445 7.940305
53.450 7.932753
53.455 7.811583
53.460 8.217608
53.465 8.219297
53.470 8.660596
53.475 9.170718
53.480 9.036625
53.485 8.872013
53.490 9.313745
53.495 9.454009
53.500 10.070711
53.505 9.898537
53.510 10.055335
53.515 10.520427
53.520 11.320464
53.525 11.129887
53.530 11.27301
53.535 11.438269
53.540 11.366198
53.545 11.413582
53.550 11.452554
53.555 10.727502
53.560 10.784521
53.565 10.069815
53.570 9.754482
53.575 9.600052
53.580 9.075648
53.585 8.802692
53.590 8.726887
53.595 8.18985
53.600 8.286852
53.605 8.178411
53.610 8.373136
53.615 8.349566
53.620 8.912511
53.625 9.743397
53.630 10.018834
53.635 10.0561
53.640 10.05278
53.645 9.814951
53.650 9.903467
53.655 9.010517
53.660 8.397791
53.665 8.480286
53.670 8.040705
53.675 8.108554
53.680 8.29183
53.685 8.407084
53.690 8.534607
53.695 9.063868
53.700 9.434323
53.705 9.793179
53.710 10.179346
53.715 10.357402
53.720 10.561284
53.725 10.81828
53.730 10.311344
53.735 9.757921
53.740 9.962068
53.745 9.875665
53.750 9.773547
53.755 9.574267
53.760 9.65231
53.765 9.832092
53.770 10.164003
53.775 10.041415
53.780 9.847043
53.785 9.836546
53.790 9.584668
53.795 9.57824
53.800 9.510726
53.805 9.286361
53.810 9.0301
53.815 8.842036
53.820 9.153853
53.825 9.458973
53.830 9.402611
53.835 9.7819
53.840 9.634563
53.845 10.192814
53.850 10.360387
53.855 9.809765
53.860 9.828499
53.865 9.445248
53.870 9.54427
53.875 9.747199
53.880 9.379575
53.885 9.582377
53.890 9.788763
53.895 9.945758
53.900 9.912557
53.905 9.775107
53.910 9.610557
53.915 9.546787
53.920 9.322618
53.925 8.867232
53.930 8.171803
53.935 8.139025
53.940 8.110109
53.945 8.121117
53.950 8.445087
53.955 8.6429
53.960 8.923069
53.965 9.295757
53.970 9.0543
53.975 8.780454
53.980 8.856506
53.985 8.711564
53.990 8.836341
53.995 9.301342
54.000 9.769635
54.005 10.435198
54.010 10.707132
54.015 11.059337
54.020 11.184264
54.025 11.252588
54.030 10.907986
54.035 10.462346
54.040 9.951261
54.045 9.934991
54.050 9.577243
54.055 9.459321
54.060 9.528785
54.065 9.722318
54.070 9.740572
54.075 9.689111
54.080 9.717399
54.085 9.266162
54.090 8.860896
54.095 8.785497
54.100 9.074224
54.105 9.24613
54.110 9.659973
54.115 9.700642
54.120 10.23223
54.125 10.445237
54.130 10.438661
54.135 10.580037
54.140 10.149973
54.145 9.936086
54.150 10.304792
54.155 10.344165
54.160 10.427941
54.165 10.634851
54.170 11.144111
54.175 11.541475
54.180 11.350328
54.185 10.58979
54.190 10.301948
54.195 10.232865
54.200 10.419103
54.205 10.06464
54.210 10.048844
54.215 10.748676
54.220 11.087364
54.225 11.323057
54.230 11.262193
54.235 11.245394
54.240 10.887983
54.245 10.87061
54.250 10.385366
54.255 10.302858
54.260 10.234181
54.265 9.522731
54.270 9.112754
54.275 9.291856
54.280 9.407086
54.285 9.933772
54.290 10.022024
54.295 10.038076
54.300 10.095358
54.305 10.326409
54.310 10.224292
54.315 10.074495
54.320 10.12009
54.325 10.259099
54.330 10.462647
54.335 10.511924
54.340 10.286352
54.345 10.520387
54.350 10.166594
54.355 9.530406
54.360 9.396513
54.365 9.712711
54.370 9.9192
54.375 9.301875
54.380 8.679737
54.385 8.687583
54.390 8.986696
54.395 8.970419
54.400 8.453491
54.405 8.831308
54.410 9.50666
54.415 9.967868
54.420 9.960605
54.425 9.838406
54.430 9.843603
54.435 9.91646
54.440 9.846997
54.445 9.929708
54.450 9.9923
54.455 10.447251
54.460 10.608061
54.465 11.094993
54.470 11.046953
54.475 11.319289
54.480 11.275962
54.485 10.865602
54.490 10.51013
54.495 10.165788
54.500 9.829995
54.505 9.486878
54.510 9.013577
54.515 9.479832
54.520 9.602021
54.525 10.213736
54.530 10.659573
54.535 10.802369
54.540 10.967027
54.545 11.440955
54.550 11.348204
54.555 11.385623
54.560 11.360432
54.565 11.327034
54.570 11.258268
54.575 11.363108
54.580 11.089012
54.585 10.960805
54.590 10.601736
54.595 9.701646
54.600 9.571048
54.605 9.744452
54.610 9.588274
54.615 9.414735
54.620 9.589907
54.625 10.369577
54.630 10.714927
54.635 10.659916
54.640 10.453382
54.645 10.482689
54.650 10.394486
54.655 10.07971
54.660 9.635265
54.665 9.520143
54.670 9.658941
54.675 9.582245
54.680 9.473821
54.685 9.333912
54.690 9.30047
54.695 9.380507
54.700 9.386529
54.705 9.403846
54.710 9.744369
54.715 9.598483
54.720 9.762354
54.725 10.117022
54.730 10.289152
54.735 10.436878
54.740 10.842867
54.745 11.267435
54.750 11.513652
54.755 11.574264
54.760 11.398159
54.765 11.289849
54.770 11.299508
54.775 10.868765
54.780 10.861559
54.785 10.819158
54.790 11.086633
54.795 10.873023
54.800 10.709442
54.805 10.789857
54.810 10.720317
54.815 11.132867
54.820 10.973053
54.825 10.781611
54.830 10.753396
54.835 11.107897
54.840 11.456511
54.845 11.130382
54.850 11.009563
54.855 11.214914
54.860 11.498014
54.865 11.591215
54.870 11.367162
54.875 11.444436
54.880 11.427054
54.885 11.275558
54.890 10.905921
54.895 11.423808
54.900 11.949563
54.905 11.75939
54.910 11.575239
54.915 11.61878
54.920 12.064206
54.925 12.04822
54.930 11.439361
54.935 10.967554
54.940 11.003843
54.945 11.213844
54.950 11.298915
54.955 11.189975
54.960 10.824428
54.965 10.706635
54.970 11.117321
54.975 11.018914
54.980 10.737569
54.985 10.609877
54.990 10.609381
54.995 10.647156
55.000 10.950625
55.005 10.828038
55.010 11.043139
55.015 11.598603
55.020 11.842772
55.025 11.822828
55.030 11.939709
55.035 12.075381
55.040 12.0134
55.045 11.968746
55.050 11.615127
55.055 11.562073
55.060 11.659016
55.065 12.153922
55.070 12.169447
55.075 12.296822
55.080 12.172087
55.085 12.303557
55.090 12.442043
55.095 12.18536
55.100 11.857518
55.105 11.424135
55.110 11.331925
55.115 11.715343
55.120 11.745222
55.125 11.240769
55.130 11.209918
55.135 10.999598
55.140 10.947754
55.145 10.92463
55.150 10.228828
55.155 9.955137
55.160 10.246014
55.165 10.130529
55.170 10.224639
55.175 10.350091
55.180 10.693843
55.185 11.228559
55.190 11.583177
55.195 11.629593
55.200 11.864445
55.205 12.003808
55.210 12.098248
55.215 12.183948
55.220 12.186207
55.225 11.456876
55.230 11.407437
55.235 11.684889
55.240 11.376884
55.245 10.725176
55.250 10.127995
55.255 9.775682
55.260 9.997303
55.265 10.157067
55.270 10.416726
55.275 10.979609
55.280 11.751137
55.285 11.907346
55.290 12.477437
55.295 12.435519
55.300 12.075207
55.305 11.364809
55.310 10.66501
55.315 10.64508
55.320 10.821812
55.325 10.619113
55.330 10.781089
55.335 10.861938
55.340 11.443037
55.345 11.364321
55.350 10.898356
55.355 10.781973
55.360 10.920621
55.365 10.973039
55.370 10.899053
55.375 10.677691
55.380 11.127939
55.385 11.736297
55.390 11.840103
55.395 11.814126
55.400 11.624171
55.405 12.033035
55.410 12.439888
55.415 12.463798
55.420 12.461642
55.425 12.020808
55.430 11.780933
55.435 11.518641
55.440 11.127806
55.445 10.685733
55.450 10.450403
55.455 10.421247
55.460 10.669702
55.465 11.062504
55.470 11.419019
55.475 11.465856
55.480 11.714212
55.485 11.272581
55.490 10.938293
55.495 11.024063
55.500 10.863037
55.505 10.823185
55.510 11.120815
55.515 11.450459
55.520 11.745482
55.525 12.181053
55.530 12.107704
55.535 12.169238
55.540 12.072389
55.545 11.362401
55.550 10.73377
55.555 10.698685
55.560 10.271622
55.565 10.176074
55.570 10.23615
55.575 10.225265
55.580 10.872146
55.585 11.528658
55.590 11.44454
55.595 11.875099
55.600 12.266777
55.605 12.285237
55.610 12.383185
55.615 11.699368
55.620 11.341581
55.625 11.237507
55.630 11.08373
55.635 11.066514
55.640 11.124311
55.645 11.59094
55.650 12.008688
55.655 12.29697
55.660 12.133927
55.665 11.875445
55.670 11.49473
55.675 10.883824
55.680 10.557933
55.685 10.341559
55.690 9.907954
55.695 10.029654
55.700 10.284651
55.705 10.08236
55.710 10.533145
55.715 10.653077
55.720 11.014195
55.725 11.572277
55.730 11.468318
55.735 11.160646
55.740 11.503563
55.745 11.380085
55.750 11.511473
55.755 11.560557
55.760 11.920585
55.765 12.048165
55.770 12.4701
55.775 12.952085
55.780 13.226766
55.785 12.718496
55.790 11.962505
55.795 11.487754
55.800 11.571847
55.805 11.427514
55.810 11.02054
55.815 10.763126
55.820 11.154262
55.825 11.501274
55.830 11.899863
55.835 12.006152
55.840 12.443735
55.845 12.977257
55.850 13.099472
55.855 12.927172
55.860 13.132823
55.865 13.422365
55.870 13.495575
55.875 12.927496
55.880 12.879503
55.885 13.145039
55.890 13.227937
55.895 13.188027
55.900 12.926944
55.905 12.945683
55.910 13.58853
55.915 13.482532
55.920 14.087757
55.925 14.349268
55.930 14.293218
55.935 14.476889
55.940 14.437387
55.945 14.376829
55.950 14.484273
55.955 13.724535
55.960 13.32059
55.965 12.61378
55.970 12.275532
55.975 12.104436
55.980 11.904483
55.985 12.076748
55.990 11.909708
55.995 11.99155
56.000 11.635647
56.005 11.248683
56.010 10.91041
56.015 10.266444
56.020 9.846527
56.025 9.847288
56.030 10.224092
56.035 10.929868
56.040 11.408923
56.045 11.102147
56.050 11.259734
56.055 11.579374
56.060 11.761392
56.065 11.868493
56.070 11.48671
56.075 11.821244
56.080 12.445885
56.085 12.105916
56.090 12.023313
56.095 12.071313
56.100 11.923572
56.105 11.727192
56.110 11.444292
56.115 11.741334
56.120 12.346672
56.125 12.135824
56.130 11.587945
56.135 11.503429
56.140 12.214021
56.145 11.993496
56.150 11.759984
56.155 11.89795
56.160 12.073047
56.165 12.382478
56.170 12.497746
56.175 11.829342
56.180 11.415305
56.185 11.162741
56.190 11.108795
56.195 11.136784
56.200 11.155589
56.205 10.948933
56.210 11.313887
56.215 12.060756
56.220 12.403555
56.225 12.183618
56.230 12.137005
56.235 12.096194
56.240 12.449202
56.245 12.426389
56.250 11.367547
56.255 11.211402
56.260 11.147054
56.265 11.241524
56.270 11.417954
56.275 11.449404
56.280 11.541137
56.285 12.058744
56.290 11.883866
56.295 11.590927
56.300 12.026995
56.305 12.046201
56.310 11.48741
56.315 11.402817
56.320 11.301506
56.325 11.575748
56.330 11.913625
56.335 11.306914
56.340 11.131391
56.345 11.103268
56.350 11.301076
56.355 11.872076
56.360 11.626429
56.365 11.33204
56.370 11.201127
56.375 11.242142
56.380 11.475385
56.385 11.616524
56.390 10.995411
56.395 11.237086
56.400 11.472649
56.405 12.461398
56.410 13.109707
56.415 12.917967
56.420 12.852414
56.425 12.95161
56.430 12.856028
56.435 13.279527
56.440 12.419189
56.445 11.751297
56.450 11.936375
56.455 12.107174
56.460 12.139204
56.465 11.86166
56.470 11.900643
56.475 12.383358
56.480 12.542574
56.485 12.158452
56.490 12.37774
56.495 12.616883
56.500 12.713299
56.505 12.58417
56.510 12.686073
56.515 12.723445
56.520 13.058293
56.525 12.844375
56.530 12.768678
56.535 13.073522
56.540 13.037169
56.545 13.079403
56.550 13.148321
56.555 13.08131
56.560 13.230396
56.565 13.615818
56.570 12.966822
56.575 12.816107
56.580 12.757681
56.585 12.49616
56.590 12.223731
56.595 12.025943
56.600 11.953298
56.605 12.348049
56.610 12.473105
56.615 12.516648
56.620 12.806723
56.625 12.442054
56.630 12.517752
56.635 13.064469
56.640 13.01958
56.645 12.999889
56.650 12.892237
56.655 13.141942
56.660 13.482082
56.665 12.963183
56.670 12.70514
56.675 12.613605
56.680 12.747025
56.685 13.250909
56.690 13.449486
56.695 14.00168
56.700 14.32515
56.705 14.252437
56.710 14.609698
56.715 14.167264
56.720 14.100637
56.725 13.574153
56.730 13.253267
56.735 13.769503
56.740 13.436568
56.745 13.088119
56.750 13.388895
56.755 13.27395
56.760 13.485588
56.765 13.115018
56.770 12.765857
56.775 12.966423
56.780 13.370147
56.785 13.505219
56.790 13.405036
56.795 13.943156
56.800 14.428294
56.805 14.449224
56.810 14.219769
56.815 13.706785
56.820 13.451235
56.825 13.11499
56.830 12.648865
56.835 12.341278
56.840 12.58436
56.845 13.181496
56.850 13.493697
56.855 13.879194
56.860 14.437534
56.865 14.809233
56.870 15.120604
56.875 14.936282
56.880 14.899186
56.885 14.34486
56.890 14.263536
56.895 14.115111
56.900 13.448339
56.905 12.671261
56.910 12.254183
56.915 11.867599
56.920 12.446091
56.925 12.3327
56.930 12.300648
56.935 12.937634
56.940 13.104045
56.945 13.052279
56.950 13.373033
56.955 13.142582
56.960 13.560106
56.965 13.342175
56.970 13.308925
56.975 13.378693
56.980 13.375275
56.985 13.156092
56.990 12.890314
56.995 12.550756
57.000 12.686716
57.005 12.979707
57.010 14.115017
57.015 14.340598
57.020 14.830502
57.025 14.655631
57.030 14.462912
57.035 14.238198
57.040 14.312195
57.045 13.410192
57.050 13.200148
57.055 12.821349
57.060 13.057277
57.065 13.275143
57.070 13.395997
57.075 13.051303
57.080 13.63514
57.085 13.889248
57.090 13.76189
57.095 13.347355
57.100 13.109947
57.105 13.337508
57.110 13.545088
57.115 13.290451
57.120 13.592793
57.125 13.40162
57.130 13.791426
57.135 13.829454
57.140 13.162522
57.145 12.863969
57.150 12.691126
57.155 12.440068
57.160 12.388642
57.165 12.261078
57.170 12.882044
57.175 13.587284
57.180 13.722662
57.185 13.679657
57.190 14.014189
57.195 14.889811
57.200 14.883455
57.205 14.78961
57.210 14.251503
57.215 14.154832
57.220 14.186606
57.225 14.119776
57.230 13.807945
57.235 13.508194
57.240 12.827591
57.245 12.79823
57.250 12.621778
57.255 12.82629
57.260 12.212204
57.265 12.040194
57.270 12.554154
57.275 13.243881
57.280 13.915981
57.285 14.130658
57.290 14.132432
57.295 14.40871
57.300 14.702941
57.305 14.586254
57.310 14.162758
57.315 13.916092
57.320 13.74571
57.325 13.839304
57.330 13.868072
57.335 13.839106
57.340 13.478433
57.345 13.488292
57.350 13.372962
57.355 12.85785
57.360 12.45993
57.365 12.593474
57.370 12.467971
57.375 12.557417
57.380 12.573052
57.385 13.134437
57.390 13.532183
57.395 13.794398
57.400 13.695329
57.405 13.710361
57.410 13.943624
57.415 13.502971
57.420 12.932028
57.425 12.891674
57.430 12.698853
57.435 12.880927
57.440 13.00052
57.445 12.92202
57.450 13.380238
57.455 13.514512
57.460 14.198483
57.465 14.74709
57.470 14.952062
57.475 14.816912
57.480 14.71777
57.485 14.65327
57.490 14.740555
57.495 14.909511
57.500 14.550344
57.505 14.048459
57.510 14.558478
57.515 14.610445
57.520 14.476483
57.525 14.079698
57.530 13.673342
57.535 13.820416
57.540 14.0281
57.545 14.059049
57.550 14.054658
57.555 14.333219
57.560 14.419749
57.565 14.209292
57.570 14.130486
57.575 13.700823
57.580 13.501587
57.585 13.659009
57.590 13.888705
57.595 14.05438
57.600 13.814795
57.605 14.253295
57.610 14.504731
57.615 14.105486
57.620 14.059442
57.625 14.095583
57.630 14.526675
57.635 14.89395
57.640 14.826597
57.645 15.225932
57.650 15.29928
57.655 15.098583
57.660 14.288127
57.665 13.197784
57.670 12.943905
57.675 12.750529
57.680 12.597197
57.685 12.573967
57.690 12.872398
57.695 13.435127
57.700 13.771985
57.705 14.689214
57.710 14.974509
57.715 15.542636
57.720 15.912458
57.725 15.833905
57.730 15.550195
57.735 15.036662
57.740 14.509496
57.745 14.185658
57.750 13.372316
57.755 13.201931
57.760 13.684769
57.765 14.453341
57.770 15.063647
57.775 14.743852
57.780 15.094262
57.785 15.068851
57.790 15.152858
57.795 14.871444
57.800 14.846926
57.805 14.887087
57.810 15.329123
57.815 14.952761
57.820 15.165978
57.825 15.073766
57.830 15.110209
57.835 15.175475
57.840 14.843626
57.845 14.794659
57.850 14.967434
57.855 15.254874
57.860 15.189072
57.865 15.322816
57.870 15.520964
57.875 16.017033
57.880 15.855801
57.885 16.0923
57.890 15.884704
57.895 16.183357
57.900 15.925016
57.905 15.27577
57.910 14.70181
57.915 14.838309
57.920 15.175877
57.925 15.589884
57.930 15.572798
57.935 16.17911
57.940 17.063894
57.945 17.085217
57.950 16.639524
57.955 16.376333
57.960 16.094133
57.965 15.652183
57.970 15.083931
57.975 15.142348
57.980 15.581505
57.985 15.793444
57.990 15.350747
57.995 14.725884
58.000 14.739293
58.005 14.704614
58.010 14.439503
58.015 15.083957
58.020 15.031057
58.025 14.998898
58.030 15.353878
58.035 15.966248
58.040 16.586605
58.045 16.408361
58.050 16.054041
58.055 16.007435
58.060 16.294704
58.065 16.220545
58.070 15.800813
58.075 15.31872
58.080 15.150834
58.085 14.758156
58.090 14.347487
58.095 14.550097
58.100 14.566525
58.105 14.607869
58.110 14.588288
58.115 15.538705
58.120 16.646675
58.125 17.171658
58.130 17.581306
58.135 17.892731
58.140 18.251408
58.145 18.426538
58.150 17.530323
58.155 16.848909
58.160 16.733438
58.165 16.789936
58.170 17.030111
58.175 16.453243
58.180 16.180723
58.185 16.253361
58.190 16.546247
58.195 17.146921
58.200 17.346031
58.205 17.331944
58.210 17.289652
58.215 17.36948
58.220 17.545565
58.225 17.111374
58.230 16.559448
58.235 15.641105
58.240 15.627591
58.245 15.994047
58.250 16.003077
58.255 16.19095
58.260 16.395498
58.265 16.488598
58.270 17.169437
58.275 17.279383
58.280 17.258675
58.285 17.191957
58.290 17.433445
58.295 17.998415
58.300 17.811691
58.305 17.599361
58.310 17.608719
58.315 18.180489
58.320 18.513458
58.325 18.365402
58.330 18.033907
58.335 18.652636
58.340 19.080959
58.345 19.202923
58.350 18.761486
58.355 19.148359
58.360 19.526354
58.365 19.802002
58.370 19.98481
58.375 19.907236
58.380 19.937721
58.385 20.661745
58.390 20.480532
58.395 20.184225
58.400 20.034136
58.405 19.760674
58.410 20.120213
58.415 20.354902
58.420 20.085293
58.425 20.688351
58.430 20.780708
58.435 20.810884
58.440 20.797281
58.445 21.058947
58.450 21.435808
58.455 22.285088
58.460 22.543785
58.465 23.239124
58.470 24.111483
58.475 24.411238
58.480 25.232672
58.485 25.716499
58.490 25.918829
58.495 26.669401
58.500 26.893208
58.505 27.202663
