!@!!GADDS PLOTSO FILE: Chi integration type
!@!!Title/SampleName: map-7c
!@!!Comment: ?
!@!!User: Bruker Instrument Administrator
!@!!Site: University of Illinois Chicago
!@!!Frame: map-7c_01_000.gfrm
!@!!Wavelengths    1.54184   1.54056   1.54439
!@!!Frame angles: 2Theta: 63.000 Omega: 50.000 Phi: 0.000 Chi: 90.000
!@!!Integration range: 2Theta: 53.000 to 73.000  Gamma: -105.000 to -75.000
!@!!Integration method: bin normalized
!@!N
!@!SS
!@!M
!@!L 0.0 0.0 0.0 0.0
!@!XDegrees
!@!YCounts
53.000 6.592046
53.005 6.458546
53.010 6.463324
53.015 6.72127
53.020 6.833677
53.025 6.811575
53.030 7.183158
53.035 7.511111
53.040 7.495191
53.045 7.255543
53.050 7.204408
53.055 7.048239
53.060 7.265362
53.065 7.494038
53.070 7.766169
53.075 7.823005
53.080 7.71514
53.085 7.719016
53.090 8.021225
53.095 7.699812
53.100 7.427227
53.105 7.054444
53.110 7.636625
53.115 7.947754
53.120 7.535792
53.125 7.012574
53.130 6.822464
53.135 6.616529
53.140 6.584701
53.145 6.061158
53.150 5.885192
53.155 6.00165
53.160 6.650187
53.165 6.912727
53.170 7.170132
53.175 7.724752
53.180 8.03573
53.185 8.096849
53.190 8.517129
53.195 8.435149
53.200 8.407845
53.205 8.085374
53.210 7.405591
53.215 7.196885
53.220 7.190197
53.225 6.874732
53.230 6.862174
53.235 7.076312
53.240 7.349136
53.245 7.586815
53.250 7.825007
53.255 7.76784
53.260 7.299145
53.265 7.088829
53.270 6.719307
53.275 6.429379
53.280 6.194314
53.285 6.173824
53.290 6.55354
53.295 6.848799
53.300 7.076404
53.305 7.439612
53.310 7.583829
53.315 7.806689
53.320 7.890849
53.325 7.986722
53.330 7.871798
53.335 7.646597
53.340 7.441487
53.345 7.362095
53.350 7.158479
53.355 6.946551
53.360 6.983806
53.365 7.167327
53.370 7.504138
53.375 7.66106
53.380 7.888093
53.385 8.340393
53.390 8.580446
53.395 8.302462
53.400 8.360112
53.405 8.316546
53.410 8.541493
53.415 8.43646
53.420 8.299794
53.425 8.421214
53.430 8.727355
53.435 8.69466
53.440 8.538177
53.445 8.553742
53.450 8.838792
53.455 8.660209
53.460 8.501149
53.465 8.413199
53.470 8.626595
53.475 8.636103
53.480 8.482477
53.485 8.475694
53.490 8.593572
53.495 8.49169
53.500 8.380698
53.505 8.166132
53.510 7.786631
53.515 7.677172
53.520 7.262397
53.525 7.024248
53.530 6.618141
53.535 6.445223
53.540 6.682326
53.545 7.146658
53.550 7.238078
53.555 7.270773
53.560 7.46634
53.565 7.474387
53.570 7.467186
53.575 7.300751
53.580 7.114705
53.585 7.044189
53.590 6.810286
53.595 6.745743
53.600 6.853058
53.605 6.49513
53.610 6.135268
53.615 5.962924
53.620 5.975795
53.625 6.457347
53.630 6.664368
53.635 6.894147
53.640 6.976103
53.645 7.179187
53.650 7.485513
53.655 7.47663
53.660 7.26736
53.665 7.328265
53.670 7.876303
53.675 8.173625
53.680 8.060484
53.685 7.485198
53.690 7.397429
53.695 8.004433
53.700 7.864511
53.705 7.62718
53.710 7.905379
53.715 8.304758
53.720 8.584529
53.725 8.604002
53.730 8.467546
53.735 8.64223
53.740 8.365151
53.745 7.942128
53.750 8.19195
53.755 8.51194
53.760 8.492261
53.765 8.25246
53.770 8.515198
53.775 8.481795
53.780 8.532942
53.785 8.55715
53.790 8.514952
53.795 8.401527
53.800 8.571503
53.805 8.573684
53.810 8.41855
53.815 8.057551
53.820 8.049138
53.825 8.34866
53.830 8.389748
53.835 7.987635
53.840 7.706805
53.845 7.828397
53.850 7.810224
53.855 7.330845
53.860 7.138287
53.865 7.341043
53.870 7.674757
53.875 7.825659
53.880 8.104724
53.885 8.042556
53.890 7.844203
53.895 7.785564
53.900 7.330923
53.905 7.157192
53.910 6.957768
53.915 6.943407
53.920 7.37539
53.925 7.665607
53.930 8.11545
53.935 8.009255
53.940 8.114571
53.945 8.336287
53.950 8.241556
53.955 8.031837
53.960 8.006306
53.965 7.764708
53.970 8.309241
53.975 8.866655
53.980 9.122799
53.985 9.539948
53.990 9.340542
53.995 9.283197
54.000 9.211529
54.005 8.746066
54.010 8.169904
54.015 7.906804
54.020 8.008434
54.025 8.322234
54.030 8.162625
54.035 8.148149
54.040 8.295998
54.045 8.183323
54.050 7.848366
54.055 7.72306
54.060 7.76106
54.065 7.738258
54.070 7.757559
54.075 8.098221
54.080 8.591149
54.085 8.338888
54.090 8.19949
54.095 7.814266
54.100 7.76947
54.105 7.634172
54.110 7.364551
54.115 7.552664
54.120 7.718898
54.125 7.600423
54.130 7.999304
54.135 8.058108
54.140 7.956792
54.145 7.718997
54.150 7.55129
54.155 7.882209
54.160 7.917739
54.165 7.932489
54.170 8.249427
54.175 8.478315
54.180 8.584288
54.185 8.393335
54.190 8.437202
54.195 8.275924
54.200 8.185914
54.205 8.225883
54.210 8.384123
54.215 8.288564
54.220 8.023601
54.225 8.033114
54.230 8.097163
54.235 8.223811
54.240 8.256752
54.245 8.644278
54.250 9.098187
54.255 9.23803
54.260 9.100117
54.265 9.201342
54.270 9.503468
54.275 9.101227
54.280 8.528591
54.285 8.535417
54.290 8.967098
54.295 9.224656
54.300 9.153483
54.305 9.005467
54.310 9.233977
54.315 9.436692
54.320 8.788701
54.325 9.167181
54.330 9.355161
54.335 9.367467
54.340 9.333349
54.345 9.197716
54.350 9.180687
54.355 8.927191
54.360 8.171248
54.365 7.988831
54.370 7.90556
54.375 7.627787
54.380 7.357146
54.385 7.526826
54.390 7.560374
54.395 7.577599
54.400 7.221016
54.405 7.029003
54.410 7.502022
54.415 7.770512
54.420 7.842398
54.425 8.014534
54.430 7.879875
54.435 8.087709
54.440 7.971604
54.445 7.92301
54.450 8.131122
54.455 8.250818
54.460 8.395759
54.465 8.579973
54.470 8.653924
54.475 8.722732
54.480 8.922362
54.485 8.791353
54.490 8.905421
54.495 8.908488
54.500 8.910873
54.505 8.681518
54.510 8.48583
54.515 8.566225
54.520 8.604319
54.525 8.380463
54.530 8.387467
54.535 8.06268
54.540 8.362997
54.545 8.698403
54.550 8.433065
54.555 8.651711
54.560 8.756268
54.565 8.750805
54.570 9.253558
54.575 9.21343
54.580 8.526833
54.585 8.180113
54.590 7.892067
54.595 8.193611
54.600 8.229523
54.605 8.064137
54.610 7.859133
54.615 8.368004
54.620 8.816113
54.625 8.82717
54.630 9.011392
54.635 9.096854
54.640 9.370789
54.645 9.906149
54.650 10.021576
54.655 10.235394
54.660 10.393402
54.665 10.013585
54.670 9.95767
54.675 9.921638
54.680 9.888169
54.685 9.404947
54.690 9.241507
54.695 8.724528
54.700 8.566175
54.705 8.276015
54.710 8.312439
54.715 8.016526
54.720 8.137528
54.725 8.575025
54.730 9.095262
54.735 9.164289
54.740 9.247533
54.745 9.047801
54.750 9.261498
54.755 8.883846
54.760 8.480419
54.765 8.233844
54.770 8.513388
54.775 8.748033
54.780 8.919586
54.785 9.156011
54.790 9.458176
54.795 9.579151
54.800 9.885077
54.805 9.603501
54.810 9.334674
54.815 9.071319
54.820 8.850966
54.825 9.128111
54.830 9.022546
54.835 8.942563
54.840 8.809937
54.845 8.910752
54.850 8.889048
54.855 8.755643
54.860 8.583292
54.865 8.724821
54.870 8.738584
54.875 8.395649
54.880 7.893638
54.885 8.03747
54.890 7.914707
54.895 7.651804
54.900 7.606967
54.905 7.637267
54.910 8.424885
54.915 8.887239
54.920 8.669546
54.925 9.003585
54.930 9.053984
54.935 9.388783
54.940 9.565132
54.945 9.301888
54.950 9.432194
54.955 9.998963
54.960 10.202266
54.965 10.017085
54.970 9.382273
54.975 9.332477
54.980 9.549075
54.985 9.923455
54.990 9.382568
54.995 8.857073
55.000 9.526628
55.005 10.143126
55.010 10.311898
55.015 10.106666
55.020 9.921305
55.025 9.745425
55.030 9.870296
55.035 9.610643
55.040 9.409786
55.045 9.620841
55.050 9.575436
55.055 9.56779
55.060 9.84656
55.065 9.703795
55.070 9.877091
55.075 9.364697
55.080 8.969846
55.085 9.113457
55.090 9.340302
55.095 9.363792
55.100 9.405478
55.105 9.467949
55.110 10.35859
55.115 10.844667
55.120 11.104323
55.125 11.099021
55.130 10.948614
55.135 10.946446
55.140 10.820589
55.145 10.440724
55.150 9.731317
55.155 9.523271
55.160 9.079959
55.165 8.895273
55.170 8.837336
55.175 8.701961
55.180 8.585528
55.185 9.09026
55.190 9.280129
55.195 9.975379
55.200 10.307895
55.205 10.305291
55.210 10.23842
55.215 9.888815
55.220 9.187484
55.225 9.010166
55.230 8.431787
55.235 8.176442
55.240 8.068043
55.245 8.27962
55.250 8.651653
55.255 8.702668
55.260 8.611962
55.265 8.912427
55.270 9.098179
55.275 9.119747
55.280 8.911854
55.285 9.15057
55.290 9.062234
55.295 8.969465
55.300 8.941756
55.305 9.040461
55.310 9.139945
55.315 9.032494
55.320 8.81943
55.325 8.996415
55.330 9.25629
55.335 9.935431
55.340 9.749118
55.345 9.644979
55.350 9.730878
55.355 9.759268
55.360 9.682401
55.365 9.016087
55.370 8.378024
55.375 8.272235
55.380 8.540517
55.385 8.703657
55.390 8.934642
55.395 9.889427
55.400 10.368729
55.405 10.464859
55.410 10.465894
55.415 10.309559
55.420 10.10428
55.425 9.790811
55.430 8.953447
55.435 8.711401
55.440 8.86095
55.445 9.297358
55.450 9.527953
55.455 9.739445
55.460 9.824616
55.465 10.108382
55.470 10.096087
55.475 9.812036
55.480 9.438815
55.485 9.078688
55.490 9.020741
55.495 9.357153
55.500 9.551556
55.505 10.064396
55.510 10.359074
55.515 10.641317
55.520 10.779712
55.525 10.483861
55.530 10.327711
55.535 10.346702
55.540 10.003101
55.545 9.963875
55.550 9.831735
55.555 9.945254
55.560 10.317235
55.565 10.286745
55.570 9.557461
55.575 9.818703
55.580 10.420289
55.585 10.417102
55.590 10.417006
55.595 10.377898
55.600 10.39066
55.605 10.70333
55.610 10.274618
55.615 9.783474
55.620 10.30644
55.625 10.588531
55.630 10.474298
55.635 10.847647
55.640 10.844168
55.645 10.781655
55.650 10.926035
55.655 10.693436
55.660 10.406242
55.665 9.853154
55.670 9.299352
55.675 9.118965
55.680 9.207436
55.685 9.424449
55.690 9.535806
55.695 10.212266
55.700 10.998667
55.705 10.926454
55.710 11.138467
55.715 11.138205
55.720 10.585462
55.725 10.136621
55.730 9.389675
55.735 9.346516
55.740 9.826338
55.745 9.758514
55.750 9.933018
55.755 9.965961
55.760 10.610532
55.765 10.474981
55.770 10.493108
55.775 10.530282
55.780 10.857802
55.785 11.002017
55.790 10.580681
55.795 10.039589
55.800 10.204055
55.805 10.223557
55.810 10.027637
55.815 10.008719
55.820 10.279482
55.825 10.521712
55.830 10.791694
55.835 10.940619
55.840 11.154585
55.845 11.589257
55.850 11.332755
55.855 11.396297
55.860 11.615996
55.865 11.466075
55.870 11.021282
55.875 10.680829
55.880 10.359496
55.885 10.051614
55.890 9.362702
55.895 9.164905
55.900 9.376179
55.905 9.513496
55.910 9.914384
55.915 10.006021
55.920 9.986699
55.925 10.310279
55.930 10.367357
55.935 10.394828
55.940 10.207082
55.945 10.54428
55.950 10.786172
55.955 11.199368
55.960 11.106761
55.965 10.842303
55.970 11.053972
55.975 10.692952
55.980 9.84927
55.985 9.597786
55.990 9.365997
55.995 9.571878
56.000 9.629734
56.005 9.730059
56.010 10.282602
56.015 10.375695
56.020 10.412543
56.025 10.541345
56.030 11.013434
56.035 10.992546
56.040 10.769438
56.045 11.052318
56.050 11.082075
56.055 11.106185
56.060 10.916043
56.065 10.491474
56.070 10.550471
56.075 10.395463
56.080 10.375463
56.085 10.481056
56.090 10.335543
56.095 10.311479
56.100 10.059588
56.105 10.160179
56.110 10.087962
56.115 10.009485
56.120 10.042381
56.125 10.4916
56.130 10.72645
56.135 10.70186
56.140 10.91312
56.145 10.84115
56.150 10.727629
56.155 10.963897
56.160 11.03427
56.165 11.439569
56.170 11.319481
56.175 10.983502
56.180 11.346119
56.185 11.513179
56.190 10.835008
56.195 10.034363
56.200 9.904117
56.205 9.898737
56.210 9.813655
56.215 9.702648
56.220 9.858721
56.225 10.828557
56.230 11.514655
56.235 11.593394
56.240 11.754324
56.245 12.153556
56.250 12.13693
56.255 11.700178
56.260 11.531813
56.265 11.439329
56.270 11.294937
56.275 11.472281
56.280 11.421988
56.285 11.92963
56.290 12.146702
56.295 12.191108
56.300 11.787252
56.305 11.9572
56.310 12.082337
56.315 12.049626
56.320 12.050627
56.325 11.861905
56.330 11.789902
56.335 12.281585
56.340 12.031347
56.345 11.903185
56.350 11.531417
56.355 11.398522
56.360 11.353342
56.365 11.262764
56.370 11.425461
56.375 11.283906
56.380 11.06761
56.385 10.826343
56.390 10.155526
56.395 9.951173
56.400 9.892299
56.405 9.511165
56.410 9.60123
56.415 9.882624
56.420 10.123836
56.425 10.585363
56.430 10.682866
56.435 10.468353
56.440 10.408492
56.445 10.271463
56.450 10.169272
56.455 10.076199
56.460 10.276365
56.465 10.288246
56.470 10.496432
56.475 10.752272
56.480 11.114316
56.485 11.227227
56.490 11.727712
56.495 11.583544
56.500 12.157453
56.505 12.280647
56.510 11.999641
56.515 11.447002
56.520 11.532183
56.525 12.258788
56.530 12.384571
56.535 12.082248
56.540 12.149967
56.545 12.44537
56.550 12.771456
56.555 12.31087
56.560 11.285635
56.565 11.04956
56.570 10.953113
56.575 10.525606
56.580 10.527869
56.585 10.398383
56.590 10.370609
56.595 11.062567
56.600 11.353536
56.605 11.434262
56.610 11.436155
56.615 11.273677
56.620 11.477892
56.625 11.299991
56.630 10.920407
56.635 10.918447
56.640 11.130735
56.645 11.381808
56.650 11.320042
56.655 11.060316
56.660 11.076639
56.665 10.797578
56.670 10.865881
56.675 11.034188
56.680 11.382442
56.685 11.789453
56.690 11.849356
56.695 11.749923
56.700 11.714544
56.705 12.178166
56.710 12.18989
56.715 11.930364
56.720 12.105515
56.725 12.38955
56.730 12.697373
56.735 12.709865
56.740 12.010818
56.745 12.394483
56.750 12.352621
56.755 12.474753
56.760 12.624424
56.765 12.674375
56.770 12.7259
56.775 12.771739
56.780 12.649096
56.785 13.170364
56.790 12.724409
56.795 12.331075
56.800 11.792778
56.805 11.828119
56.810 11.767776
56.815 11.238363
56.820 10.619477
56.825 10.625185
56.830 10.904922
56.835 11.414061
56.840 11.847924
56.845 11.804699
56.850 12.123187
56.855 12.394342
56.860 12.75561
56.865 12.827551
56.870 12.688425
56.875 11.653568
56.880 11.23453
56.885 11.00693
56.890 11.205688
56.895 11.138425
56.900 11.346462
56.905 11.244962
56.910 11.431457
56.915 12.118249
56.920 12.66093
56.925 12.565915
56.930 12.256909
56.935 11.815444
56.940 11.460051
56.945 11.755755
56.950 11.362423
56.955 10.90029
56.960 10.789128
56.965 11.369172
56.970 11.756043
56.975 12.428463
56.980 12.072859
56.985 12.160135
56.990 12.438152
56.995 12.485042
57.000 12.141125
57.005 12.049863
57.010 11.889987
57.015 12.264409
57.020 12.478037
57.025 12.344056
57.030 11.800806
57.035 11.76709
57.040 11.623404
57.045 11.482788
57.050 11.288004
57.055 11.009774
57.060 10.968577
57.065 11.767526
57.070 12.140745
57.075 12.790461
57.080 13.180402
57.085 13.291795
57.090 13.424117
57.095 13.427033
57.100 13.194103
57.105 12.97675
57.110 12.470721
57.115 12.739694
57.120 12.79388
57.125 12.524287
57.130 12.200837
57.135 12.129592
57.140 12.390593
57.145 12.562994
57.150 12.594685
57.155 12.291785
57.160 12.343631
57.165 12.401948
57.170 12.031137
57.175 11.454058
57.180 10.973174
57.185 10.448957
57.190 10.520123
57.195 10.813838
57.200 10.882807
57.205 10.728452
57.210 11.122707
57.215 11.924884
57.220 12.623986
57.225 12.639177
57.230 12.397976
57.235 12.875099
57.240 13.394007
57.245 13.584043
57.250 13.246644
57.255 12.926751
57.260 13.247873
57.265 13.505092
57.270 13.366393
57.275 12.591685
57.280 12.382173
57.285 12.164019
57.290 12.417792
57.295 12.187812
57.300 11.995797
57.305 12.215766
57.310 12.544892
57.315 12.196403
57.320 12.193521
57.325 11.967505
57.330 12.181924
57.335 12.29861
57.340 12.300337
57.345 12.320841
57.350 12.239089
57.355 12.424787
57.360 12.767096
57.365 12.48101
57.370 12.179355
57.375 11.815871
57.380 12.016423
57.385 11.835193
57.390 11.533308
57.395 11.000948
57.400 10.625922
57.405 10.806179
57.410 11.16158
57.415 11.034711
57.420 11.431314
57.425 12.105283
57.430 12.926305
57.435 13.369211
57.440 13.588606
57.445 13.081894
57.450 13.094882
57.455 12.967966
57.460 12.292501
57.465 12.232002
57.470 12.052389
57.475 11.849954
57.480 12.429699
57.485 12.289115
57.490 12.283827
57.495 12.23633
57.500 12.117858
57.505 12.035336
57.510 11.580978
57.515 11.24275
57.520 11.07985
57.525 10.705173
57.530 10.925772
57.535 11.212154
57.540 11.51002
57.545 11.808484
57.550 11.631755
57.555 12.225705
57.560 12.565318
57.565 12.698296
57.570 12.460498
57.575 12.616797
57.580 12.649674
57.585 12.982153
57.590 12.743702
57.595 12.679015
57.600 12.364136
57.605 12.538426
57.610 12.477289
57.615 12.509283
57.620 12.724245
57.625 12.948688
57.630 13.52915
57.635 13.203108
57.640 12.910823
57.645 13.190256
57.650 13.132443
57.655 13.263125
57.660 12.794003
57.665 12.482982
57.670 12.729486
57.675 13.008446
57.680 12.741585
57.685 12.560533
57.690 12.146644
57.695 12.454283
57.700 12.207646
57.705 12.665846
57.710 12.583305
57.715 13.215844
57.720 13.380184
57.725 13.526724
57.730 13.237332
57.735 12.960577
57.740 12.640855
57.745 12.7337
57.750 12.579404
57.755 12.849348
57.760 12.981082
57.765 13.199041
57.770 13.206539
57.775 13.47769
57.780 13.096173
57.785 12.804835
57.790 12.780605
57.795 12.545606
57.800 12.984559
57.805 13.291505
57.810 13.004022
57.815 12.830297
57.820 12.488824
57.825 12.567069
57.830 12.669924
57.835 12.267068
57.840 12.060643
57.845 11.899771
57.850 11.85017
57.855 12.184171
57.860 12.471303
57.865 12.37777
57.870 12.42489
57.875 12.268069
57.880 12.793534
57.885 13.347038
57.890 12.766904
57.895 12.587464
57.900 12.366241
57.905 12.379137
57.910 13.108603
57.915 13.580666
57.920 13.959741
57.925 14.137072
57.930 14.115574
57.935 15.021675
57.940 14.678192
57.945 13.857987
57.950 13.305365
57.955 12.554975
57.960 12.783703
57.965 13.421552
57.970 12.943952
57.975 13.134138
57.980 13.832281
57.985 13.753388
57.990 13.835848
57.995 12.963515
58.000 12.486785
58.005 12.899387
58.010 13.071395
58.015 12.288983
58.020 12.518211
58.025 12.642406
58.030 13.311754
58.035 13.057728
58.040 12.526315
58.045 12.625835
58.050 13.101526
58.055 13.368139
58.060 13.191695
58.065 12.699232
58.070 12.704343
58.075 13.478208
58.080 13.568955
58.085 12.991108
58.090 12.430195
58.095 12.375941
58.100 12.523928
58.105 12.574832
58.110 12.300165
58.115 12.409572
58.120 12.958509
58.125 13.057757
58.130 13.575337
58.135 13.782866
58.140 13.636011
58.145 13.075571
58.150 12.782179
58.155 13.24044
58.160 13.405128
58.165 13.084556
58.170 13.32298
58.175 13.684099
58.180 13.557904
58.185 13.67102
58.190 13.477345
58.195 13.685111
58.200 13.467255
58.205 12.924197
58.210 12.741755
58.215 13.065929
58.220 13.016915
58.225 12.418265
58.230 12.135899
58.235 12.57712
58.240 12.715823
58.245 12.552901
58.250 12.554298
58.255 12.310555
58.260 12.566715
58.265 12.796409
58.270 12.721876
58.275 12.978803
58.280 13.014123
58.285 13.088585
58.290 13.294
58.295 13.510886
58.300 13.579633
58.305 13.257701
58.310 13.248235
58.315 13.800886
58.320 14.163973
58.325 14.063705
58.330 13.84215
58.335 13.844455
58.340 14.322179
58.345 14.252565
58.350 14.013306
58.355 12.911738
58.360 12.897641
58.365 12.810164
58.370 12.976949
58.375 12.871362
58.380 12.29057
58.385 11.78159
58.390 12.255032
58.395 12.332454
58.400 12.590193
58.405 12.45829
58.410 12.38657
58.415 13.073311
58.420 13.925715
58.425 14.170726
58.430 14.361689
58.435 14.567638
58.440 14.47964
58.445 14.426593
58.450 14.556082
58.455 13.819529
58.460 13.802628
58.465 13.320964
58.470 13.008957
58.475 13.509287
58.480 13.501421
58.485 13.166789
58.490 13.270922
58.495 13.354806
58.500 13.917578
58.505 14.01158
58.510 13.407601
58.515 12.963779
58.520 12.866795
58.525 13.20803
58.530 13.173776
58.535 12.784154
58.540 12.561219
58.545 12.589826
58.550 12.836575
58.555 12.645539
58.560 12.087038
58.565 11.599132
58.570 11.915313
58.575 12.340447
58.580 12.671618
