!@!!GADDS PLOTSO FILE: Chi integration type
!@!!Title/SampleName: map-1e
!@!!Comment: ?
!@!!User: Bruker Instrument Administrator
!@!!Site: University of Illinois Chicago
!@!!Frame: map-1e_01_000.gfrm
!@!!Wavelengths    1.54184   1.54056   1.54439
!@!!Frame angles: 2Theta: 63.000 Omega: 50.000 Phi: 0.000 Chi: 90.000
!@!!Integration range: 2Theta: 53.000 to 73.000  Gamma: -105.000 to -75.000
!@!!Integration method: bin normalized
!@!N
!@!SS
!@!M
!@!L 0.0 0.0 0.0 0.0
!@!XDegrees
!@!YCounts
53.000 7.591165
53.005 7.504845
53.010 7.515353
53.015 7.714137
53.020 7.834593
53.025 7.821072
53.030 8.15903
53.035 8.52811
53.040 8.824471
53.045 8.467276
53.050 8.276054
53.055 8.238174
53.060 8.000769
53.065 7.579219
53.070 7.562549
53.075 7.762702
53.080 8.152887
53.085 8.163354
53.090 8.536407
53.095 9.055649
53.100 8.851572
53.105 8.502693
53.110 8.440877
53.115 9.079568
53.120 9.078105
53.125 9.002353
53.130 8.972595
53.135 9.343216
53.140 9.499781
53.145 8.861105
53.150 8.413479
53.155 8.11907
53.160 7.707637
53.165 7.616341
53.170 7.619955
53.175 7.853938
53.180 7.991016
53.185 7.941987
53.190 8.205811
53.195 8.713964
53.200 8.820856
53.205 8.475769
53.210 8.140262
53.215 8.443296
53.220 8.407456
53.225 8.172172
53.230 7.897861
53.235 7.87003
53.240 7.840507
53.245 8.133053
53.250 8.537971
53.255 8.438537
53.260 8.234802
53.265 8.262209
53.270 8.617226
53.275 8.990731
53.280 8.993716
53.285 9.121521
53.290 9.671016
53.295 9.953294
53.300 9.794253
53.305 9.391327
53.310 8.935987
53.315 8.824313
53.320 8.974778
53.325 8.542524
53.330 8.636658
53.335 9.118494
53.340 9.475683
53.345 9.270538
53.350 8.580018
53.355 8.653799
53.360 9.364307
53.365 9.763303
53.370 9.308768
53.375 9.511847
53.380 9.839516
53.385 9.860806
53.390 9.897694
53.395 9.394892
53.400 9.00587
53.405 9.133208
53.410 9.079482
53.415 9.3583
53.420 9.18476
53.425 8.911499
53.430 8.869759
53.435 9.17829
53.440 8.655139
53.445 8.35594
53.450 8.259592
53.455 8.07067
53.460 8.164854
53.465 7.806717
53.470 7.472749
53.475 7.65707
53.480 7.817569
53.485 7.901143
53.490 8.336582
53.495 8.090412
53.500 8.326167
53.505 8.288058
53.510 8.212732
53.515 8.033001
53.520 7.789787
53.525 7.676177
53.530 7.863498
53.535 8.069641
53.540 8.052273
53.545 8.296329
53.550 8.647134
53.555 8.815609
53.560 8.66802
53.565 8.291133
53.570 8.236624
53.575 8.679729
53.580 8.626405
53.585 8.755322
53.590 8.912191
53.595 9.051601
53.600 9.469013
53.605 9.541808
53.610 9.299497
53.615 9.524451
53.620 9.206367
53.625 9.218395
53.630 9.224956
53.635 8.65283
53.640 8.461581
53.645 8.423059
53.650 8.138026
53.655 8.287878
53.660 8.663522
53.665 8.448565
53.670 8.809489
53.675 8.80778
53.680 8.497969
53.685 8.754285
53.690 8.697952
53.695 8.366935
53.700 8.905202
53.705 9.044439
53.710 9.023628
53.715 9.37724
53.720 9.134102
53.725 8.574146
53.730 8.544913
53.735 8.342367
53.740 8.678196
53.745 8.945053
53.750 8.499988
53.755 8.710675
53.760 9.425009
53.765 10.039187
53.770 9.77037
53.775 9.434133
53.780 9.578359
53.785 10.113074
53.790 10.199543
53.795 9.765882
53.800 10.089496
53.805 10.582888
53.810 10.681364
53.815 10.474935
53.820 10.285419
53.825 10.3737
53.830 10.299228
53.835 9.788684
53.840 9.364676
53.845 9.393572
53.850 9.476036
53.855 9.151277
53.860 8.762353
53.865 8.509534
53.870 8.307262
53.875 8.194648
53.880 8.135024
53.885 7.984651
53.890 8.148682
53.895 8.350816
53.900 8.209492
53.905 8.309587
53.910 8.607077
53.915 8.773232
53.920 9.288063
53.925 9.326243
53.930 9.798605
53.935 10.085086
53.940 10.172358
53.945 10.209652
53.950 10.253965
53.955 9.7991
53.960 9.565286
53.965 9.14689
53.970 9.169068
53.975 9.475144
53.980 9.497303
53.985 9.151499
53.990 9.266292
53.995 9.802052
54.000 9.858295
54.005 9.419721
54.010 8.887713
54.015 8.934754
54.020 9.128699
54.025 8.869439
54.030 8.753032
54.035 8.991289
54.040 9.647065
54.045 10.175188
54.050 10.395042
54.055 10.466825
54.060 10.647677
54.065 10.60503
54.070 10.600712
54.075 10.304489
54.080 9.938743
54.085 9.941213
54.090 10.228924
54.095 10.43441
54.100 10.019084
54.105 9.069495
54.110 9.097753
54.115 9.051846
54.120 8.924149
54.125 8.374496
54.130 8.05115
54.135 8.781497
54.140 9.842975
54.145 9.654175
54.150 9.260745
54.155 9.286344
54.160 9.617101
54.165 9.880075
54.170 9.909112
54.175 9.883131
54.180 10.20565
54.185 10.408566
54.190 10.09839
54.195 10.119462
54.200 10.117685
54.205 9.609363
54.210 9.296964
54.215 9.254315
54.220 9.360654
54.225 9.56719
54.230 9.775111
54.235 10.46652
54.240 10.4986
54.245 10.627687
54.250 10.340776
54.255 9.909783
54.260 10.073741
54.265 9.456104
54.270 9.082133
54.275 9.148067
54.280 8.917867
54.285 8.832799
54.290 9.033751
54.295 8.829359
54.300 9.360034
54.305 9.593241
54.310 9.9922
54.315 10.669639
54.320 10.753049
54.325 10.760148
54.330 10.64937
54.335 10.59415
54.340 10.419304
54.345 9.895217
54.350 9.432485
54.355 9.109884
54.360 8.756147
54.365 8.757397
54.370 8.091223
54.375 8.052827
54.380 8.445057
54.385 8.864378
54.390 9.28758
54.395 9.925718
54.400 10.026297
54.405 10.424994
54.410 10.363386
54.415 10.162795
54.420 10.404182
54.425 10.338806
54.430 10.203702
54.435 10.127923
54.440 10.386685
54.445 10.637461
54.450 11.028752
54.455 11.014798
54.460 10.619148
54.465 10.451677
54.470 10.116904
54.475 9.874902
54.480 9.345226
54.485 8.94108
54.490 9.341066
54.495 9.605209
54.500 9.473186
54.505 9.20162
54.510 9.372454
54.515 9.294394
54.520 9.249882
54.525 8.904323
54.530 9.05346
54.535 9.185664
54.540 9.707033
54.545 9.810413
54.550 10.114623
54.555 9.96645
54.560 10.134831
54.565 10.360215
54.570 10.155607
54.575 9.922848
54.580 10.128587
54.585 10.234911
54.590 10.00894
54.595 9.972905
54.600 10.07881
54.605 10.111738
54.610 9.497155
54.615 9.363565
54.620 9.739126
54.625 10.160467
54.630 10.11222
54.635 10.30623
54.640 10.22156
54.645 9.843378
54.650 9.733866
54.655 9.627187
54.660 9.591094
54.665 9.423771
54.670 9.13118
54.675 9.837161
54.680 10.459542
54.685 10.38974
54.690 10.15
54.695 9.975447
54.700 10.276073
54.705 10.511261
54.710 10.027852
54.715 9.813335
54.720 9.752092
54.725 9.736181
54.730 9.993344
54.735 9.682311
54.740 9.83922
54.745 9.602703
54.750 9.204068
54.755 8.673141
54.760 8.564978
54.765 8.475565
54.770 8.796347
54.775 9.061891
54.780 9.744401
54.785 10.597941
54.790 11.094704
54.795 11.339722
54.800 11.290865
54.805 11.033545
54.810 11.051343
54.815 10.943525
54.820 10.681767
54.825 11.063741
54.830 11.438095
54.835 11.535195
54.840 11.852079
54.845 11.567886
54.850 11.783212
54.855 11.540872
54.860 11.107696
54.865 11.007115
54.870 10.697954
54.875 10.520268
54.880 11.049527
54.885 11.441594
54.890 12.200276
54.895 12.220411
54.900 12.097179
54.905 12.254622
54.910 12.057618
54.915 11.568843
54.920 11.025058
54.925 10.327804
54.930 10.197121
54.935 10.150043
54.940 9.997273
54.945 10.095025
54.950 10.118956
54.955 10.270413
54.960 10.583509
54.965 10.519541
54.970 10.623015
54.975 10.570432
54.980 10.448751
54.985 10.364668
54.990 10.098523
54.995 9.755648
55.000 9.943026
55.005 9.966695
55.010 10.029144
55.015 10.378983
55.020 10.288113
55.025 10.571818
55.030 10.865624
55.035 11.064478
55.040 11.084963
55.045 11.189779
55.050 11.440439
55.055 11.618976
55.060 11.85268
55.065 11.818253
55.070 11.519617
55.075 11.673538
55.080 11.740451
55.085 11.467156
55.090 11.301445
55.095 11.182006
55.100 10.849372
55.105 10.996176
55.110 10.434762
55.115 10.224823
55.120 9.894
55.125 9.429179
55.130 9.101859
55.135 9.002241
55.140 8.978352
55.145 9.286701
55.150 9.935133
55.155 10.611881
55.160 11.087437
55.165 11.371844
55.170 11.62446
55.175 11.370916
55.180 11.091897
55.185 10.493107
55.190 10.531529
55.195 10.147128
55.200 9.943113
55.205 9.933775
55.210 10.234111
55.215 10.209593
55.220 10.250033
55.225 10.044772
55.230 10.295097
55.235 10.843636
55.240 10.87021
55.245 10.913391
55.250 10.934466
55.255 10.591696
55.260 10.651069
55.265 10.581157
55.270 10.522325
55.275 10.47939
55.280 10.449752
55.285 10.30379
55.290 10.832523
55.295 10.88455
55.300 11.309175
55.305 11.303021
55.310 11.458252
55.315 11.689824
55.320 11.675847
55.325 11.762902
55.330 11.486383
55.335 11.03317
55.340 10.962281
55.345 10.696848
55.350 10.808758
55.355 10.701566
55.360 10.322166
55.365 10.092946
55.370 10.161853
55.375 10.226841
55.380 10.818649
55.385 10.955024
55.390 11.058705
55.395 11.2285
55.400 11.486339
55.405 11.606228
55.410 11.14485
55.415 10.523901
55.420 10.618525
55.425 10.818062
55.430 11.210533
55.435 11.225739
55.440 11.579207
55.445 11.845419
55.450 12.090011
55.455 11.557873
55.460 11.576131
55.465 11.748176
55.470 11.824206
55.475 11.551869
55.480 11.608079
55.485 11.389035
55.490 11.478984
55.495 11.457335
55.500 11.296134
55.505 11.391098
55.510 11.802086
55.515 12.279496
55.520 12.53841
55.525 12.526231
55.530 12.459819
55.535 12.541595
55.540 12.45958
55.545 12.021558
55.550 11.692149
55.555 11.846928
55.560 12.346062
55.565 12.271688
55.570 11.989569
55.575 11.885359
55.580 12.124873
55.585 12.391039
55.590 12.484309
55.595 12.016419
55.600 12.363853
55.605 12.255322
55.610 12.077823
55.615 11.30787
55.620 11.028065
55.625 10.685455
55.630 10.455306
55.635 10.06424
55.640 9.960146
55.645 9.977551
55.650 10.185658
55.655 10.322366
55.660 10.200495
55.665 10.52928
55.670 10.75974
55.675 10.807553
55.680 11.076843
55.685 11.077755
55.690 10.767531
55.695 11.432093
55.700 11.005909
55.705 10.554842
55.710 10.37115
55.715 10.129948
55.720 10.310218
55.725 10.432452
55.730 9.88722
55.735 10.448848
55.740 10.841253
55.745 11.359193
55.750 11.33418
55.755 10.950396
55.760 10.917008
55.765 11.463251
55.770 11.34476
55.775 10.821482
55.780 10.502045
55.785 10.899234
55.790 11.388746
55.795 11.390561
55.800 10.99899
55.805 11.090001
55.810 11.257513
55.815 10.984568
55.820 10.44075
55.825 10.226518
55.830 10.350413
55.835 10.839037
55.840 10.962924
55.845 11.258755
55.850 11.642141
55.855 11.965158
55.860 12.109993
55.865 12.03325
55.870 11.924553
55.875 11.78269
55.880 11.793749
55.885 11.875193
55.890 12.099136
55.895 11.824038
55.900 12.039907
55.905 11.921211
55.910 12.22702
55.915 12.284528
55.920 12.247382
55.925 11.986901
55.930 11.970654
55.935 11.645802
55.940 11.988768
55.945 12.183026
55.950 12.019088
55.955 11.791216
55.960 12.284242
55.965 12.80038
55.970 13.028169
55.975 12.840332
55.980 12.487584
55.985 12.567048
55.990 12.300222
55.995 11.44992
56.000 11.021448
56.005 10.464971
56.010 10.916835
56.015 11.017426
56.020 11.012186
56.025 11.423134
56.030 11.925121
56.035 12.002252
56.040 11.831347
56.045 11.107614
56.050 10.940732
56.055 10.594318
56.060 10.747345
56.065 10.488311
56.070 10.319393
56.075 10.623375
56.080 10.792377
56.085 10.854961
56.090 11.10618
56.095 11.051644
56.100 11.371933
56.105 11.635616
56.110 12.095324
56.115 12.531931
56.120 12.752237
56.125 12.984321
56.130 12.882967
56.135 12.863975
56.140 12.691795
56.145 12.132522
56.150 12.062785
56.155 12.047359
56.160 11.840398
56.165 11.575562
56.170 11.4642
56.175 11.554135
56.180 11.899796
56.185 11.932811
56.190 11.95161
56.195 11.986929
56.200 11.718698
56.205 11.301551
56.210 11.254704
56.215 11.462868
56.220 11.840117
56.225 12.058628
56.230 12.67717
56.235 13.23816
56.240 13.56808
56.245 13.723021
56.250 13.059711
56.255 12.850204
56.260 12.657446
56.265 12.402672
56.270 12.691392
56.275 12.773844
56.280 12.840287
56.285 13.09651
56.290 12.981055
56.295 12.977977
56.300 12.69302
56.305 12.184486
56.310 11.624546
56.315 11.423657
56.320 11.357766
56.325 11.081368
56.330 10.81243
56.335 11.238375
56.340 11.549141
56.345 12.308756
56.350 12.600899
56.355 12.135291
56.360 12.013251
56.365 12.17028
56.370 11.5379
56.375 11.734643
56.380 11.436015
56.385 11.432869
56.390 11.967501
56.395 12.565405
56.400 12.604689
56.405 13.203341
56.410 12.824394
56.415 12.651197
56.420 12.6821
56.425 12.374228
56.430 12.226869
56.435 12.01269
56.440 11.439434
56.445 11.977532
56.450 11.809649
56.455 11.660062
56.460 11.688416
56.465 11.615638
56.470 11.643278
56.475 11.711156
56.480 11.43529
56.485 11.873335
56.490 12.439549
56.495 12.303845
56.500 12.326318
56.505 12.823099
56.510 13.3072
56.515 13.351633
56.520 13.034006
56.525 12.763208
56.530 13.018738
56.535 12.647025
56.540 12.501942
56.545 12.258782
56.550 12.09316
56.555 11.738054
56.560 11.839003
56.565 12.267541
56.570 12.596868
56.575 12.976888
56.580 13.070893
56.585 13.3649
56.590 13.839183
56.595 13.353949
56.600 13.384815
56.605 13.62469
56.610 13.36765
56.615 13.306042
56.620 13.458603
56.625 13.241705
56.630 13.294242
56.635 12.527605
56.640 11.814249
56.645 11.537071
56.650 11.575762
56.655 11.299491
56.660 11.370874
56.665 11.45143
56.670 11.675624
56.675 11.759105
56.680 11.894025
56.685 11.337363
56.690 11.369232
56.695 11.185154
56.700 10.953966
56.705 10.838306
56.710 11.053384
56.715 10.846143
56.720 10.740526
56.725 11.152483
56.730 11.530632
56.735 11.963296
56.740 12.520764
56.745 13.018962
56.750 13.426676
56.755 13.839742
56.760 13.160736
56.765 12.850749
56.770 12.551144
56.775 11.91549
56.780 11.096186
56.785 10.623757
56.790 10.976557
56.795 11.561178
56.800 11.946056
56.805 12.189135
56.810 12.779147
56.815 13.449224
56.820 13.55131
56.825 13.577894
56.830 13.645731
56.835 14.392298
56.840 14.239315
56.845 14.153198
56.850 14.200033
56.855 14.067065
56.860 13.489438
56.865 13.151405
56.870 12.484097
56.875 12.292743
56.880 12.172916
56.885 11.890941
56.890 12.311556
56.895 12.774056
56.900 13.055363
56.905 12.562814
56.910 12.435496
56.915 12.294205
56.920 12.410001
56.925 12.552644
56.930 12.243715
56.935 12.450799
56.940 12.717486
56.945 13.032071
56.950 13.139083
56.955 12.897641
56.960 12.530154
56.965 12.468925
56.970 12.042263
56.975 12.573249
56.980 12.788221
56.985 13.119582
56.990 13.085523
56.995 13.121685
57.000 13.547979
57.005 13.676551
57.010 13.423003
57.015 13.124031
57.020 13.164643
57.025 13.756964
57.030 14.051965
57.035 14.008589
57.040 13.836761
57.045 13.977215
57.050 14.56776
57.055 14.494607
57.060 14.250813
57.065 14.348114
57.070 14.003251
57.075 14.175568
57.080 13.932221
57.085 13.162687
57.090 12.71665
57.095 12.506691
57.100 12.172992
57.105 12.494837
57.110 12.799123
57.115 13.375565
57.120 13.403336
57.125 13.925058
57.130 14.363392
57.135 14.584574
57.140 14.824809
57.145 14.784681
57.150 14.325041
57.155 14.56916
57.160 14.465822
57.165 14.279864
57.170 13.756132
57.175 13.243812
57.180 12.701999
57.185 12.44682
57.190 12.183388
57.195 11.890483
57.200 11.548988
57.205 11.618567
57.210 11.75866
57.215 12.469345
57.220 13.052011
57.225 13.5461
57.230 13.617151
57.235 13.862041
57.240 14.298575
57.245 13.958302
57.250 13.291199
57.255 12.667115
57.260 12.466644
57.265 12.984032
57.270 13.225619
57.275 12.919007
57.280 12.943546
57.285 13.133413
57.290 13.277928
57.295 12.859518
57.300 12.56234
57.305 12.35218
57.310 12.344282
57.315 12.809625
57.320 12.808558
57.325 13.184839
57.330 13.940584
57.335 14.272346
57.340 14.411444
57.345 14.611827
57.350 15.208633
57.355 15.283197
57.360 14.834229
57.365 14.465961
57.370 14.689331
57.375 15.099646
57.380 15.075192
57.385 14.303605
57.390 14.385404
57.395 14.283266
57.400 13.682866
57.405 13.306103
57.410 12.999951
57.415 12.973673
57.420 12.9458
57.425 13.199557
57.430 13.308913
57.435 13.584119
57.440 13.570134
57.445 13.487654
57.450 13.39973
57.455 13.178863
57.460 12.90557
57.465 13.299159
57.470 13.478913
57.475 13.290195
57.480 13.424409
57.485 13.669647
57.490 14.239677
57.495 14.398771
57.500 14.622356
57.505 15.192395
57.510 14.937883
57.515 14.619702
57.520 14.767168
57.525 14.690471
57.530 14.769575
57.535 14.155725
57.540 13.410564
57.545 13.303195
57.550 13.660898
57.555 13.327538
57.560 13.332459
57.565 13.303905
57.570 13.43863
57.575 13.86004
57.580 14.181188
57.585 13.848908
57.590 13.629485
57.595 13.259157
57.600 13.30055
57.605 12.75964
57.610 12.772961
57.615 12.864882
57.620 13.091712
57.625 13.700438
57.630 14.585858
57.635 14.862551
57.640 15.55963
57.645 15.71583
57.650 16.299223
57.655 16.529831
57.660 16.291752
57.665 15.861347
57.670 15.492834
57.675 15.268274
57.680 15.189534
57.685 14.693288
57.690 14.51988
57.695 14.458368
57.700 14.303317
57.705 13.955566
57.710 13.710835
57.715 13.708076
57.720 13.556766
57.725 13.948746
57.730 13.958815
57.735 14.180795
57.740 14.693002
57.745 15.242561
57.750 15.77107
57.755 15.480851
57.760 15.316612
57.765 14.87337
57.770 14.682494
57.775 14.773395
57.780 14.246822
57.785 13.830599
57.790 13.880415
57.795 14.087378
57.800 14.482825
57.805 14.805706
57.810 14.711719
57.815 14.783588
57.820 14.326466
57.825 14.388768
57.830 14.201213
57.835 13.914323
57.840 14.051769
57.845 14.162538
57.850 14.708364
57.855 15.704519
57.860 15.496367
57.865 15.496046
57.870 15.747807
57.875 15.663275
57.880 15.99363
57.885 15.614298
57.890 15.222184
57.895 15.339326
57.900 15.255966
57.905 15.395941
57.910 15.239808
57.915 14.928366
57.920 14.687187
57.925 14.740511
57.930 14.662606
57.935 14.569178
57.940 13.920465
57.945 13.840322
57.950 14.105001
57.955 14.126539
57.960 14.063688
57.965 14.732299
57.970 14.620948
57.975 14.90742
57.980 14.71746
57.985 14.901039
57.990 15.088216
57.995 15.044301
58.000 14.988525
58.005 15.864882
58.010 16.260761
58.015 16.003695
58.020 15.456105
58.025 15.264068
58.030 15.466222
58.035 15.163627
58.040 15.135448
58.045 15.315416
58.050 15.744949
58.055 16.220684
58.060 16.359825
58.065 15.850541
58.070 15.739691
58.075 15.063322
58.080 14.422905
58.085 14.26786
58.090 13.880501
58.095 13.901315
58.100 14.012045
58.105 14.009053
58.110 14.188225
58.115 14.488667
58.120 13.933524
58.125 14.133805
58.130 14.200363
58.135 14.518349
58.140 14.95902
58.145 15.132195
58.150 15.218014
58.155 15.255451
58.160 15.27156
58.165 15.6813
58.170 15.907817
58.175 15.471598
58.180 14.813148
58.185 14.833002
58.190 15.438251
58.195 15.017067
58.200 14.586653
58.205 14.637794
58.210 15.284035
58.215 16.326069
58.220 16.440319
58.225 16.576834
58.230 16.60289
58.235 16.932745
58.240 16.931894
58.245 16.982401
58.250 16.606264
58.255 16.447096
58.260 16.216719
58.265 16.151211
58.270 16.025345
58.275 15.593116
58.280 15.55304
58.285 16.045389
58.290 16.674946
58.295 16.708012
58.300 17.133842
58.305 17.146858
58.310 17.001364
58.315 15.682606
58.320 15.436731
58.325 15.308432
58.330 15.207063
58.335 15.004074
58.340 15.497364
58.345 16.320854
58.350 17.085649
58.355 16.914774
58.360 16.784298
58.365 17.867115
58.370 18.52199
58.375 18.401302
58.380 17.782774
58.385 17.591953
58.390 17.711185
58.395 18.250347
58.400 17.930696
58.405 17.430559
58.410 17.761244
58.415 18.703588
58.420 19.279142
58.425 19.461811
58.430 19.109518
58.435 19.589231
58.440 19.622171
58.445 19.405048
58.450 19.170704
58.455 19.189199
58.460 18.777454
58.465 18.871435
58.470 18.648867
58.475 18.479216
58.480 18.062704
58.485 18.012934
58.490 18.718399
58.495 19.221743
58.500 19.294294
58.505 19.238955
58.510 19.490015
58.515 19.909491
58.520 20.120756
58.525 19.386766
58.530 19.438152
