!@!!GADDS PLOTSO FILE: Chi integration type
!@!!Title/SampleName: map-f0
!@!!Comment: ?
!@!!User: Bruker Instrument Administrator
!@!!Site: University of Illinois Chicago
!@!!Frame: map-f0_01_000.gfrm
!@!!Wavelengths    1.54184   1.54056   1.54439
!@!!Frame angles: 2Theta: 63.000 Omega: 50.000 Phi: 0.000 Chi: 90.000
!@!!Integration range: 2Theta: 53.000 to 73.000  Gamma: -105.000 to -75.000
!@!!Integration method: bin normalized
!@!N
!@!SS
!@!M
!@!L 0.0 0.0 0.0 0.0
!@!XDegrees
!@!YCounts
53.000 6.655711
53.005 6.95838
53.010 6.714989
53.015 6.819848
53.020 7.296736
53.025 7.504256
53.030 8.372487
53.035 8.756413
53.040 8.799777
53.045 9.06146
53.050 8.88614
53.055 8.634714
53.060 8.521441
53.065 7.977196
53.070 7.913469
53.075 7.92405
53.080 8.002147
53.085 8.250777
53.090 8.472713
53.095 8.615475
53.100 8.524847
53.105 8.470826
53.110 8.421537
53.115 8.190749
53.120 8.038634
53.125 7.78801
53.130 7.96865
53.135 8.175838
53.140 8.478503
53.145 8.683722
53.150 8.132215
53.155 8.145829
53.160 7.968692
53.165 7.496041
53.170 7.196011
53.175 6.962815
53.180 7.098371
53.185 7.462443
53.190 7.671541
53.195 8.059492
53.200 8.164179
53.205 7.920567
53.210 8.08043
53.215 8.241203
53.220 8.634644
53.225 8.943365
53.230 9.100453
53.235 9.339896
53.240 9.443203
53.245 9.224032
53.250 9.182093
53.255 8.588536
53.260 8.422836
53.265 7.985063
53.270 8.2482
53.275 8.271998
53.280 8.456363
53.285 8.693771
53.290 8.813773
53.295 8.852457
53.300 8.57219
53.305 8.276558
53.310 8.098575
53.315 7.921412
53.320 7.787827
53.325 7.938666
53.330 8.462658
53.335 9.086858
53.340 9.082157
53.345 9.212203
53.350 9.346446
53.355 9.185517
53.360 9.199212
53.365 9.186687
53.370 9.268582
53.375 9.3717
53.380 9.324533
53.385 9.207056
53.390 8.867074
53.395 9.153154
53.400 8.796528
53.405 8.377052
53.410 8.395247
53.415 8.802672
53.420 8.866419
53.425 8.899308
53.430 8.448932
53.435 8.723001
53.440 9.047529
53.445 8.858108
53.450 8.790235
53.455 9.294749
53.460 9.197587
53.465 9.830244
53.470 9.935848
53.475 9.449703
53.480 9.629058
53.485 9.43958
53.490 9.594578
53.495 9.278253
53.500 8.875633
53.505 8.69383
53.510 8.612797
53.515 8.385125
53.520 8.129413
53.525 8.015951
53.530 8.226389
53.535 8.319507
53.540 8.721426
53.545 8.92205
53.550 9.050088
53.555 9.219207
53.560 8.830589
53.565 8.698853
53.570 8.257234
53.575 7.947308
53.580 7.94396
53.585 7.771745
53.590 7.838246
53.595 8.277355
53.600 8.446021
53.605 8.575748
53.610 8.87605
53.615 9.046431
53.620 9.210732
53.625 9.292861
53.630 9.160612
53.635 8.664021
53.640 8.784303
53.645 8.643723
53.650 8.369813
53.655 7.917935
53.660 7.60882
53.665 7.901494
53.670 8.166656
53.675 8.107174
53.680 7.790802
53.685 7.852596
53.690 8.445009
53.695 8.797559
53.700 8.694571
53.705 8.449018
53.710 8.463121
53.715 8.541123
53.720 8.641121
53.725 8.44913
53.730 8.210599
53.735 8.213899
53.740 8.374434
53.745 8.662416
53.750 8.934554
53.755 8.836846
53.760 9.015729
53.765 9.286239
53.770 9.578115
53.775 9.486446
53.780 9.325688
53.785 9.229257
53.790 8.978726
53.795 8.825233
53.800 8.932738
53.805 8.694604
53.810 8.622525
53.815 8.515042
53.820 8.471042
53.825 8.361305
53.830 8.392505
53.835 8.513992
53.840 9.069283
53.845 9.196348
53.850 9.15697
53.855 9.398887
53.860 9.287394
53.865 8.95653
53.870 8.791973
53.875 8.402602
53.880 8.513725
53.885 8.607913
53.890 8.617573
53.895 8.990444
53.900 9.183602
53.905 9.227013
53.910 9.154981
53.915 8.811152
53.920 8.393354
53.925 8.438088
53.930 8.063508
53.935 7.684537
53.940 7.355158
53.945 7.296898
53.950 7.918378
53.955 8.226707
53.960 8.120231
53.965 8.492158
53.970 8.750616
53.975 8.880606
53.980 9.059279
53.985 8.762759
53.990 8.876239
53.995 9.069559
54.000 9.413931
54.005 9.209432
54.010 9.301581
54.015 9.742123
54.020 10.048059
54.025 9.958458
54.030 9.417583
54.035 8.918751
54.040 9.289487
54.045 9.236418
54.050 9.025558
54.055 8.745321
54.060 8.946191
54.065 9.108508
54.070 9.297165
54.075 9.098213
54.080 8.656569
54.085 8.576442
54.090 8.722078
54.095 8.680285
54.100 9.214061
54.105 9.203664
54.110 9.453867
54.115 9.384689
54.120 8.976267
54.125 9.050567
54.130 9.3961
54.135 9.400633
54.140 9.194752
54.145 9.340625
54.150 9.789635
54.155 9.833503
54.160 9.960056
54.165 9.630752
54.170 9.703928
54.175 9.726461
54.180 9.681879
54.185 9.771945
54.190 9.576672
54.195 9.269952
54.200 9.306377
54.205 9.167211
54.210 9.556059
54.215 9.330854
54.220 9.291791
54.225 9.270998
54.230 9.516428
54.235 9.60976
54.240 9.636216
54.245 9.694242
54.250 9.709887
54.255 9.990341
54.260 10.750685
54.265 10.794703
54.270 10.876114
54.275 10.947177
54.280 10.642716
54.285 10.775498
54.290 10.317539
54.295 9.683036
54.300 9.714991
54.305 9.134756
54.310 8.884281
54.315 8.866778
54.320 8.605897
54.325 8.564637
54.330 8.39955
54.335 8.787975
54.340 9.406757
54.345 9.661651
54.350 9.443627
54.355 9.457777
54.360 9.477279
54.365 9.731873
54.370 9.645597
54.375 9.974866
54.380 9.820218
54.385 10.124178
54.390 10.21719
54.395 10.114344
54.400 10.249766
54.405 10.040956
54.410 9.704151
54.415 9.719443
54.420 9.677632
54.425 9.412971
54.430 9.388374
54.435 9.382555
54.440 9.606556
54.445 9.728456
54.450 9.816918
54.455 10.089553
54.460 10.488015
54.465 10.333597
54.470 9.740971
54.475 9.562976
54.480 9.963669
54.485 9.733068
54.490 9.532081
54.495 9.66599
54.500 9.96003
54.505 10.220406
54.510 10.126517
54.515 10.105424
54.520 10.332249
54.525 10.201868
54.530 10.114636
54.535 9.795823
54.540 9.634438
54.545 10.038103
54.550 9.935362
54.555 10.316829
54.560 10.211488
54.565 9.950467
54.570 10.111588
54.575 10.286487
54.580 10.133753
54.585 10.73508
54.590 10.720334
54.595 10.622848
54.600 10.811968
54.605 10.745364
54.610 10.100318
54.615 9.579001
54.620 9.285059
54.625 9.667827
54.630 9.936429
54.635 10.270966
54.640 10.576742
54.645 10.646107
54.650 10.652829
54.655 10.632393
54.660 10.56189
54.665 10.47598
54.670 10.494924
54.675 10.736114
54.680 10.634673
54.685 10.790753
54.690 10.589808
54.695 10.700994
54.700 10.519615
54.705 10.409957
54.710 10.473178
54.715 10.718282
54.720 10.027431
54.725 9.503794
54.730 9.419007
54.735 9.59966
54.740 9.638386
54.745 9.88654
54.750 9.954754
54.755 10.603145
54.760 10.927953
54.765 10.95745
54.770 11.258815
54.775 11.297684
54.780 11.428391
54.785 11.361929
54.790 11.203143
54.795 11.028375
54.800 10.678153
54.805 10.170483
54.810 9.625608
54.815 9.403595
54.820 9.413158
54.825 9.361898
54.830 9.931375
54.835 10.158601
54.840 9.976681
54.845 10.319261
54.850 10.810465
54.855 10.830013
54.860 10.809729
54.865 10.991391
54.870 11.384936
54.875 11.733317
54.880 11.208794
54.885 10.786014
54.890 10.952079
54.895 11.186332
54.900 11.02697
54.905 11.092263
54.910 11.260178
54.915 11.824457
54.920 12.1057
54.925 12.118154
54.930 11.817203
54.935 11.458729
54.940 11.22023
54.945 11.070433
54.950 11.177188
54.955 11.232949
54.960 11.614051
54.965 11.441208
54.970 11.265069
54.975 11.216294
54.980 11.594979
54.985 11.804718
54.990 11.735394
54.995 11.490256
55.000 12.005055
55.005 11.921024
55.010 11.951833
55.015 12.035479
55.020 11.699324
55.025 11.768175
55.030 11.629192
55.035 11.319494
55.040 11.024689
55.045 10.877677
55.050 10.455257
55.055 10.680418
55.060 10.686355
55.065 10.814449
55.070 11.022048
55.075 11.807112
55.080 11.710596
55.085 11.230273
55.090 10.321594
55.095 10.478193
55.100 10.289215
55.105 9.896255
55.110 9.415952
55.115 9.307799
55.120 9.09935
55.125 9.486109
55.130 9.073349
55.135 9.475492
55.140 9.616999
55.145 9.327898
55.150 9.322681
55.155 9.735287
55.160 9.80658
55.165 9.693044
55.170 9.279695
55.175 9.532508
55.180 9.863154
55.185 9.94912
55.190 10.112647
55.195 10.4144
55.200 10.850817
55.205 10.546013
55.210 10.286318
55.215 10.491839
55.220 10.904341
55.225 10.895854
55.230 10.69903
55.235 10.962342
55.240 11.32564
55.245 11.613278
55.250 11.485969
55.255 10.586884
55.260 10.507483
55.265 10.431455
55.270 10.215588
55.275 10.11526
55.280 9.906927
55.285 10.124137
55.290 10.402946
55.295 10.02719
55.300 9.885685
55.305 10.007317
55.310 10.006016
55.315 10.158353
55.320 10.210093
55.325 10.587144
55.330 10.723536
55.335 10.883885
55.340 11.088943
55.345 11.358573
55.350 11.349301
55.355 11.335108
55.360 11.720185
55.365 11.706175
55.370 11.770174
55.375 11.419976
55.380 11.059337
55.385 10.947448
55.390 10.80349
55.395 10.632015
55.400 10.490528
55.405 10.249684
55.410 10.608771
55.415 10.612161
55.420 10.498251
55.425 10.22156
55.430 10.278124
55.435 10.437939
55.440 11.116877
55.445 11.266511
55.450 11.313537
55.455 11.498347
55.460 11.553568
55.465 11.292447
55.470 11.502234
55.475 11.083323
55.480 11.018794
55.485 11.007133
55.490 10.705386
55.495 10.60419
55.500 10.455096
55.505 10.15295
55.510 9.926378
55.515 10.012996
55.520 10.191767
55.525 10.812125
55.530 11.001427
55.535 11.093819
55.540 10.65526
55.545 10.523746
55.550 10.414975
55.555 10.585103
55.560 10.107083
55.565 9.378437
55.570 9.227736
55.575 9.537781
55.580 9.72249
55.585 9.592454
55.590 9.158419
55.595 9.398222
55.600 10.035148
55.605 10.468565
55.610 10.6876
55.615 10.731541
55.620 10.876992
55.625 11.340324
55.630 11.366155
55.635 11.28142
55.640 11.174189
55.645 11.227666
55.650 11.205871
55.655 11.239262
55.660 10.824708
55.665 11.413368
55.670 11.640735
55.675 11.689444
55.680 11.378405
55.685 11.488195
55.690 11.806324
55.695 11.774776
55.700 11.113037
55.705 11.458084
55.710 11.657259
55.715 11.811518
55.720 11.984345
55.725 11.814663
55.730 11.844146
55.735 11.272141
55.740 10.487988
55.745 10.211109
55.750 10.044164
55.755 9.406266
55.760 9.142637
55.765 9.061316
55.770 9.403403
55.775 9.822554
55.780 10.17517
55.785 10.671217
55.790 11.144608
55.795 11.318157
55.800 11.615355
55.805 11.463879
55.810 11.080815
55.815 11.061756
55.820 11.413632
55.825 11.574838
55.830 11.434964
55.835 11.724145
55.840 12.009509
55.845 12.0863
55.850 11.708958
55.855 10.991652
55.860 10.630826
55.865 10.516982
55.870 10.251247
55.875 10.091921
55.880 9.757257
55.885 9.593313
55.890 9.648746
55.895 9.94558
55.900 9.945745
55.905 10.294886
55.910 10.982078
55.915 11.502569
55.920 12.077
55.925 12.034973
55.930 11.871562
55.935 11.871109
55.940 11.3981
55.945 10.837335
55.950 10.528571
55.955 9.958023
55.960 10.041568
55.965 10.100459
55.970 10.215798
55.975 10.295471
55.980 10.075447
55.985 10.739168
55.990 10.894693
55.995 10.817707
56.000 11.180377
56.005 11.379042
56.010 11.740303
56.015 11.781703
56.020 11.629472
56.025 11.864528
56.030 11.830513
56.035 11.896259
56.040 11.506421
56.045 11.50246
56.050 11.539105
56.055 11.436545
56.060 11.681596
56.065 11.689978
56.070 11.280897
56.075 11.365275
56.080 11.245514
56.085 11.268786
56.090 11.082383
56.095 11.322369
56.100 11.493958
56.105 11.560017
56.110 11.615599
56.115 11.607799
56.120 11.380181
56.125 10.770238
56.130 9.939163
56.135 9.528834
56.140 9.826551
56.145 9.940197
56.150 9.82913
56.155 10.054417
56.160 10.244524
56.165 10.85447
56.170 11.315573
56.175 10.934057
56.180 10.714874
56.185 10.35742
56.190 10.247725
56.195 10.237345
56.200 9.927344
56.205 9.418005
56.210 9.366879
56.215 10.202428
56.220 10.818069
56.225 11.451581
56.230 12.181871
56.235 12.464499
56.240 13.060095
56.245 13.432413
56.250 12.766785
56.255 12.574701
56.260 12.656402
56.265 12.230445
56.270 12.034191
56.275 11.31966
56.280 11.171211
56.285 11.572544
56.290 11.095963
56.295 10.605453
56.300 10.871652
56.305 11.19861
56.310 12.179399
56.315 12.493196
56.320 13.069487
56.325 13.175774
56.330 12.731987
56.335 12.359688
56.340 12.401145
56.345 11.676496
56.350 10.988409
56.355 10.693075
56.360 10.918076
56.365 11.28393
56.370 11.689043
56.375 11.627195
56.380 11.605518
56.385 11.921514
56.390 11.973491
56.395 12.025
56.400 12.085685
56.405 11.872475
56.410 11.97471
56.415 12.009149
56.420 11.439383
56.425 11.114307
56.430 11.443007
56.435 11.216447
56.440 11.637813
56.445 11.94684
56.450 12.215586
56.455 12.292416
56.460 12.293572
56.465 12.105529
56.470 12.363141
56.475 12.06051
56.480 11.91929
56.485 12.17767
56.490 12.926985
56.495 12.997922
56.500 12.759302
56.505 12.06782
56.510 11.597763
56.515 11.424957
56.520 11.434218
56.525 11.054562
56.530 11.027449
56.535 11.243341
56.540 11.575033
56.545 11.50249
56.550 11.23296
56.555 11.118295
56.560 11.328161
56.565 11.470309
56.570 11.434512
56.575 11.534029
56.580 11.695712
56.585 11.584949
56.590 11.214549
56.595 11.104914
56.600 10.764732
56.605 10.579927
56.610 10.617625
56.615 11.057383
56.620 11.208089
56.625 11.182909
56.630 11.010392
56.635 11.340797
56.640 11.355145
56.645 11.594707
56.650 11.197616
56.655 11.173623
56.660 11.095623
56.665 10.777868
56.670 10.460062
56.675 10.590613
56.680 10.322064
56.685 10.623691
56.690 11.07576
56.695 11.588118
56.700 11.615012
56.705 11.58501
56.710 11.619672
56.715 12.126533
56.720 12.227165
56.725 12.380192
56.730 12.083277
56.735 12.604095
56.740 12.952184
56.745 12.986049
56.750 12.636498
56.755 12.713811
56.760 12.552197
56.765 13.293776
56.770 13.801515
56.775 14.090117
56.780 13.76141
56.785 13.486262
56.790 13.314338
56.795 13.098892
56.800 12.455554
56.805 11.90973
56.810 11.466686
56.815 11.428513
56.820 11.237334
56.825 11.062974
56.830 11.024106
56.835 10.71645
56.840 10.811176
56.845 11.13103
56.850 11.319731
56.855 11.291862
56.860 11.191279
56.865 11.929706
56.870 12.640964
56.875 12.524366
56.880 12.546288
56.885 12.202299
56.890 12.339745
56.895 13.022224
56.900 12.562678
56.905 12.446039
56.910 12.326319
56.915 12.11027
56.920 12.17978
56.925 12.229455
56.930 11.748514
56.935 11.863667
56.940 11.238366
56.945 10.740541
56.950 10.520136
56.955 10.564216
56.960 10.578868
56.965 11.179259
56.970 11.320434
56.975 11.386296
56.980 12.216906
56.985 12.862479
56.990 12.958809
56.995 12.748057
57.000 12.487062
57.005 12.46227
57.010 12.971004
57.015 12.879988
57.020 12.853469
57.025 13.177441
57.030 13.181684
57.035 12.68775
57.040 12.375599
57.045 12.455753
57.050 12.04415
57.055 12.03308
57.060 12.287417
57.065 12.693896
57.070 13.222138
57.075 13.813593
57.080 14.021074
57.085 14.358853
57.090 14.222442
57.095 14.050726
57.100 13.706511
57.105 13.409329
57.110 12.597127
57.115 12.289189
57.120 12.093817
57.125 12.00934
57.130 11.609721
57.135 11.998504
57.140 12.217072
57.145 13.045568
57.150 13.493732
57.155 13.80776
57.160 14.086337
57.165 14.534307
57.170 14.6079
57.175 14.436525
57.180 13.963473
57.185 13.15482
57.190 13.358866
57.195 13.455239
57.200 12.977064
57.205 12.425614
57.210 12.134212
57.215 12.825701
57.220 13.530204
57.225 13.301429
57.230 12.839248
57.235 12.726806
57.240 13.226308
57.245 13.291659
57.250 13.525709
57.255 13.474403
57.260 13.037966
57.265 13.452012
57.270 13.87585
57.275 13.434572
57.280 13.677272
57.285 13.103879
57.290 12.4967
57.295 12.831645
57.300 13.080849
57.305 12.889666
57.310 12.928078
57.315 12.43957
57.320 12.699862
57.325 13.202823
57.330 13.071469
57.335 12.863006
57.340 12.666808
57.345 12.805332
57.350 12.861588
57.355 12.57715
57.360 12.676603
57.365 12.286702
57.370 12.133441
57.375 12.594545
57.380 12.712186
57.385 12.914544
57.390 12.847508
57.395 13.465137
57.400 14.219879
57.405 14.448853
57.410 14.274888
57.415 14.665704
57.420 14.977309
57.425 14.981818
57.430 14.386971
57.435 13.72925
57.440 13.938026
57.445 14.373545
57.450 14.101357
57.455 13.464744
57.460 13.541014
57.465 13.558404
57.470 14.26933
57.475 13.789154
57.480 12.858441
57.485 12.817297
57.490 12.951548
57.495 13.069952
57.500 13.130502
57.505 12.681748
57.510 12.842597
57.515 12.858841
57.520 12.541074
57.525 12.57992
57.530 12.337262
57.535 12.469905
57.540 12.611205
57.545 12.665268
57.550 12.930253
57.555 13.478253
57.560 13.630833
57.565 14.021767
57.570 14.157776
57.575 14.369493
57.580 14.871514
57.585 14.904945
57.590 14.60368
57.595 14.235252
57.600 14.075251
57.605 13.732264
57.610 13.71083
57.615 13.549452
57.620 13.283834
57.625 13.349632
57.630 13.540797
57.635 13.151313
57.640 13.379179
57.645 13.109661
57.650 12.799738
57.655 12.985328
57.660 13.048359
57.665 13.172066
57.670 12.794635
57.675 12.334382
57.680 12.140552
57.685 12.088258
57.690 12.22331
57.695 12.023917
57.700 12.012871
57.705 12.555065
57.710 12.835982
57.715 13.267765
57.720 13.08117
57.725 13.40092
57.730 13.653901
57.735 13.186905
57.740 12.954815
57.745 12.782184
57.750 13.061877
57.755 13.78584
57.760 13.803411
57.765 14.094441
57.770 14.606528
57.775 14.864508
57.780 15.322377
57.785 15.25273
57.790 14.638941
57.795 13.846664
57.800 13.150099
57.805 13.030167
57.810 12.759175
57.815 12.574507
57.820 12.63592
57.825 13.042839
57.830 12.908585
57.835 13.076445
57.840 12.954261
57.845 13.102931
57.850 13.235711
57.855 13.354861
57.860 13.389897
57.865 14.193679
57.870 14.663836
57.875 15.208321
57.880 15.195921
57.885 15.043963
57.890 15.091782
57.895 15.296687
57.900 15.119133
57.905 15.002152
57.910 15.156239
57.915 14.954379
57.920 14.790054
57.925 14.490941
57.930 14.546206
57.935 15.006331
57.940 15.11935
57.945 14.885556
57.950 15.319915
57.955 15.272038
57.960 15.3668
57.965 15.164249
57.970 14.650404
57.975 14.458498
57.980 14.736306
57.985 14.786613
57.990 14.950133
57.995 15.252023
58.000 14.856739
58.005 15.08642
58.010 15.300299
58.015 15.022633
58.020 15.308045
58.025 15.178995
58.030 14.344265
58.035 14.488121
58.040 14.765494
58.045 14.608191
58.050 14.790955
58.055 14.929171
58.060 15.57926
58.065 16.161982
58.070 16.262142
58.075 16.394133
58.080 16.810638
58.085 16.358271
58.090 15.555322
58.095 15.016047
58.100 14.995181
58.105 14.742045
58.110 14.390557
58.115 13.959066
58.120 14.36055
58.125 14.780803
58.130 14.705667
58.135 15.312078
58.140 15.457013
58.145 16.064669
58.150 15.892552
58.155 15.663545
58.160 15.33985
58.165 15.615505
58.170 15.41408
58.175 14.966013
58.180 14.433654
58.185 14.459091
58.190 14.832063
58.195 14.984592
58.200 14.951308
58.205 14.796877
58.210 15.576613
58.215 16.129244
58.220 15.72375
58.225 15.770377
58.230 15.78088
58.235 16.327765
58.240 16.73707
58.245 16.238684
58.250 16.549522
58.255 17.488464
58.260 17.685099
58.265 17.701935
58.270 17.209656
58.275 17.452892
58.280 18.283163
58.285 18.36227
58.290 18.405617
58.295 18.279442
58.300 18.439625
58.305 19.017851
58.310 19.489061
58.315 19.059708
58.320 18.685259
58.325 18.748718
58.330 19.073349
58.335 19.17082
58.340 19.119011
58.345 19.181063
58.350 19.149231
58.355 18.99515
58.360 18.848984
58.365 18.797781
58.370 18.927536
58.375 18.585333
58.380 18.522013
58.385 19.561956
58.390 20.326712
58.395 20.811243
58.400 21.126955
58.405 21.063713
58.410 21.069824
58.415 21.267813
58.420 21.54814
58.425 21.475355
58.430 21.51042
58.435 21.842415
58.440 22.283091
58.445 22.455515
58.450 22.305275
58.455 22.037512
58.460 22.791815
58.465 23.138058
58.470 22.928295
58.475 23.505852
58.480 23.784334
58.485 23.715574
58.490 23.987144
58.495 24.27203
58.500 23.947124
58.505 23.91691
58.510 23.540178
58.515 23.621082
58.520 24.054956
58.525 24.524324
58.530 24.670696
58.535 25.978008
58.540 26.86685
