!@!!GADDS PLOTSO FILE: Chi integration type
!@!!Title/SampleName: map-f6
!@!!Comment: ?
!@!!User: Bruker Instrument Administrator
!@!!Site: University of Illinois Chicago
!@!!Frame: map-f6_01_000.gfrm
!@!!Wavelengths    1.54184   1.54056   1.54439
!@!!Frame angles: 2Theta: 63.000 Omega: 50.000 Phi: 0.000 Chi: 90.000
!@!!Integration range: 2Theta: 53.000 to 73.000  Gamma: -105.000 to -75.000
!@!!Integration method: bin normalized
!@!N
!@!SS
!@!M
!@!L 0.0 0.0 0.0 0.0
!@!XDegrees
!@!YCounts
53.000 5.051093
53.005 5.035964
53.010 5.191755
53.015 5.144167
53.020 4.877851
53.025 4.583414
53.030 4.701999
53.035 4.524345
53.040 4.584213
53.045 4.832752
53.050 5.008061
53.055 5.275096
53.060 5.522019
53.065 5.790719
53.070 6.035995
53.075 6.156861
53.080 5.685453
53.085 5.549369
53.090 5.490078
53.095 5.390202
53.100 5.256535
53.105 5.144531
53.110 5.346415
53.115 5.306322
53.120 5.350272
53.125 5.550159
53.130 5.19954
53.135 5.10231
53.140 5.163058
53.145 5.050138
53.150 5.409238
53.155 5.40138
53.160 5.447959
53.165 5.830338
53.170 5.777746
53.175 6.127915
53.180 6.15376
53.185 5.963327
53.190 5.732823
53.195 5.573497
53.200 5.328715
53.205 5.352503
53.210 5.04428
53.215 5.215491
53.220 5.435787
53.225 5.649897
53.230 5.569916
53.235 5.611977
53.240 5.764734
53.245 5.567508
53.250 5.26809
53.255 5.443667
53.260 5.104767
53.265 5.177853
53.270 5.28902
53.275 5.100418
53.280 5.540289
53.285 5.298114
53.290 5.197412
53.295 5.432421
53.300 5.475946
53.305 5.239693
53.310 5.139702
53.315 5.078694
53.320 5.333744
53.325 5.623073
53.330 5.795878
53.335 5.764296
53.340 5.741932
53.345 5.697346
53.350 6.192883
53.355 6.145914
53.360 6.002573
53.365 5.735244
53.370 5.708347
53.375 5.690673
53.380 5.045617
53.385 4.386711
53.390 4.506583
53.395 4.547928
53.400 4.61447
53.405 4.712072
53.410 5.188416
53.415 5.898488
53.420 6.405925
53.425 6.437616
53.430 6.578639
53.435 6.833759
53.440 6.798191
53.445 6.626863
53.450 6.280963
53.455 6.202076
53.460 6.035105
53.465 5.91552
53.470 5.804149
53.475 5.767184
53.480 5.970337
53.485 5.966029
53.490 5.9702
53.495 6.090333
53.500 6.603736
53.505 6.868343
53.510 6.77747
53.515 6.743679
53.520 6.810278
53.525 6.491461
53.530 6.106423
53.535 5.48716
53.540 5.341939
53.545 5.36122
53.550 5.490796
53.555 5.534051
53.560 5.475129
53.565 5.839283
53.570 5.408721
53.575 5.367787
53.580 5.50557
53.585 5.533722
53.590 5.671497
53.595 6.130908
53.600 6.008043
53.605 6.301972
53.610 6.443339
53.615 6.373192
53.620 6.250806
53.625 6.265836
53.630 6.362124
53.635 6.620834
53.640 6.839151
53.645 6.445672
53.650 5.985189
53.655 5.892318
53.660 5.526466
53.665 5.409126
53.670 5.379942
53.675 5.411414
53.680 5.618965
53.685 6.252999
53.690 6.364079
53.695 6.300051
53.700 6.54301
53.705 6.698617
53.710 6.863502
53.715 6.638934
53.720 6.283971
53.725 6.629986
53.730 6.68361
53.735 6.375989
53.740 5.881589
53.745 6.139472
53.750 6.076319
53.755 5.67206
53.760 5.438184
53.765 5.632785
53.770 5.717684
53.775 5.994595
53.780 5.891759
53.785 5.900743
53.790 6.204796
53.795 6.345059
53.800 6.163246
53.805 6.08807
53.810 5.912917
53.815 6.486744
53.820 6.777671
53.825 6.734444
53.830 6.639335
53.835 6.842159
53.840 6.842222
53.845 6.740877
53.850 6.121582
53.855 6.257448
53.860 6.172112
53.865 6.345039
53.870 6.313257
53.875 5.890012
53.880 5.884802
53.885 6.043062
53.890 5.919757
53.895 5.590321
53.900 5.534947
53.905 5.531156
53.910 5.293036
53.915 5.384298
53.920 5.32927
53.925 5.498158
53.930 5.477147
53.935 5.176691
53.940 5.758969
53.945 6.173538
53.950 6.125701
53.955 6.389739
53.960 6.627724
53.965 6.988343
53.970 7.184496
53.975 6.911711
53.980 6.696791
53.985 6.571073
53.990 6.44842
53.995 6.402186
54.000 5.991601
54.005 6.070774
54.010 6.067533
54.015 6.421481
54.020 6.787999
54.025 6.886586
54.030 6.890881
54.035 6.870048
54.040 7.046095
54.045 7.024866
54.050 6.786931
54.055 6.253053
54.060 6.156876
54.065 6.113442
54.070 6.239107
54.075 5.988686
54.080 6.21071
54.085 6.642022
54.090 7.008772
54.095 7.188387
54.100 7.250782
54.105 6.985904
54.110 7.005125
54.115 6.84496
54.120 6.624622
54.125 6.41087
54.130 6.094281
54.135 5.786727
54.140 5.822944
54.145 5.845942
54.150 5.95089
54.155 5.960981
54.160 6.241632
54.165 6.456788
54.170 6.653739
54.175 7.051222
54.180 7.514673
54.185 7.461624
54.190 7.476762
54.195 7.6779
54.200 7.952007
54.205 7.756598
54.210 7.231972
54.215 7.192492
54.220 7.194577
54.225 6.94245
54.230 6.787749
54.235 7.255048
54.240 7.820826
54.245 8.061753
54.250 7.627621
54.255 7.602816
54.260 8.012775
54.265 7.581466
54.270 7.019829
54.275 6.844752
54.280 6.515862
54.285 6.67667
54.290 6.447519
54.295 6.461657
54.300 6.862863
54.305 7.281626
54.310 7.15453
54.315 7.432796
54.320 7.414217
54.325 7.453356
54.330 7.240417
54.335 7.308362
54.340 7.412985
54.345 7.500125
54.350 7.647265
54.355 7.97826
54.360 8.213289
54.365 8.352487
54.370 8.165821
54.375 8.081908
54.380 7.729685
54.385 7.36003
54.390 7.320508
54.395 7.126605
54.400 6.788568
54.405 6.332547
54.410 6.700167
54.415 7.310778
54.420 7.349276
54.425 7.053935
54.430 7.153132
54.435 7.186236
54.440 6.931569
54.445 6.668649
54.450 6.374836
54.455 6.38606
54.460 6.129993
54.465 6.137114
54.470 6.621044
54.475 6.732985
54.480 6.587539
54.485 6.34201
54.490 6.608777
54.495 7.242708
54.500 7.096602
54.505 7.319488
54.510 7.329228
54.515 7.416038
54.520 7.429468
54.525 7.248795
54.530 6.878305
54.535 6.732026
54.540 6.590147
54.545 6.301617
54.550 6.086284
54.555 5.977504
54.560 5.955891
54.565 6.285916
54.570 6.476431
54.575 6.434012
54.580 6.46536
54.585 6.612207
54.590 6.579669
54.595 6.575665
54.600 6.280829
54.605 6.555321
54.610 6.635962
54.615 6.534302
54.620 6.772728
54.625 6.913904
54.630 7.196291
54.635 7.242846
54.640 6.891636
54.645 7.122715
54.650 7.062879
54.655 6.988355
54.660 6.963331
54.665 6.747339
54.670 6.561083
54.675 6.746567
54.680 6.552501
54.685 6.846454
54.690 7.030728
54.695 7.347474
54.700 7.566746
54.705 7.646677
54.710 7.32894
54.715 7.477972
54.720 7.235197
54.725 6.921669
54.730 6.558807
54.735 6.519995
54.740 6.653158
54.745 6.68197
54.750 6.794688
54.755 6.816934
54.760 6.952725
54.765 6.638508
54.770 6.465611
54.775 6.41979
54.780 6.831169
54.785 6.738113
54.790 6.588349
54.795 6.972204
54.800 7.381077
54.805 7.564938
54.810 7.361032
54.815 7.257691
54.820 7.662479
54.825 7.808433
54.830 7.719192
54.835 7.402992
54.840 7.516539
54.845 7.520875
54.850 7.393844
54.855 7.469395
54.860 7.450618
54.865 7.779296
54.870 8.663844
54.875 8.641547
54.880 9.090251
54.885 9.242354
54.890 9.117846
54.895 9.183824
54.900 8.865785
54.905 8.47885
54.910 8.632428
54.915 8.466105
54.920 8.635109
54.925 8.75524
54.930 8.648074
54.935 8.247928
54.940 8.165852
54.945 8.220903
54.950 8.103605
54.955 7.999418
54.960 7.803166
54.965 8.04426
54.970 8.45063
54.975 8.571977
54.980 8.552273
54.985 8.371664
54.990 8.725237
54.995 8.535483
55.000 8.436301
55.005 7.974392
55.010 7.583648
55.015 7.719501
55.020 7.732921
55.025 7.593403
55.030 7.313713
55.035 6.999787
55.040 7.161169
55.045 7.157532
55.050 6.783579
55.055 6.841009
55.060 6.761742
55.065 7.186423
55.070 7.466971
55.075 7.536999
55.080 7.762145
55.085 8.005214
55.090 7.51808
55.095 7.36526
55.100 7.400787
55.105 7.569218
55.110 7.491108
55.115 7.446595
55.120 7.853945
55.125 8.316402
55.130 8.335334
55.135 8.10831
55.140 7.994484
55.145 7.965526
55.150 7.845278
55.155 7.479593
55.160 7.462554
55.165 7.914931
55.170 7.78386
55.175 7.879894
55.180 7.981555
55.185 7.796764
55.190 7.896845
55.195 7.698245
55.200 7.581718
55.205 7.4891
55.210 7.376158
55.215 7.236038
55.220 6.948861
55.225 7.01978
55.230 6.95186
55.235 6.995577
55.240 6.953916
55.245 7.092283
55.250 7.513858
55.255 7.738499
55.260 7.821912
55.265 7.967987
55.270 8.135794
55.275 8.536503
55.280 8.553493
55.285 8.538729
55.290 8.542563
55.295 8.525805
55.300 8.319629
55.305 8.180329
55.310 8.317444
55.315 7.992875
55.320 8.189115
55.325 8.58233
55.330 8.062496
55.335 8.025157
55.340 7.870659
55.345 7.578674
55.350 7.415588
55.355 7.016148
55.360 6.813638
55.365 7.301742
55.370 7.503411
55.375 7.582177
55.380 7.76257
55.385 8.104151
55.390 8.481189
55.395 8.756033
55.400 8.458013
55.405 8.301014
55.410 8.475546
55.415 8.528081
55.420 8.618938
55.425 8.360974
55.430 8.369208
55.435 8.321593
55.440 8.175203
55.445 7.858343
55.450 7.424416
55.455 7.33869
55.460 7.206746
55.465 6.623368
55.470 6.960615
55.475 6.759034
55.480 6.851435
55.485 6.843769
55.490 6.565609
55.495 7.086617
55.500 7.645227
55.505 7.578411
55.510 7.539298
55.515 7.601473
55.520 8.056804
55.525 8.154836
55.530 7.778975
55.535 7.840427
55.540 7.852334
55.545 8.00434
55.550 7.723006
55.555 7.456051
55.560 7.44138
55.565 7.787108
55.570 7.572162
55.575 7.644512
55.580 7.890143
55.585 8.302268
55.590 8.542048
55.595 8.683858
55.600 8.367253
55.605 8.562778
55.610 8.891292
55.615 8.70249
55.620 8.555161
55.625 8.2564
55.630 8.059923
55.635 8.088922
55.640 7.737602
55.645 7.497875
55.650 7.631364
55.655 7.71469
55.660 7.533961
55.665 7.311177
55.670 7.261619
55.675 7.286208
55.680 7.420201
55.685 7.417421
55.690 7.413418
55.695 7.813425
55.700 8.337662
55.705 8.554287
55.710 8.500767
55.715 8.218462
55.720 8.433348
55.725 8.639639
55.730 8.263465
55.735 7.8422
55.740 7.99604
55.745 8.121502
55.750 7.803407
55.755 7.168137
55.760 6.945161
55.765 7.148941
55.770 7.665092
55.775 7.687015
55.780 7.838254
55.785 8.110735
55.790 8.485869
55.795 8.349739
55.800 8.39908
55.805 7.961502
55.810 7.50527
55.815 7.566385
55.820 7.524521
55.825 7.697687
55.830 8.422772
55.835 8.184585
55.840 8.34994
55.845 8.56356
55.850 8.805039
55.855 9.079615
55.860 9.469946
55.865 8.941114
55.870 8.709409
55.875 9.066475
55.880 9.188473
55.885 9.256533
55.890 9.104666
55.895 8.622993
55.900 8.681056
55.905 8.277812
55.910 7.90462
55.915 7.822032
55.920 7.607615
55.925 7.801321
55.930 7.469193
55.935 7.382646
55.940 7.430964
55.945 7.407413
55.950 7.518281
55.955 7.431253
55.960 7.333135
55.965 7.770997
55.970 8.159143
55.975 8.859919
55.980 8.912431
55.985 8.695954
55.990 8.50897
55.995 8.71066
56.000 8.568132
56.005 8.491254
56.010 7.783468
56.015 7.718659
56.020 8.142661
56.025 8.456625
56.030 8.372881
56.035 8.471926
56.040 8.521066
56.045 8.549283
56.050 8.472784
56.055 7.959488
56.060 7.718382
56.065 7.533881
56.070 7.457061
56.075 7.300607
56.080 7.798695
56.085 7.926905
56.090 8.056552
56.095 8.300865
56.100 8.161188
56.105 8.108134
56.110 8.212778
56.115 8.153342
56.120 8.118141
56.125 7.922596
56.130 7.501879
56.135 7.773861
56.140 8.138605
56.145 8.331243
56.150 8.344761
56.155 8.572836
56.160 8.860618
56.165 9.215453
56.170 9.271196
56.175 9.044193
56.180 8.888914
56.185 8.903938
56.190 8.84438
56.195 8.719552
56.200 8.751129
56.205 8.656416
56.210 8.747783
56.215 8.638038
56.220 8.800611
56.225 8.94106
56.230 8.88658
56.235 9.165825
56.240 9.451781
56.245 9.721597
56.250 9.94542
56.255 9.595771
56.260 9.767507
56.265 9.741672
56.270 9.631442
56.275 9.306318
56.280 9.313037
56.285 9.380877
56.290 9.101954
56.295 9.021938
56.300 9.322004
56.305 9.24842
56.310 9.228647
56.315 9.213068
56.320 9.511062
56.325 9.820507
56.330 9.684269
56.335 9.6089
56.340 9.733728
56.345 9.396065
56.350 8.773212
56.355 9.028695
56.360 9.035877
56.365 9.043342
56.370 8.879542
56.375 9.062049
56.380 9.310943
56.385 9.24613
56.390 8.633018
56.395 8.85162
56.400 9.053909
56.405 9.264018
56.410 8.980373
56.415 9.600143
56.420 9.665424
56.425 9.609283
56.430 9.438604
56.435 9.316129
56.440 9.079602
56.445 9.051629
56.450 8.418065
56.455 8.689854
56.460 8.869219
56.465 8.507241
56.470 8.295823
56.475 8.845675
56.480 9.261953
56.485 9.627444
56.490 9.608076
56.495 9.548211
56.500 9.606606
56.505 9.571378
56.510 8.681564
56.515 8.386456
56.520 8.211828
56.525 8.561648
56.530 8.787785
56.535 9.102376
56.540 9.287344
56.545 9.624037
56.550 9.663201
56.555 9.597878
56.560 9.42465
56.565 9.164988
56.570 8.867159
56.575 9.043226
56.580 9.162457
56.585 9.027744
56.590 8.790991
56.595 8.896632
56.600 9.182881
56.605 8.887373
56.610 8.65007
56.615 8.485227
56.620 8.867317
56.625 9.297564
56.630 9.264136
56.635 9.340039
56.640 9.420487
56.645 9.476893
56.650 9.558747
56.655 9.290905
56.660 9.306391
56.665 9.161709
56.670 9.064809
56.675 9.391202
56.680 9.191053
56.685 9.087387
56.690 9.264109
56.695 9.604433
56.700 9.83811
56.705 10.25359
56.710 10.147287
56.715 10.684647
56.720 10.915755
56.725 10.729861
56.730 10.746205
56.735 10.840887
56.740 10.560106
56.745 10.762347
56.750 10.649545
56.755 10.993108
56.760 10.724357
56.765 10.706796
56.770 10.781562
56.775 10.459832
56.780 10.15778
56.785 9.685421
56.790 9.667494
56.795 9.909919
56.800 9.160439
56.805 9.034816
56.810 9.47199
56.815 9.520952
56.820 9.506166
56.825 9.589751
56.830 9.729048
56.835 9.699862
56.840 10.042125
56.845 10.488119
56.850 10.744786
56.855 10.725282
56.860 10.244649
56.865 10.13182
56.870 10.144674
56.875 9.7581
56.880 9.404578
56.885 9.425089
56.890 9.326105
56.895 9.363035
56.900 9.221867
56.905 9.350552
56.910 9.374874
56.915 9.349783
56.920 9.606803
56.925 9.873735
56.930 10.135236
56.935 10.25734
56.940 9.834668
56.945 9.856108
56.950 10.137974
56.955 10.242182
56.960 10.129995
56.965 9.819026
56.970 9.825572
56.975 10.582954
56.980 10.831556
56.985 10.570338
56.990 10.603746
56.995 10.764643
57.000 11.107296
57.005 11.184147
57.010 10.846397
57.015 10.730503
57.020 10.765995
57.025 10.900275
57.030 10.344493
57.035 10.276379
57.040 10.655557
57.045 11.037258
57.050 11.139503
57.055 10.498041
57.060 10.564033
57.065 10.982483
57.070 11.031793
57.075 10.481747
57.080 9.800025
57.085 9.849702
57.090 10.247622
57.095 10.2105
57.100 10.357883
57.105 10.240994
57.110 10.321996
57.115 10.490703
57.120 9.945415
57.125 9.63364
57.130 9.602383
57.135 9.522819
57.140 9.21518
57.145 8.898495
57.150 8.862547
57.155 8.807656
57.160 8.804802
57.165 8.75985
57.170 9.030671
57.175 9.79126
57.180 10.300389
57.185 10.467879
57.190 10.622136
57.195 10.356278
57.200 10.066433
57.205 9.732104
57.210 9.145077
57.215 8.879867
57.220 9.068379
57.225 9.380143
57.230 9.433317
57.235 9.605649
57.240 9.533108
57.245 10.080601
57.250 10.028907
57.255 10.204328
57.260 10.343956
57.265 10.337075
57.270 10.56555
57.275 10.428772
57.280 10.298447
57.285 10.528405
57.290 10.112907
57.295 10.20986
57.300 10.615141
57.305 10.444098
57.310 10.443128
57.315 10.423836
57.320 10.5046
57.325 10.644686
57.330 10.599085
57.335 10.55737
57.340 10.800902
57.345 11.264368
57.350 11.412738
57.355 11.388732
57.360 11.416471
57.365 11.5483
57.370 11.554652
57.375 11.603799
57.380 11.04189
57.385 11.379235
57.390 11.407886
57.395 11.360751
57.400 11.021206
57.405 10.727132
57.410 11.057087
57.415 11.076972
57.420 10.547353
57.425 10.446469
57.430 10.747623
57.435 11.073441
57.440 10.906767
57.445 10.600883
57.450 10.708608
57.455 11.040496
57.460 11.149531
57.465 11.262721
57.470 10.982125
57.475 10.932698
57.480 10.978624
57.485 10.77458
57.490 10.187778
57.495 9.980955
57.500 9.732323
57.505 9.419559
57.510 9.320697
57.515 9.622123
57.520 9.944177
57.525 10.356321
57.530 10.126328
57.535 10.052475
57.540 10.482546
57.545 10.433504
57.550 10.200717
57.555 10.101046
57.560 10.310472
57.565 10.961144
57.570 11.281014
57.575 11.338921
57.580 11.846057
57.585 11.895792
57.590 12.083952
57.595 11.995898
57.600 11.884279
57.605 11.784454
57.610 11.965783
57.615 11.58994
57.620 11.636479
57.625 11.983279
57.630 12.01356
57.635 11.762472
57.640 11.562045
57.645 11.048644
57.650 11.020347
57.655 10.473534
57.660 10.022847
57.665 9.923753
57.670 10.2081
57.675 10.416297
57.680 10.437489
57.685 10.718101
57.690 10.954333
57.695 10.888988
57.700 11.142374
57.705 11.196547
57.710 11.625587
57.715 12.058044
57.720 12.194048
57.725 11.916843
57.730 11.477325
57.735 11.144877
57.740 11.012051
57.745 10.75581
57.750 10.750161
57.755 10.554569
57.760 11.179535
57.765 11.592585
57.770 11.43249
57.775 11.22958
57.780 11.393772
57.785 11.685479
57.790 11.828304
57.795 11.603782
57.800 11.562901
57.805 11.6133
57.810 11.445114
57.815 11.267276
57.820 10.797541
57.825 10.890071
57.830 11.316198
57.835 11.215767
57.840 11.008104
57.845 11.410664
57.850 11.590226
57.855 11.586545
57.860 11.576993
57.865 10.923891
57.870 10.903182
57.875 11.312367
57.880 11.195336
57.885 11.172161
57.890 11.469832
57.895 11.575571
57.900 11.895227
57.905 11.901772
57.910 11.834003
57.915 11.567166
57.920 11.733089
57.925 11.4842
57.930 11.324325
57.935 11.464047
57.940 11.426428
57.945 11.1602
57.950 11.354517
57.955 11.120228
57.960 11.30777
57.965 11.547632
57.970 11.44831
57.975 12.017179
57.980 12.2952
57.985 12.637076
57.990 12.441273
57.995 12.403005
58.000 12.270946
58.005 12.509434
58.010 12.625104
58.015 12.350305
58.020 12.049286
58.025 12.240826
58.030 12.395846
58.035 12.596346
58.040 12.237345
58.045 12.110301
58.050 12.522048
58.055 12.906211
58.060 12.946159
58.065 12.7252
58.070 12.474383
58.075 12.525927
58.080 12.151617
58.085 11.936513
58.090 11.314889
58.095 11.7933
58.100 12.1674
58.105 12.074739
58.110 12.429247
58.115 12.558662
58.120 12.542629
58.125 12.736097
58.130 12.002468
58.135 11.539472
58.140 11.470465
58.145 10.989517
58.150 10.938941
58.155 11.176588
58.160 11.274494
58.165 11.745544
58.170 12.432062
58.175 12.560292
58.180 12.476398
58.185 12.598287
58.190 12.807513
58.195 13.201149
58.200 12.94857
58.205 12.580315
58.210 12.775395
58.215 13.075518
58.220 12.913036
58.225 13.00106
58.230 12.77968
58.235 12.309898
58.240 12.572149
58.245 12.889359
58.250 13.470811
58.255 13.082055
58.260 12.681517
58.265 12.588216
58.270 13.071644
58.275 13.427518
58.280 12.777962
58.285 11.980427
58.290 12.238189
58.295 12.628539
58.300 13.013087
58.305 13.159092
58.310 12.911116
58.315 13.205014
58.320 14.159554
58.325 14.406609
58.330 13.905828
58.335 14.113333
58.340 14.2721
58.345 14.466285
58.350 14.487588
58.355 14.326583
58.360 14.5498
58.365 14.971811
58.370 15.225678
58.375 15.003093
58.380 15.103587
58.385 15.310815
58.390 15.212729
58.395 14.78967
58.400 14.639981
58.405 14.675696
58.410 14.768847
58.415 14.306428
58.420 13.899951
58.425 14.467792
58.430 15.35251
58.435 15.446374
58.440 15.597469
58.445 16.131145
58.450 17.044836
58.455 18.215424
58.460 18.528
58.465 18.721643
58.470 19.083202
58.475 19.445587
58.480 19.852015
58.485 19.899845
58.490 20.00824
58.495 20.209276
58.500 19.980936
58.505 19.872717
58.510 19.521351
58.515 19.297638
58.520 19.895741
58.525 20.314671
58.530 20.262222
58.535 20.848259
58.540 21.138676
58.545 22.002464
58.550 22.605221
58.555 22.627277
58.560 22.861271
58.565 23.254738
58.570 23.574146
58.575 23.474188
58.580 23.352747
58.585 23.513531
58.590 24.058132
58.595 24.780247
58.600 25.006521
58.605 25.39728
58.610 25.750092
58.615 25.983814
58.620 26.250578
58.625 26.278336
58.630 26.779684
58.635 27.123659
58.640 27.476162
58.645 27.483458
58.650 27.184664
58.655 26.853355
58.660 27.636204
58.665 26.634516
