!@!!GADDS PLOTSO FILE: Chi integration type
!@!!Title/SampleName: map-83
!@!!Comment: ?
!@!!User: Bruker Instrument Administrator
!@!!Site: University of Illinois Chicago
!@!!Frame: map-83_01_000.gfrm
!@!!Wavelengths    1.54184   1.54056   1.54439
!@!!Frame angles: 2Theta: 63.000 Omega: 50.000 Phi: 0.000 Chi: 90.000
!@!!Integration range: 2Theta: 53.000 to 73.000  Gamma: -105.000 to -75.000
!@!!Integration method: bin normalized
!@!N
!@!SS
!@!M
!@!L 0.0 0.0 0.0 0.0
!@!XDegrees
!@!YCounts
53.000 7.293145
53.005 7.246057
53.010 7.323301
53.015 7.414233
53.020 7.656074
53.025 7.92141
53.030 8.01289
53.035 8.553582
53.040 8.558702
53.045 8.521932
53.050 8.426534
53.055 8.279779
53.060 7.963471
53.065 7.531566
53.070 7.213773
53.075 7.052424
53.080 7.009356
53.085 7.114733
53.090 7.589431
53.095 8.235653
53.100 8.808576
53.105 8.883011
53.110 9.148755
53.115 9.239317
53.120 9.13968
53.125 8.828919
53.130 8.67016
53.135 8.74443
53.140 8.970094
53.145 8.944831
53.150 9.16536
53.155 9.122131
53.160 8.780361
53.165 8.563131
53.170 8.453252
53.175 8.367931
53.180 7.943632
53.185 7.620822
53.190 7.874092
53.195 8.046267
53.200 7.580224
53.205 7.492185
53.210 7.650134
53.215 7.90378
53.220 8.177324
53.225 8.20729
53.230 8.273058
53.235 8.518449
53.240 8.44352
53.245 8.853923
53.250 9.403662
53.255 9.30617
53.260 9.444486
53.265 9.836542
53.270 10.027916
53.275 10.029872
53.280 9.898997
53.285 9.829974
53.290 9.853938
53.295 9.592697
53.300 9.390355
53.305 9.373551
53.310 9.461051
53.315 8.860202
53.320 8.439505
53.325 8.340174
53.330 8.435896
53.335 8.376612
53.340 8.262532
53.345 8.298469
53.350 8.75168
53.355 8.984059
53.360 9.418308
53.365 9.58847
53.370 9.577548
53.375 9.787043
53.380 9.77949
53.385 9.019275
53.390 8.731386
53.395 8.530074
53.400 8.108395
53.405 7.758422
53.410 7.480343
53.415 7.607605
53.420 8.148535
53.425 8.161443
53.430 8.428736
53.435 8.665107
53.440 8.958466
53.445 8.498235
53.450 8.150809
53.455 8.394115
53.460 8.523051
53.465 8.328032
53.470 8.569395
53.475 9.254343
53.480 9.790355
53.485 10.137554
53.490 9.698795
53.495 9.364635
53.500 9.167746
53.505 8.887265
53.510 8.590899
53.515 8.668738
53.520 8.589982
53.525 8.917301
53.530 9.30854
53.535 9.282474
53.540 9.557995
53.545 9.325389
53.550 8.951805
53.555 9.205889
53.560 9.229774
53.565 9.208225
53.570 9.362906
53.575 9.204179
53.580 9.458107
53.585 9.709567
53.590 9.274881
53.595 9.271543
53.600 8.792441
53.605 8.590547
53.610 8.756849
53.615 8.706252
53.620 9.192875
53.625 9.526157
53.630 9.418336
53.635 10.19091
53.640 10.326275
53.645 10.177179
53.650 10.177674
53.655 9.99792
53.660 10.133359
53.665 10.696057
53.670 10.401524
53.675 10.069908
53.680 10.320226
53.685 10.258779
53.690 10.01633
53.695 9.702127
53.700 9.390842
53.705 9.474568
53.710 9.670464
53.715 9.579555
53.720 9.587813
53.725 9.759192
53.730 10.106493
53.735 10.437928
53.740 10.839264
53.745 10.989383
53.750 10.846547
53.755 10.884074
53.760 10.132329
53.765 9.760685
53.770 9.522058
53.775 9.503793
53.780 9.587975
53.785 9.662219
53.790 9.644027
53.795 10.032331
53.800 10.182138
53.805 10.296876
53.810 10.091025
53.815 10.01123
53.820 10.191677
53.825 10.259368
53.830 10.28528
53.835 10.109702
53.840 10.123822
53.845 10.048487
53.850 10.064573
53.855 9.834219
53.860 9.627227
53.865 9.188769
53.870 8.835138
53.875 8.603518
53.880 8.427662
53.885 8.534971
53.890 8.746325
53.895 9.027378
53.900 9.352228
53.905 9.336831
53.910 9.416853
53.915 9.489757
53.920 9.432725
53.925 9.342408
53.930 9.470137
53.935 10.138424
53.940 10.297092
53.945 10.446143
53.950 10.315247
53.955 9.945395
53.960 10.395531
53.965 10.51028
53.970 10.298635
53.975 9.715629
53.980 9.60174
53.985 9.994116
53.990 10.375049
53.995 10.279415
54.000 10.381693
54.005 10.218528
54.010 10.639774
54.015 10.572685
54.020 10.247964
54.025 10.209998
54.030 9.752668
54.035 9.734828
54.040 9.662016
54.045 9.784207
54.050 9.459873
54.055 9.396642
54.060 9.468669
54.065 9.396996
54.070 9.573806
54.075 9.721898
54.080 9.802
54.085 10.394671
54.090 10.166874
54.095 9.725739
54.100 9.710687
54.105 9.766922
54.110 9.59941
54.115 9.358202
54.120 9.243699
54.125 9.361462
54.130 9.662811
54.135 9.519147
54.140 9.424841
54.145 9.811624
54.150 10.120123
54.155 9.942896
54.160 9.714532
54.165 9.879922
54.170 9.946663
54.175 9.622017
54.180 9.08005
54.185 8.890861
54.190 9.075996
54.195 9.574447
54.200 9.803189
54.205 9.895082
54.210 10.337874
54.215 10.201855
54.220 10.403739
54.225 10.493351
54.230 10.20867
54.235 10.431942
54.240 10.354258
54.245 10.448609
54.250 10.57735
54.255 10.386412
54.260 10.643074
54.265 10.51586
54.270 9.947251
54.275 10.311441
54.280 10.331076
54.285 10.565198
54.290 10.81291
54.295 10.4218
54.300 10.743155
54.305 10.814787
54.310 10.760858
54.315 10.611443
54.320 10.538347
54.325 10.501978
54.330 10.615976
54.335 9.936539
54.340 9.714895
54.345 9.828815
54.350 10.047612
54.355 9.937929
54.360 9.851569
54.365 9.612524
54.370 9.579711
54.375 9.405867
54.380 9.271905
54.385 9.165019
54.390 8.800832
54.395 8.912554
54.400 9.436611
54.405 9.970606
54.410 10.316985
54.415 10.282803
54.420 10.590044
54.425 10.868144
54.430 11.105478
54.435 11.242394
54.440 11.256478
54.445 11.309537
54.450 11.673382
54.455 11.557495
54.460 11.637976
54.465 11.396003
54.470 11.019563
54.475 11.061392
54.480 10.626336
54.485 9.884617
54.490 9.623386
54.495 9.704605
54.500 9.604074
54.505 9.316305
54.510 9.410294
54.515 9.923434
54.520 10.477199
54.525 10.75145
54.530 10.526523
54.535 10.800987
54.540 10.852781
54.545 10.40099
54.550 10.187836
54.555 9.823899
54.560 9.501267
54.565 9.818482
54.570 9.926826
54.575 10.30564
54.580 10.445977
54.585 10.782988
54.590 10.652122
54.595 10.274303
54.600 9.827544
54.605 9.556696
54.610 9.403998
54.615 9.560252
54.620 9.7834
54.625 10.444621
54.630 10.987024
54.635 11.204573
54.640 11.134682
54.645 11.041229
54.650 10.881232
54.655 10.709805
54.660 10.306573
54.665 10.220378
54.670 10.036741
54.675 9.702862
54.680 9.595242
54.685 9.132197
54.690 9.03481
54.695 9.233335
54.700 9.224555
54.705 9.377278
54.710 9.813288
54.715 9.877882
54.720 10.475453
54.725 10.559465
54.730 10.419026
54.735 10.69818
54.740 10.880785
54.745 11.027106
54.750 10.973688
54.755 10.486721
54.760 10.084133
54.765 10.167924
54.770 10.236402
54.775 10.367355
54.780 10.452848
54.785 10.790036
54.790 11.202693
54.795 11.415387
54.800 11.478148
54.805 11.355165
54.810 11.007518
54.815 10.834029
54.820 10.421224
54.825 10.872882
54.830 10.541443
54.835 10.368094
54.840 10.294912
54.845 10.453389
54.850 10.969647
54.855 10.793418
54.860 10.502897
54.865 10.546062
54.870 10.812356
54.875 10.861629
54.880 10.632661
54.885 10.35856
54.890 10.909149
54.895 11.394519
54.900 11.807897
54.905 11.411683
54.910 11.357
54.915 11.792419
54.920 11.676583
54.925 11.73958
54.930 11.736704
54.935 11.827584
54.940 12.083442
54.945 12.002918
54.950 11.594369
54.955 11.146409
54.960 10.932364
54.965 10.552522
54.970 10.369898
54.975 10.495467
54.980 10.763759
54.985 11.542561
54.990 12.050025
54.995 11.848425
55.000 11.744942
55.005 12.225809
55.010 12.15604
55.015 11.747299
55.020 11.474444
55.025 11.39339
55.030 11.521822
55.035 11.138281
55.040 10.885716
55.045 11.122351
55.050 10.951021
55.055 11.033183
55.060 10.628467
55.065 10.761448
55.070 10.973986
55.075 10.653382
55.080 10.56741
55.085 10.816952
55.090 10.622419
55.095 10.725189
55.100 10.817206
55.105 10.809107
55.110 10.891521
55.115 10.953585
55.120 10.813694
55.125 10.677998
55.130 10.53371
55.135 10.721539
55.140 10.958566
55.145 11.417521
55.150 11.010241
55.155 11.178342
55.160 11.432773
55.165 11.362745
55.170 11.437613
55.175 11.05726
55.180 10.812499
55.185 11.063459
55.190 10.746971
55.195 10.435989
55.200 10.833293
55.205 10.950577
55.210 11.081162
55.215 11.471486
55.220 11.634142
55.225 11.879505
55.230 11.690433
55.235 11.5029
55.240 11.208405
55.245 10.923394
55.250 10.524872
55.255 10.784923
55.260 11.453083
55.265 11.880541
55.270 11.806613
55.275 11.533046
55.280 11.162436
55.285 11.249601
55.290 11.055376
55.295 10.698519
55.300 10.21652
55.305 10.151428
55.310 10.780669
55.315 11.327561
55.320 11.49029
55.325 12.107919
55.330 12.248857
55.335 12.516981
55.340 12.230297
55.345 12.153164
55.350 11.867364
55.355 11.477241
55.360 10.808864
55.365 10.398825
55.370 10.538338
55.375 10.642548
55.380 10.391708
55.385 10.897796
55.390 10.765903
55.395 11.295466
55.400 11.987706
55.405 11.646681
55.410 11.66117
55.415 11.209667
55.420 10.471746
55.425 10.239915
55.430 9.485191
55.435 9.224838
55.440 9.769575
55.445 10.239904
55.450 10.683816
55.455 11.212545
55.460 11.686919
55.465 11.623815
55.470 11.51101
55.475 11.406801
55.480 11.331532
55.485 11.597583
55.490 11.366143
55.495 11.708014
55.500 11.777719
55.505 11.720731
55.510 11.627259
55.515 11.451715
55.520 11.255994
55.525 11.370339
55.530 10.981791
55.535 11.186143
55.540 11.459265
55.545 11.683015
55.550 11.596047
55.555 11.926173
55.560 11.875051
55.565 11.914941
55.570 11.79051
55.575 11.275108
55.580 11.145199
55.585 10.703357
55.590 10.324271
55.595 10.327872
55.600 10.264133
55.605 10.361208
55.610 10.628138
55.615 10.789097
55.620 11.038638
55.625 10.90427
55.630 10.649409
55.635 10.85811
55.640 10.924498
55.645 10.924508
55.650 11.035394
55.655 11.168983
55.660 11.221879
55.665 10.923201
55.670 10.621291
55.675 10.633065
55.680 10.486524
55.685 10.692018
55.690 10.674983
55.695 10.654809
55.700 10.503375
55.705 10.575006
55.710 10.42844
55.715 10.409653
55.720 10.195206
55.725 10.199735
55.730 10.403443
55.735 10.768816
55.740 10.908551
55.745 11.162639
55.750 11.25557
55.755 11.483649
55.760 11.620122
55.765 11.64396
55.770 11.876003
55.775 11.75935
55.780 11.38493
55.785 10.988967
55.790 11.222021
55.795 11.156535
55.800 11.197083
55.805 11.03878
55.810 10.993724
55.815 11.300868
55.820 11.729736
55.825 11.565301
55.830 11.436772
55.835 11.481652
55.840 11.342728
55.845 11.603415
55.850 11.526562
55.855 11.625862
55.860 11.46599
55.865 11.626007
55.870 11.744906
55.875 11.917893
55.880 11.933885
55.885 11.628308
55.890 11.817472
55.895 11.908809
55.900 11.577731
55.905 11.611298
55.910 12.041873
55.915 11.90738
55.920 11.82095
55.925 11.590363
55.930 12.08663
55.935 12.132647
55.940 12.723859
55.945 13.610471
55.950 14.022029
55.955 14.209621
55.960 14.247236
55.965 13.969373
55.970 14.022447
55.975 13.220842
55.980 11.954422
55.985 11.94478
55.990 11.650549
55.995 11.394506
56.000 11.505458
56.005 11.606713
56.010 11.580389
56.015 11.825066
56.020 11.632919
56.025 11.418871
56.030 11.435886
56.035 10.999788
56.040 11.010045
56.045 11.12095
56.050 11.155523
56.055 11.38471
56.060 11.787586
56.065 11.9131
56.070 12.370808
56.075 12.233211
56.080 12.725148
56.085 12.576732
56.090 12.547456
56.095 12.247101
56.100 11.9176
56.105 11.81259
56.110 11.412267
56.115 10.982326
56.120 11.158046
56.125 10.845531
56.130 11.179656
56.135 11.098197
56.140 10.996913
56.145 11.459573
56.150 11.586428
56.155 11.574562
56.160 11.431993
56.165 11.70985
56.170 12.229533
56.175 12.579176
56.180 12.25281
56.185 11.619999
56.190 11.589319
56.195 11.853776
56.200 11.689323
56.205 11.551241
56.210 11.824938
56.215 12.082182
56.220 12.264221
56.225 12.438383
56.230 12.31697
56.235 12.115322
56.240 12.228865
56.245 12.359606
56.250 12.286719
56.255 12.500184
56.260 12.507792
56.265 12.724401
56.270 12.61974
56.275 12.420312
56.280 12.249853
56.285 12.215066
56.290 12.400476
56.295 12.664318
56.300 12.83961
56.305 12.88368
56.310 12.824289
56.315 12.657135
56.320 12.377528
56.325 12.103174
56.330 11.972568
56.335 11.894483
56.340 11.755857
56.345 11.678095
56.350 11.785634
56.355 11.89106
56.360 12.076376
56.365 11.901725
56.370 11.905043
56.375 11.918781
56.380 12.071514
56.385 12.322608
56.390 12.335199
56.395 12.113809
56.400 12.034281
56.405 12.277184
56.410 11.896694
56.415 11.760542
56.420 11.697889
56.425 11.531906
56.430 11.610691
56.435 11.62019
56.440 11.883243
56.445 12.212546
56.450 12.269846
56.455 12.173895
56.460 12.464284
56.465 12.760377
56.470 12.593448
56.475 12.452172
56.480 12.587403
56.485 12.895657
56.490 13.562719
56.495 14.123034
56.500 13.90717
56.505 13.750199
56.510 13.861529
56.515 13.795803
56.520 13.632791
56.525 13.134634
56.530 13.29355
56.535 13.443589
56.540 13.665886
56.545 13.508846
56.550 13.762575
56.555 13.24831
56.560 12.823867
56.565 11.699136
56.570 11.090098
56.575 10.428059
56.580 9.80292
56.585 9.501424
56.590 10.297021
56.595 11.045593
56.600 11.429408
56.605 12.105021
56.610 12.204615
56.615 12.32743
56.620 12.194328
56.625 11.481529
56.630 11.516124
56.635 11.641784
56.640 11.940302
56.645 12.598946
56.650 12.878425
56.655 13.370592
56.660 13.333748
56.665 12.851632
56.670 12.477535
56.675 11.997299
56.680 11.728124
56.685 11.502342
56.690 11.177835
56.695 11.107237
56.700 11.468376
56.705 12.403408
56.710 12.714914
56.715 12.941342
56.720 13.341495
56.725 13.528493
56.730 14.380449
56.735 14.619266
56.740 14.228433
56.745 14.681608
56.750 14.614191
56.755 14.184228
56.760 14.506806
56.765 13.754549
56.770 13.107698
56.775 12.358188
56.780 11.498933
56.785 11.4509
56.790 11.398981
56.795 11.177627
56.800 11.322044
56.805 11.627772
56.810 12.44454
56.815 12.658393
56.820 13.176354
56.825 13.492243
56.830 13.353731
56.835 13.085917
56.840 12.962211
56.845 12.480074
56.850 12.463917
56.855 11.502663
56.860 11.477638
56.865 11.695144
56.870 11.89456
56.875 11.870938
56.880 12.642777
56.885 13.21075
56.890 13.69276
56.895 13.516388
56.900 13.406329
56.905 13.703182
56.910 13.884547
56.915 13.295329
56.920 13.049377
56.925 13.002263
56.930 13.157172
56.935 13.213336
56.940 12.905505
56.945 13.367491
56.950 13.32618
56.955 13.120538
56.960 12.918529
56.965 12.767449
56.970 13.098523
56.975 12.972073
56.980 12.442495
56.985 12.782147
56.990 13.269898
56.995 13.9464
57.000 14.27195
57.005 13.958651
57.010 14.281542
57.015 14.421359
57.020 14.290346
57.025 13.968534
57.030 13.290392
57.035 13.192554
57.040 13.707057
57.045 13.695775
57.050 13.644568
57.055 13.815359
57.060 13.857047
57.065 14.054353
57.070 13.779099
57.075 13.913127
57.080 13.920364
57.085 13.386785
57.090 13.093116
57.095 13.113642
57.100 12.917723
57.105 13.114744
57.110 12.819546
57.115 12.957792
57.120 13.099652
57.125 13.261086
57.130 13.160072
57.135 13.505602
57.140 13.268153
57.145 13.013486
57.150 12.724906
57.155 12.726257
57.160 12.264814
57.165 12.450726
57.170 12.52389
57.175 12.416575
57.180 12.925683
57.185 13.383916
57.190 13.663787
57.195 14.171246
57.200 14.591232
57.205 14.608014
57.210 14.398267
57.215 13.656863
57.220 13.420192
57.225 13.617764
57.230 13.492386
57.235 12.945367
57.240 12.594823
57.245 12.59743
57.250 12.686306
57.255 12.397152
57.260 12.309204
57.265 12.189135
57.270 12.398386
57.275 12.818233
57.280 13.54049
57.285 13.752317
57.290 13.5225
57.295 12.75596
57.300 12.424382
57.305 12.302943
57.310 12.052113
57.315 12.087034
57.320 12.46546
57.325 12.382793
57.330 12.949045
57.335 13.016347
57.340 12.666986
57.345 12.413789
57.350 12.012138
57.355 11.519257
57.360 11.901388
57.365 11.84857
57.370 12.294375
57.375 12.397903
57.380 12.507886
57.385 12.744156
57.390 12.898821
57.395 13.246616
57.400 13.329717
57.405 13.382933
57.410 13.944568
57.415 13.888255
57.420 14.395298
57.425 14.428268
57.430 14.111865
57.435 14.412232
57.440 14.634538
57.445 14.271837
57.450 14.161098
57.455 13.787116
57.460 14.734968
57.465 15.006797
57.470 14.684196
57.475 14.368504
57.480 14.533623
57.485 14.795035
57.490 14.785304
57.495 14.305912
57.500 14.229221
57.505 14.298222
57.510 14.372386
57.515 14.120553
57.520 14.440223
57.525 14.277915
57.530 13.685657
57.535 13.499476
57.540 13.235945
57.545 13.392656
57.550 13.873675
57.555 13.679223
57.560 13.625888
57.565 13.70102
57.570 13.548528
57.575 13.823304
57.580 13.732654
57.585 13.580375
57.590 13.838815
57.595 14.067492
57.600 14.592726
57.605 14.971286
57.610 15.214743
57.615 15.027555
57.620 14.568056
57.625 14.406894
57.630 14.047566
57.635 13.160803
57.640 12.820441
57.645 12.574055
57.650 12.614929
57.655 12.185802
57.660 11.981741
57.665 12.686461
57.670 13.486683
57.675 13.555167
57.680 13.629796
57.685 13.596682
57.690 14.151735
57.695 14.200432
57.700 13.78273
57.705 13.373857
57.710 13.129978
57.715 13.705289
57.720 14.16353
57.725 14.455419
57.730 14.733705
57.735 14.265075
57.740 14.56576
57.745 15.133461
57.750 14.836439
57.755 14.92626
57.760 14.670621
57.765 14.082857
57.770 14.53282
57.775 14.39001
57.780 13.973619
57.785 14.187584
57.790 13.85348
57.795 13.634214
57.800 13.439841
57.805 13.052251
57.810 13.367786
57.815 13.225897
57.820 12.51641
57.825 12.403671
57.830 12.655257
57.835 12.976114
57.840 13.456214
57.845 12.949578
57.850 12.976288
57.855 12.871513
57.860 13.110268
57.865 13.349017
57.870 13.544792
57.875 13.695252
57.880 14.257127
57.885 14.60625
57.890 14.399142
57.895 13.828489
57.900 13.861964
57.905 13.314786
57.910 12.583303
57.915 11.972862
57.920 11.731535
57.925 12.030967
57.930 12.302774
57.935 12.12662
57.940 12.522488
57.945 13.075474
57.950 13.431486
57.955 13.404131
57.960 13.686112
57.965 13.713841
57.970 13.767514
57.975 14.237278
57.980 14.574943
57.985 14.511744
57.990 14.847296
57.995 14.960896
58.000 15.2472
58.005 14.942113
58.010 14.491735
58.015 14.400432
58.020 14.11164
58.025 14.192214
58.030 14.331451
58.035 14.309097
58.040 14.30161
58.045 13.949236
58.050 13.851454
58.055 14.01576
58.060 14.007963
58.065 13.704399
58.070 14.071992
58.075 14.807704
58.080 15.122172
58.085 15.029292
58.090 15.111312
58.095 14.687513
58.100 14.578547
58.105 13.982675
58.110 13.520148
58.115 13.456232
58.120 13.561384
58.125 13.994609
58.130 14.546178
58.135 14.457706
58.140 14.378889
58.145 14.832604
58.150 14.668327
58.155 14.097179
58.160 13.410249
58.165 13.635962
58.170 14.280708
58.175 14.743473
58.180 14.51671
58.185 14.217844
58.190 14.853095
58.195 14.93403
58.200 14.650443
58.205 13.928195
58.210 13.266836
58.215 13.027756
58.220 13.048243
58.225 12.503566
58.230 12.666057
58.235 13.084515
58.240 13.704045
58.245 13.562984
58.250 14.167662
58.255 14.639905
58.260 15.249102
58.265 14.871626
58.270 14.003544
58.275 13.790211
58.280 14.188936
58.285 13.907049
58.290 13.772877
58.295 13.748887
58.300 13.715761
58.305 13.928857
58.310 14.109554
58.315 14.17342
58.320 14.067774
58.325 13.595993
58.330 13.470592
58.335 14.078629
58.340 13.981287
58.345 13.747393
58.350 13.969823
58.355 14.407884
58.360 14.453115
58.365 14.261662
58.370 14.16358
58.375 14.358136
58.380 14.505017
58.385 14.122747
58.390 14.348048
58.395 15.163452
58.400 15.420166
58.405 15.503695
58.410 15.412263
58.415 15.248196
58.420 15.289831
58.425 14.831386
58.430 14.309034
58.435 14.013175
58.440 13.83601
58.445 13.82975
58.450 13.656427
58.455 13.278055
58.460 13.575939
58.465 13.93537
58.470 14.248831
58.475 14.51502
58.480 14.898581
58.485 14.841514
58.490 15.280129
58.495 15.274714
58.500 14.857512
58.505 14.525968
58.510 14.102691
