!@!!GADDS PLOTSO FILE: Chi integration type
!@!!Title/SampleName: map-12d
!@!!Comment: ?
!@!!User: Bruker Instrument Administrator
!@!!Site: University of Illinois Chicago
!@!!Frame: map-12d_01_000.gfrm
!@!!Wavelengths    1.54184   1.54056   1.54439
!@!!Frame angles: 2Theta: 63.000 Omega: 50.000 Phi: 0.000 Chi: 90.000
!@!!Integration range: 2Theta: 53.000 to 73.000  Gamma: -105.000 to -75.000
!@!!Integration method: bin normalized
!@!N
!@!SS
!@!M
!@!L 0.0 0.0 0.0 0.0
!@!XDegrees
!@!YCounts
53.000 3.110656
53.005 2.923053
53.010 3.227485
53.015 3.591776
53.020 3.681741
53.025 3.6253
53.030 3.804398
53.035 4.206801
53.040 4.506611
53.045 4.254908
53.050 4.111293
53.055 4.05965
53.060 3.937849
53.065 3.855038
53.070 3.808956
53.075 3.671615
53.080 4.105785
53.085 4.085154
53.090 4.201468
53.095 4.318455
53.100 4.329987
53.105 4.149759
53.110 4.454316
53.115 4.376659
53.120 4.798078
53.125 5.015246
53.130 5.060136
53.135 4.995604
53.140 4.588574
53.145 4.267979
53.150 3.951218
53.155 3.512734
53.160 3.267832
53.165 3.144976
53.170 3.45885
53.175 3.641233
53.180 3.417253
53.185 3.450709
53.190 3.2577
53.195 3.154667
53.200 3.202653
53.205 3.11673
53.210 3.174475
53.215 3.397637
53.220 3.476293
53.225 3.539373
53.230 3.556066
53.235 3.533868
53.240 3.499036
53.245 3.624579
53.250 3.725292
53.255 4.033064
53.260 4.096396
53.265 4.15231
53.270 4.633482
53.275 4.714686
53.280 4.477237
53.285 4.4355
53.290 4.821729
53.295 5.165011
53.300 4.788409
53.305 4.36101
53.310 4.357191
53.315 4.601354
53.320 4.122204
53.325 3.506384
53.330 3.230913
53.335 2.859754
53.340 2.868189
53.345 2.825696
53.350 2.754227
53.355 2.731877
53.360 2.786521
53.365 3.089934
53.370 3.569437
53.375 3.813473
53.380 4.009887
53.385 4.257821
53.390 4.61048
53.395 4.806962
53.400 4.637907
53.405 4.286954
53.410 4.133783
53.415 3.954415
53.420 3.901122
53.425 3.692646
53.430 3.852177
53.435 4.129636
53.440 4.171316
53.445 4.196774
53.450 4.075964
53.455 4.178389
53.460 3.884832
53.465 3.47323
53.470 3.492159
53.475 3.630282
53.480 3.579898
53.485 3.602666
53.490 3.555223
53.495 3.441872
53.500 3.555363
53.505 3.317871
53.510 3.294983
53.515 3.319884
53.520 3.168629
53.525 3.174293
53.530 3.358695
53.535 3.422686
53.540 3.275634
53.545 3.189112
53.550 3.266259
53.555 3.386718
53.560 3.482831
53.565 3.442548
53.570 3.567594
53.575 3.829062
53.580 3.955222
53.585 3.976665
53.590 4.011678
53.595 3.940221
53.600 4.078202
53.605 3.929969
53.610 4.005728
53.615 3.74016
53.620 3.836382
53.625 3.848399
53.630 3.87458
53.635 3.98215
53.640 4.043677
53.645 4.095942
53.650 4.133097
53.655 3.991589
53.660 3.880465
53.665 3.887662
53.670 3.979351
53.675 3.823015
53.680 3.545753
53.685 3.49871
53.690 3.679568
53.695 3.770815
53.700 3.678379
53.705 3.807628
53.710 3.909564
53.715 4.240841
53.720 4.181278
53.725 4.33504
53.730 4.363938
53.735 4.265938
53.740 4.064397
53.745 4.019148
53.750 4.012947
53.755 3.909262
53.760 3.801772
53.765 4.00419
53.770 3.844989
53.775 3.861368
53.780 3.98052
53.785 4.104867
53.790 4.172884
53.795 4.166701
53.800 3.815825
53.805 3.832222
53.810 3.666335
53.815 3.701006
53.820 3.670928
53.825 3.537204
53.830 3.391974
53.835 3.561155
53.840 3.600789
53.845 3.551053
53.850 3.388596
53.855 3.26661
53.860 3.429823
53.865 3.512202
53.870 3.704114
53.875 3.793447
53.880 3.711765
53.885 3.496728
53.890 3.323165
53.895 3.01533
53.900 3.00268
53.905 2.942985
53.910 2.881205
53.915 3.319948
53.920 3.534985
53.925 3.826994
53.930 3.980572
53.935 3.951321
53.940 3.993508
53.945 3.972922
53.950 3.74471
53.955 3.647957
53.960 3.418961
53.965 3.46138
53.970 3.25476
53.975 3.140869
53.980 3.01884
53.985 2.970527
53.990 3.014387
53.995 2.8263
54.000 2.916927
54.005 3.008868
54.010 3.303635
54.015 3.528906
54.020 3.764205
54.025 4.021993
54.030 4.309172
54.035 4.182096
54.040 4.028316
54.045 3.723706
54.050 3.555065
54.055 3.185889
54.060 2.952847
54.065 2.752743
54.070 2.806708
54.075 2.89739
54.080 3.010398
54.085 3.172662
54.090 3.419433
54.095 3.769161
54.100 4.002073
54.105 4.189583
54.110 4.027887
54.115 3.944879
54.120 3.585674
54.125 3.608228
54.130 3.804215
54.135 3.423596
54.140 3.349337
54.145 3.313983
54.150 3.368567
54.155 3.595256
54.160 3.227216
54.165 3.143369
54.170 3.360704
54.175 3.151713
54.180 3.045341
54.185 2.868745
54.190 2.65999
54.195 2.401118
54.200 2.39162
54.205 2.322026
54.210 2.534739
54.215 2.590555
54.220 2.725243
54.225 2.874414
54.230 3.052668
54.235 3.202324
54.240 3.571521
54.245 3.591381
54.250 3.671263
54.255 3.839516
54.260 4.019862
54.265 3.862564
54.270 3.888285
54.275 3.921391
54.280 4.233074
54.285 4.457885
54.290 4.248502
54.295 4.313507
54.300 4.385777
54.305 4.127765
54.310 3.913799
54.315 3.632488
54.320 3.612004
54.325 3.768698
54.330 3.530391
54.335 3.678061
54.340 3.588714
54.345 3.438445
54.350 3.640948
54.355 3.851227
54.360 3.80596
54.365 3.697539
54.370 3.265752
54.375 3.473757
54.380 3.653662
54.385 3.489569
54.390 3.103644
54.395 3.234254
54.400 3.600049
54.405 3.966061
54.410 3.814766
54.415 3.917993
54.420 4.202571
54.425 4.104474
54.430 3.869585
54.435 3.805133
54.440 3.843555
54.445 3.792894
54.450 3.352758
54.455 3.069918
54.460 3.074307
54.465 2.97958
54.470 2.745624
54.475 2.684884
54.480 2.569604
54.485 2.875419
54.490 3.193203
54.495 3.322841
54.500 3.465167
54.505 3.669504
54.510 3.838476
54.515 4.279531
54.520 4.099086
54.525 4.063274
54.530 4.398752
54.535 4.355647
54.540 4.241899
54.545 3.910423
54.550 3.911706
54.555 3.947566
54.560 3.707089
54.565 3.55384
54.570 3.521884
54.575 3.942759
54.580 3.647315
54.585 3.398663
54.590 3.226367
54.595 3.201371
54.600 3.1351
54.605 3.022455
54.610 2.853786
54.615 3.141459
54.620 3.224812
54.625 3.223241
54.630 3.057072
54.635 3.029653
54.640 3.060036
54.645 3.060973
54.650 2.904746
54.655 2.765262
54.660 3.071602
54.665 3.28609
54.670 3.401672
54.675 3.304351
54.680 3.352019
54.685 3.233871
54.690 3.232416
54.695 3.305554
54.700 3.398422
54.705 3.284816
54.710 3.230522
54.715 3.008716
54.720 3.084909
54.725 3.326446
54.730 3.447323
54.735 3.223968
54.740 3.320367
54.745 3.327863
54.750 3.528103
54.755 3.79166
54.760 3.56253
54.765 3.441743
54.770 3.381339
54.775 3.395359
54.780 3.354482
54.785 3.605577
54.790 3.392407
54.795 3.571322
54.800 3.661375
54.805 3.766634
54.810 3.695226
54.815 3.785751
54.820 3.565082
54.825 3.543157
54.830 3.530527
54.835 3.453198
54.840 3.402045
54.845 3.521028
54.850 3.630996
54.855 3.738446
54.860 3.639515
54.865 3.533625
54.870 3.673596
54.875 3.807402
54.880 3.8563
54.885 3.703136
54.890 3.884895
54.895 3.999407
54.900 3.852295
54.905 3.742261
54.910 3.533723
54.915 3.510917
54.920 3.440397
54.925 3.368545
54.930 3.324826
54.935 3.299954
54.940 3.133913
54.945 3.234066
54.950 3.365432
54.955 3.227992
54.960 3.136742
54.965 3.376252
54.970 3.826902
54.975 4.051188
54.980 4.171122
54.985 4.26888
54.990 4.112053
54.995 4.106367
55.000 3.889667
55.005 3.524807
55.010 3.399805
55.015 3.236073
55.020 3.209067
55.025 3.35747
55.030 3.339247
55.035 3.53142
55.040 4.055802
55.045 4.062646
55.050 3.916954
55.055 3.93307
55.060 3.76408
55.065 3.481843
55.070 3.257185
55.075 3.257376
55.080 3.379462
55.085 3.351692
55.090 3.347782
55.095 3.813878
55.100 4.188035
55.105 4.330048
55.110 4.338797
55.115 4.368997
55.120 4.562752
55.125 4.598714
55.130 4.345667
55.135 4.403463
55.140 4.000118
55.145 3.550672
55.150 3.456012
55.155 3.487047
55.160 3.496935
55.165 3.679637
55.170 3.498105
55.175 3.633545
55.180 3.761436
55.185 3.699618
55.190 3.47007
55.195 3.011772
55.200 2.739278
55.205 2.687302
55.210 2.777117
55.215 2.82504
55.220 2.840173
55.225 2.847996
55.230 3.054506
55.235 3.228341
55.240 3.045164
55.245 3.002422
55.250 3.196004
55.255 3.06619
55.260 3.305017
55.265 3.499243
55.270 3.501797
55.275 3.885281
55.280 4.09255
55.285 4.073385
55.290 4.191381
55.295 3.987607
55.300 3.980436
55.305 3.7518
55.310 3.538702
55.315 3.239191
55.320 2.909097
55.325 2.804261
55.330 2.84026
55.335 2.712705
55.340 2.912141
55.345 2.918865
55.350 3.072617
55.355 3.321714
55.360 3.270426
55.365 2.93853
55.370 3.069517
55.375 2.991975
55.380 2.851595
55.385 2.597325
55.390 2.510128
55.395 2.71595
55.400 2.768653
55.405 2.612712
55.410 2.656265
55.415 2.946052
55.420 3.254427
55.425 3.548085
55.430 3.753161
55.435 3.748232
55.440 3.638819
55.445 3.715658
55.450 3.512676
55.455 3.428242
55.460 2.930981
55.465 2.771096
55.470 3.111469
55.475 3.253844
55.480 3.204504
55.485 3.106861
55.490 3.513374
55.495 4.090838
55.500 3.92582
55.505 3.754641
55.510 3.50381
55.515 3.427703
55.520 3.337766
55.525 3.038022
55.530 3.111624
55.535 3.463565
55.540 3.540548
55.545 3.854121
55.550 4.231127
55.555 4.331245
55.560 4.268843
55.565 4.168554
55.570 4.148805
55.575 4.070299
55.580 3.895738
55.585 3.851217
55.590 3.938559
55.595 3.887512
55.600 3.707083
55.605 3.56331
55.610 3.682633
55.615 3.592242
55.620 3.603675
55.625 3.541424
55.630 3.54488
55.635 3.467794
55.640 3.32214
55.645 3.05795
55.650 3.135927
55.655 3.065877
55.660 2.972029
55.665 2.872333
55.670 3.03429
55.675 3.237956
55.680 3.250288
55.685 3.062737
55.690 2.931145
55.695 2.852933
55.700 2.967524
55.705 3.1002
55.710 3.219644
55.715 3.201384
55.720 3.284894
55.725 3.466379
55.730 3.539758
55.735 3.295466
55.740 3.119288
55.745 3.476278
55.750 3.796958
55.755 3.874052
55.760 3.954695
55.765 3.936868
55.770 3.989938
55.775 4.117134
55.780 3.525655
55.785 3.232091
55.790 3.116681
55.795 2.899651
55.800 3.021616
55.805 3.064763
55.810 2.789377
55.815 2.865
55.820 2.872264
55.825 2.913741
55.830 2.932236
55.835 2.858625
55.840 2.922935
55.845 3.064067
55.850 3.194825
55.855 3.245195
55.860 3.292919
55.865 3.776582
55.870 3.847914
55.875 3.68328
55.880 3.514587
55.885 3.483363
55.890 3.498736
55.895 3.332108
55.900 3.091521
55.905 3.165898
55.910 3.221508
55.915 3.211847
55.920 3.273602
55.925 3.161598
55.930 2.976167
55.935 2.689108
55.940 2.64295
55.945 2.805961
55.950 3.245566
55.955 3.209592
55.960 3.382945
55.965 3.452165
55.970 3.35564
55.975 3.446994
55.980 3.239946
55.985 2.87482
55.990 2.851188
55.995 2.996982
56.000 3.23452
56.005 3.284235
56.010 3.273162
56.015 3.244061
56.020 3.342816
56.025 3.316761
56.030 3.245125
56.035 3.117392
56.040 3.112281
56.045 2.8851
56.050 3.072599
56.055 3.211142
56.060 3.144873
56.065 3.05234
56.070 3.210343
56.075 3.253702
56.080 3.68675
56.085 3.736654
56.090 3.583057
56.095 3.657407
56.100 4.010208
56.105 3.958261
56.110 4.041937
56.115 3.811123
56.120 3.503608
56.125 3.55564
56.130 3.447396
56.135 3.169694
56.140 3.060247
56.145 2.883995
56.150 2.901454
56.155 2.964407
56.160 3.01198
56.165 3.112845
56.170 3.075043
56.175 3.289199
56.180 3.274411
56.185 3.122562
56.190 3.241748
56.195 3.394945
56.200 3.38586
56.205 3.532387
56.210 3.52836
56.215 3.469635
56.220 3.678318
56.225 3.515592
56.230 3.584376
56.235 3.611547
56.240 3.510949
56.245 3.506056
56.250 3.711057
56.255 3.88536
56.260 3.930672
56.265 3.837
56.270 4.08133
56.275 4.117155
56.280 4.060059
56.285 3.953692
56.290 4.03938
56.295 4.024962
56.300 4.081727
56.305 3.700845
56.310 3.700743
56.315 3.756284
56.320 3.669986
56.325 3.324752
56.330 3.02053
56.335 3.012734
56.340 3.282943
56.345 3.297185
56.350 3.159985
56.355 3.169178
56.360 3.501397
56.365 3.744734
56.370 3.628646
56.375 3.401802
56.380 3.330218
56.385 3.301345
56.390 3.275441
56.395 3.285063
56.400 3.432106
56.405 3.547326
56.410 3.67295
56.415 3.710694
56.420 3.64536
56.425 3.484946
56.430 3.104988
56.435 2.860784
56.440 2.529922
56.445 2.505213
56.450 2.467369
56.455 2.53013
56.460 2.440381
56.465 2.70945
56.470 3.057424
56.475 3.270641
56.480 3.182159
56.485 3.222752
56.490 3.633382
56.495 4.210892
56.500 4.071605
56.505 3.989728
56.510 3.931059
56.515 4.047698
56.520 3.824165
56.525 3.410872
56.530 2.987077
56.535 3.071493
56.540 3.063942
56.545 3.237967
56.550 3.313787
56.555 3.57591
56.560 3.677815
56.565 3.914216
56.570 4.090104
56.575 3.930252
56.580 3.763236
56.585 3.479133
56.590 3.26912
56.595 3.247532
56.600 2.857848
56.605 2.641527
56.610 2.505378
56.615 2.585314
56.620 3.026757
56.625 3.060824
56.630 3.155476
56.635 3.473314
56.640 3.427993
56.645 3.530211
56.650 3.608188
56.655 3.430621
56.660 3.785732
56.665 3.71875
56.670 3.488858
56.675 3.435455
56.680 3.588101
56.685 3.593193
56.690 3.526048
56.695 3.434129
56.700 3.79659
56.705 4.087959
56.710 4.328158
56.715 4.143371
56.720 4.036942
56.725 4.099099
56.730 3.953772
56.735 3.767823
56.740 3.951056
56.745 4.000603
56.750 4.321801
56.755 4.413687
56.760 4.320699
56.765 4.314697
56.770 4.320813
56.775 4.097206
56.780 3.900021
56.785 3.734217
56.790 3.607352
56.795 3.732951
56.800 3.663779
56.805 3.497788
56.810 3.575871
56.815 3.623742
56.820 3.580083
56.825 3.689398
56.830 3.626713
56.835 3.663197
56.840 3.714657
56.845 3.833245
56.850 3.702954
56.855 3.703404
56.860 3.779845
56.865 4.046166
56.870 3.885506
56.875 3.837725
56.880 3.693677
56.885 3.79117
56.890 3.90611
56.895 3.614172
56.900 3.449885
56.905 3.395425
56.910 3.170901
56.915 3.363005
56.920 3.522023
56.925 3.649513
56.930 3.869456
56.935 3.642281
56.940 3.598708
56.945 3.701371
56.950 3.405722
56.955 3.244022
56.960 3.186359
56.965 3.407083
56.970 3.583339
56.975 3.732496
56.980 3.817955
56.985 3.991985
56.990 4.038693
56.995 3.879051
57.000 3.619822
57.005 3.692905
57.010 3.548562
57.015 3.521735
57.020 3.378968
57.025 3.416068
57.030 3.551632
57.035 3.36037
57.040 3.16251
57.045 3.314589
57.050 3.259229
57.055 3.220026
57.060 3.100083
57.065 2.921297
57.070 2.951981
57.075 3.040568
57.080 3.191919
57.085 2.953715
57.090 2.919699
57.095 2.723164
57.100 2.797003
57.105 2.987772
57.110 2.775442
57.115 2.601096
57.120 2.843799
57.125 2.964733
57.130 3.558592
57.135 3.643157
57.140 3.688714
57.145 3.839603
57.150 3.904934
57.155 3.956131
57.160 4.076355
57.165 3.934036
57.170 3.894389
57.175 3.67914
57.180 3.689121
57.185 3.682432
57.190 3.711051
57.195 3.598261
57.200 3.281501
57.205 3.393822
57.210 3.591329
57.215 3.578032
57.220 3.302377
57.225 3.393841
57.230 3.384429
57.235 3.784494
57.240 3.891946
57.245 4.034153
57.250 3.981989
57.255 3.954806
57.260 3.932004
57.265 3.938454
57.270 3.844135
57.275 3.726124
57.280 3.813044
57.285 3.96248
57.290 4.099687
57.295 3.945121
57.300 3.788526
57.305 3.673233
57.310 3.650651
57.315 3.711538
57.320 3.836897
57.325 4.007916
57.330 4.056053
57.335 4.063713
57.340 3.848256
57.345 3.816302
57.350 3.537971
57.355 3.452031
57.360 3.18206
57.365 3.220915
57.370 3.277728
57.375 3.710368
57.380 4.039968
57.385 4.118358
57.390 4.070803
57.395 4.085269
57.400 4.135112
57.405 3.823221
57.410 3.509625
57.415 3.296561
57.420 3.292743
57.425 3.211868
57.430 3.265997
57.435 3.302637
57.440 3.626377
57.445 3.743119
57.450 3.687279
57.455 3.552268
57.460 3.608805
57.465 3.316998
57.470 3.168956
57.475 3.257955
57.480 3.184349
57.485 3.114123
57.490 3.301721
57.495 3.610237
57.500 3.723511
57.505 3.671587
57.510 3.630093
57.515 3.73442
57.520 3.605546
57.525 3.425795
57.530 3.228686
57.535 3.537799
57.540 3.524915
57.545 3.584932
57.550 3.715424
57.555 3.836679
57.560 3.89214
57.565 4.037486
57.570 3.953771
57.575 3.997607
57.580 3.799696
57.585 3.797278
57.590 3.720199
57.595 3.92765
57.600 3.888504
57.605 3.773828
57.610 3.935643
57.615 3.924426
57.620 3.814175
57.625 3.941423
57.630 3.996845
57.635 4.043596
57.640 3.930665
57.645 3.691342
57.650 3.618521
57.655 3.581322
57.660 3.38935
57.665 3.018463
57.670 2.903788
57.675 3.00197
57.680 3.096074
57.685 3.121277
57.690 3.389757
57.695 4.041824
57.700 4.101389
57.705 4.254138
57.710 4.348947
57.715 4.268324
57.720 4.349771
57.725 4.211297
57.730 4.03952
57.735 3.972169
57.740 3.949943
57.745 4.181863
57.750 4.486605
57.755 4.62792
57.760 4.563302
57.765 4.419239
57.770 4.391704
57.775 4.400286
57.780 4.159548
57.785 3.933321
57.790 3.706182
57.795 3.543505
57.800 3.578463
57.805 3.617118
57.810 3.572992
57.815 3.531618
57.820 3.697175
57.825 3.698143
57.830 3.618909
57.835 3.560245
57.840 3.551863
57.845 3.676025
57.850 3.823333
57.855 4.000566
57.860 4.187759
57.865 4.43478
57.870 4.482953
57.875 4.792836
57.880 4.911827
57.885 4.888466
57.890 4.451982
57.895 4.38357
57.900 4.092307
57.905 3.979287
57.910 3.534528
57.915 3.292191
57.920 3.330566
57.925 3.429237
57.930 3.290288
57.935 3.385797
57.940 3.288955
57.945 3.373859
57.950 3.592315
57.955 3.887383
57.960 4.071831
57.965 4.252467
57.970 4.28718
57.975 4.729547
57.980 4.758664
57.985 4.497148
57.990 4.216455
57.995 3.983117
58.000 3.917181
58.005 3.752179
58.010 3.762001
58.015 3.711432
58.020 3.873378
58.025 4.184014
58.030 4.680055
58.035 5.093776
58.040 5.148625
58.045 5.073474
58.050 4.967388
58.055 4.855667
58.060 4.679681
58.065 4.369197
58.070 4.032872
58.075 3.928085
58.080 4.228535
58.085 4.611374
58.090 4.675151
58.095 4.409182
58.100 4.264866
58.105 4.538331
58.110 4.621548
58.115 4.207954
58.120 4.340238
58.125 4.447987
58.130 4.547263
58.135 4.770975
58.140 4.73719
58.145 4.567645
58.150 4.737
58.155 4.517835
58.160 4.378623
58.165 4.369159
58.170 4.173822
58.175 4.174994
58.180 4.193851
58.185 3.919218
58.190 3.894772
58.195 3.92717
58.200 4.039841
58.205 4.13663
58.210 4.222593
58.215 4.489576
58.220 4.488903
58.225 4.538137
58.230 4.426386
58.235 4.203447
58.240 4.202291
58.245 4.098493
58.250 3.497115
58.255 3.463293
58.260 3.432832
58.265 3.488844
58.270 3.786541
58.275 3.710979
58.280 3.918756
58.285 4.349017
58.290 4.256186
58.295 4.155478
58.300 4.053812
58.305 3.94073
58.310 3.956172
58.315 4.052955
58.320 4.068524
58.325 4.2512
58.330 4.516017
58.335 4.800671
58.340 5.010626
58.345 4.989816
58.350 4.731917
58.355 4.598189
58.360 4.589345
58.365 4.475208
58.370 4.402511
58.375 4.146816
58.380 4.013251
58.385 4.049469
58.390 4.057474
58.395 4.036946
58.400 3.892774
58.405 3.660063
58.410 3.775598
58.415 4.013813
58.420 4.21515
58.425 4.525644
58.430 4.859134
58.435 4.939181
58.440 4.871644
58.445 4.555241
58.450 4.525859
58.455 4.670138
58.460 4.67324
58.465 4.646674
58.470 4.695753
58.475 4.829103
58.480 5.168464
58.485 5.154388
58.490 4.682368
58.495 4.43706
58.500 4.189533
58.505 4.100502
58.510 4.091038
58.515 3.667549
58.520 3.420706
58.525 3.56515
58.530 3.641892
58.535 3.796413
58.540 3.827027
58.545 3.907752
58.550 4.210576
58.555 4.484324
58.560 4.259818
58.565 4.150705
58.570 4.079322
58.575 4.243735
58.580 4.10825
58.585 3.941759
58.590 3.93242
58.595 4.2312
58.600 4.600523
58.605 4.669851
58.610 4.480762
58.615 4.678593
58.620 4.626059
58.625 4.744428
58.630 4.795744
58.635 4.200597
58.640 4.028819
58.645 4.159328
58.650 4.035622
58.655 4.130758
58.660 4.030258
58.665 3.722564
58.670 3.999868
58.675 4.407637
58.680 4.485322
58.685 4.55227
58.690 4.568844
58.695 4.6318
58.700 5.00149
58.705 4.948821
58.710 4.644608
58.715 4.685725
58.720 4.632257
58.725 4.661501
58.730 4.494023
58.735 4.506258
58.740 4.396724
58.745 4.561087
58.750 4.579405
58.755 4.831553
58.760 4.929305
58.765 4.889686
