!@!!GADDS PLOTSO FILE: Chi integration type
!@!!Title/SampleName: map-fa
!@!!Comment: ?
!@!!User: Bruker Instrument Administrator
!@!!Site: University of Illinois Chicago
!@!!Frame: map-fa_01_000.gfrm
!@!!Wavelengths    1.54184   1.54056   1.54439
!@!!Frame angles: 2Theta: 63.000 Omega: 50.000 Phi: 0.000 Chi: 90.000
!@!!Integration range: 2Theta: 53.000 to 73.000  Gamma: -105.000 to -75.000
!@!!Integration method: bin normalized
!@!N
!@!SS
!@!M
!@!L 0.0 0.0 0.0 0.0
!@!XDegrees
!@!YCounts
53.000 4.772168
53.005 5.097014
53.010 5.399402
53.015 5.329948
53.020 5.453141
53.025 5.449442
53.030 5.268445
53.035 5.547664
53.040 5.166464
53.045 5.19079
53.050 5.68338
53.055 5.796348
53.060 6.156535
53.065 5.854348
53.070 5.718874
53.075 5.6924
53.080 5.42361
53.085 5.375047
53.090 5.089691
53.095 5.025997
53.100 5.086923
53.105 4.903522
53.110 4.770779
53.115 4.614531
53.120 4.819024
53.125 4.999562
53.130 5.131428
53.135 5.129585
53.140 4.790413
53.145 4.749804
53.150 4.678065
53.155 4.429749
53.160 4.337934
53.165 4.446926
53.170 5.182654
53.175 5.882607
53.180 5.992848
53.185 6.076392
53.190 6.196693
53.195 6.268945
53.200 6.021113
53.205 5.688946
53.210 5.530463
53.215 5.653068
53.220 5.687623
53.225 5.295244
53.230 5.237781
53.235 5.15205
53.240 4.869044
53.245 4.844494
53.250 4.787515
53.255 5.030508
53.260 5.467267
53.265 5.29282
53.270 5.174425
53.275 5.203545
53.280 5.000874
53.285 4.694645
53.290 4.51007
53.295 4.316182
53.300 4.687757
53.305 4.845202
53.310 4.94877
53.315 5.250449
53.320 5.424819
53.325 5.12768
53.330 5.022511
53.335 4.828185
53.340 4.638973
53.345 4.498534
53.350 4.325357
53.355 4.441671
53.360 4.77585
53.365 4.940621
53.370 4.989013
53.375 5.29026
53.380 5.34122
53.385 5.711586
53.390 5.756139
53.395 5.634553
53.400 5.638884
53.405 6.073926
53.410 5.644442
53.415 5.373204
53.420 4.940729
53.425 5.005962
53.430 5.35921
53.435 5.112934
53.440 4.890975
53.445 5.120282
53.450 5.529654
53.455 5.8135
53.460 5.327071
53.465 4.859223
53.470 4.820414
53.475 4.784605
53.480 4.875773
53.485 4.639779
53.490 4.669151
53.495 4.905698
53.500 4.983742
53.505 4.988051
53.510 5.150741
53.515 5.006636
53.520 5.013121
53.525 4.717483
53.530 4.501986
53.535 4.55656
53.540 4.615304
53.545 4.784822
53.550 4.780255
53.555 4.938509
53.560 5.280738
53.565 5.367113
53.570 5.460286
53.575 5.190938
53.580 5.128161
53.585 5.23461
53.590 5.300196
53.595 5.505647
53.600 5.557412
53.605 5.663017
53.610 5.668796
53.615 5.899293
53.620 5.882759
53.625 5.607732
53.630 5.719418
53.635 5.589515
53.640 5.520711
53.645 5.63865
53.650 5.175902
53.655 5.381832
53.660 5.216444
53.665 5.045699
53.670 5.314788
53.675 5.275444
53.680 5.174649
53.685 5.193032
53.690 4.849124
53.695 5.122828
53.700 5.267996
53.705 5.049356
53.710 5.525119
53.715 5.711859
53.720 5.669768
53.725 5.982339
53.730 5.913368
53.735 5.769773
53.740 5.76337
53.745 5.239563
53.750 5.288217
53.755 5.146318
53.760 5.035259
53.765 5.138828
53.770 5.646289
53.775 5.943437
53.780 6.029657
53.785 6.203838
53.790 6.526273
53.795 6.354407
53.800 5.66853
53.805 5.331245
53.810 5.264119
53.815 5.255036
53.820 5.327343
53.825 5.191402
53.830 5.202468
53.835 5.640798
53.840 5.826417
53.845 5.721345
53.850 5.705135
53.855 5.396019
53.860 5.41412
53.865 5.500976
53.870 5.213007
53.875 5.335004
53.880 5.696742
53.885 5.568168
53.890 6.011737
53.895 6.613142
53.900 6.671763
53.905 6.905156
53.910 6.83319
53.915 6.796425
53.920 6.736936
53.925 6.464968
53.930 6.09704
53.935 6.088542
53.940 5.754053
53.945 5.671919
53.950 5.646475
53.955 5.816822
53.960 5.594651
53.965 5.522403
53.970 5.524576
53.975 5.513826
53.980 5.495365
53.985 5.756969
53.990 5.684875
53.995 5.91883
54.000 5.716518
54.005 5.32629
54.010 5.734565
54.015 5.656139
54.020 5.525822
54.025 5.567732
54.030 5.644804
54.035 5.99343
54.040 5.975223
54.045 5.457486
54.050 5.216678
54.055 5.265253
54.060 5.189066
54.065 5.250623
54.070 5.238062
54.075 5.499312
54.080 5.626052
54.085 5.666911
54.090 5.740211
54.095 5.843202
54.100 5.841678
54.105 5.798667
54.110 5.62808
54.115 5.922453
54.120 6.145607
54.125 6.567227
54.130 6.365582
54.135 6.14743
54.140 6.219691
54.145 6.252177
54.150 5.968734
54.155 5.463011
54.160 5.186364
54.165 5.110304
54.170 5.509204
54.175 5.840088
54.180 5.987432
54.185 5.947769
54.190 5.951364
54.195 6.139171
54.200 6.346617
54.205 6.257478
54.210 5.910841
54.215 5.713805
54.220 5.858524
54.225 6.065245
54.230 6.399199
54.235 6.919299
54.240 7.058629
54.245 7.542693
54.250 7.453121
54.255 7.071547
54.260 7.087929
54.265 6.524717
54.270 6.088668
54.275 5.607898
54.280 5.21541
54.285 5.704317
54.290 5.83515
54.295 5.629764
54.300 5.629777
54.305 5.713092
54.310 6.048513
54.315 6.35758
54.320 6.453084
54.325 6.440317
54.330 6.251376
54.335 6.168212
54.340 6.356621
54.345 6.317526
54.350 6.397975
54.355 6.097663
54.360 6.376358
54.365 6.231249
54.370 6.23956
54.375 6.034873
54.380 5.932078
54.385 5.875051
54.390 6.186336
54.395 6.257404
54.400 6.786605
54.405 6.960841
54.410 6.953776
54.415 6.808643
54.420 6.492562
54.425 6.288681
54.430 6.499152
54.435 6.450193
54.440 6.606947
54.445 7.032282
54.450 7.462918
54.455 7.597942
54.460 7.542238
54.465 7.40866
54.470 7.1474
54.475 7.046772
54.480 6.846812
54.485 6.796835
54.490 6.752372
54.495 6.573594
54.500 6.517992
54.505 6.36421
54.510 6.037992
54.515 6.267469
54.520 6.11887
54.525 6.328211
54.530 6.247156
54.535 6.317648
54.540 6.420926
54.545 6.443742
54.550 6.052622
54.555 6.2278
54.560 6.34229
54.565 6.290138
54.570 6.443176
54.575 6.388101
54.580 6.430922
54.585 6.752762
54.590 6.557437
54.595 6.661323
54.600 7.04732
54.605 6.904816
54.610 6.732177
54.615 6.801411
54.620 6.731156
54.625 6.668685
54.630 6.272005
54.635 6.019321
54.640 6.51275
54.645 6.87258
54.650 6.861008
54.655 6.858309
54.660 6.952091
54.665 7.267978
54.670 7.501686
54.675 7.14317
54.680 7.140484
54.685 6.98842
54.690 6.782064
54.695 6.824531
54.700 6.571187
54.705 6.297769
54.710 6.087653
54.715 5.725929
54.720 5.921122
54.725 6.101146
54.730 6.030271
54.735 5.727309
54.740 5.868556
54.745 6.318069
54.750 6.561237
54.755 6.489133
54.760 6.669008
54.765 7.107572
54.770 7.620651
54.775 7.78119
54.780 7.819027
54.785 7.568113
54.790 7.445827
54.795 7.255642
54.800 7.199385
54.805 7.382308
54.810 6.851257
54.815 6.678322
54.820 6.937207
54.825 7.095935
54.830 7.144669
54.835 6.890715
54.840 6.609607
54.845 6.88438
54.850 6.833454
54.855 6.677256
54.860 6.62772
54.865 6.487425
54.870 6.486413
54.875 6.544538
54.880 6.631243
54.885 6.522408
54.890 6.720758
54.895 6.777033
54.900 6.873455
54.905 6.727285
54.910 6.848087
54.915 7.249851
54.920 7.312734
54.925 7.298352
54.930 7.33526
54.935 7.499057
54.940 7.557384
54.945 7.047131
54.950 6.787917
54.955 6.924868
54.960 7.221369
54.965 6.966681
54.970 6.344574
54.975 6.155103
54.980 6.431001
54.985 6.537757
54.990 5.941955
54.995 5.565149
55.000 5.741346
55.005 6.126369
55.010 6.259242
55.015 6.24854
55.020 6.358274
55.025 6.868801
55.030 7.069526
55.035 7.126601
55.040 7.155577
55.045 7.027068
55.050 6.519372
55.055 6.220496
55.060 5.929005
55.065 6.150817
55.070 6.664299
55.075 6.369019
55.080 6.562774
55.085 6.95154
55.090 7.462228
55.095 7.564934
55.100 7.145669
55.105 7.024226
55.110 7.14445
55.115 7.330119
55.120 7.828897
55.125 7.699294
55.130 7.596754
55.135 8.110651
55.140 8.354589
55.145 8.48554
55.150 8.404878
55.155 7.908704
55.160 7.975467
55.165 7.854317
55.170 7.539087
55.175 7.247592
55.180 7.368565
55.185 7.83132
55.190 7.754076
55.195 7.998683
55.200 8.203109
55.205 7.910526
55.210 7.772725
55.215 7.740128
55.220 7.150687
55.225 7.098934
55.230 6.51097
55.235 6.180439
55.240 6.115936
55.245 6.159687
55.250 5.876083
55.255 5.892765
55.260 5.733222
55.265 5.809513
55.270 6.237447
55.275 6.732683
55.280 6.787739
55.285 6.755986
55.290 6.841691
55.295 7.250056
55.300 7.532329
55.305 7.121364
55.310 6.718862
55.315 7.135344
55.320 7.186532
55.325 6.867218
55.330 6.851953
55.335 6.937524
55.340 7.292772
55.345 7.335155
55.350 6.922098
55.355 7.35712
55.360 8.078728
55.365 8.042883
55.370 7.789551
55.375 8.015131
55.380 8.061468
55.385 7.911385
55.390 8.021127
55.395 7.853242
55.400 7.563
55.405 7.273746
55.410 7.236779
55.415 7.792649
55.420 7.932476
55.425 7.930673
55.430 7.834566
55.435 8.252013
55.440 8.611304
55.445 8.371531
55.450 7.832819
55.455 7.859151
55.460 7.862268
55.465 7.89373
55.470 8.120155
55.475 8.005104
55.480 8.248434
55.485 8.626975
55.490 8.704323
55.495 8.623385
55.500 8.203933
55.505 7.840303
55.510 7.779587
55.515 7.655368
55.520 7.845624
55.525 7.663807
55.530 7.805062
55.535 8.045967
55.540 8.179912
55.545 7.983022
55.550 7.768143
55.555 7.15738
55.560 7.064189
55.565 7.096384
55.570 7.635436
55.575 7.794271
55.580 8.027316
55.585 8.134424
55.590 8.178544
55.595 8.041364
55.600 7.560518
55.605 7.169097
55.610 6.914377
55.615 6.631377
55.620 6.836442
55.625 7.192334
55.630 7.430959
55.635 7.534813
55.640 7.359837
55.645 7.230636
55.650 7.368109
55.655 7.023958
55.660 6.884653
55.665 6.903188
55.670 7.021674
55.675 7.192702
55.680 7.180935
55.685 7.282027
55.690 7.381112
55.695 7.044967
55.700 7.353444
55.705 7.40529
55.710 7.556178
55.715 8.161048
55.720 8.143828
55.725 8.324389
55.730 8.352902
55.735 7.633572
55.740 7.454783
55.745 7.235863
55.750 7.114703
55.755 7.211527
55.760 7.146767
55.765 7.238619
55.770 7.560369
55.775 7.892503
55.780 8.331472
55.785 8.249166
55.790 8.159598
55.795 8.520286
55.800 9.114741
55.805 9.220654
55.810 9.009759
55.815 8.710803
55.820 8.644729
55.825 8.780931
55.830 8.572358
55.835 8.520418
55.840 8.778034
55.845 8.714286
55.850 8.567403
55.855 8.917853
55.860 9.149551
55.865 9.097411
55.870 8.607732
55.875 8.171197
55.880 8.585896
55.885 8.844879
55.890 8.323339
55.895 8.323047
55.900 8.326215
55.905 7.990196
55.910 8.079908
55.915 7.517098
55.920 7.217749
55.925 7.34816
55.930 6.869191
55.935 6.739041
55.940 7.086089
55.945 7.424806
55.950 7.757735
55.955 7.806761
55.960 7.850518
55.965 8.0056
55.970 8.032169
55.975 8.144268
55.980 7.702556
55.985 7.731608
55.990 7.644855
55.995 7.746775
56.000 7.765353
56.005 7.810399
56.010 7.968449
56.015 7.894212
56.020 7.648162
56.025 7.787781
56.030 7.571647
56.035 7.661611
56.040 7.634323
56.045 7.612497
56.050 7.73877
56.055 7.818564
56.060 7.962558
56.065 8.146914
56.070 8.067014
56.075 8.000917
56.080 7.823287
56.085 7.680817
56.090 8.116034
56.095 8.102533
56.100 7.393524
56.105 7.234106
56.110 6.846691
56.115 7.201053
56.120 7.461629
56.125 7.065716
56.130 7.544265
56.135 8.080957
56.140 8.392922
56.145 9.152136
56.150 9.021741
56.155 9.090948
56.160 8.81339
56.165 8.642466
56.170 8.948835
56.175 8.809736
56.180 8.397688
56.185 8.582751
56.190 8.362638
56.195 8.406365
56.200 8.321313
56.205 8.043914
56.210 7.99614
56.215 7.956349
56.220 7.635383
56.225 7.607282
56.230 7.701588
56.235 7.592228
56.240 7.991458
56.245 8.064881
56.250 7.979032
56.255 8.16051
56.260 8.331675
56.265 8.290802
56.270 8.443063
56.275 8.410387
56.280 8.134541
56.285 7.860272
56.290 7.884191
56.295 7.853533
56.300 8.13935
56.305 8.17842
56.310 8.178157
56.315 8.584413
56.320 8.920037
56.325 9.001594
56.330 9.223695
56.335 9.287397
56.340 9.136966
56.345 9.286745
56.350 8.86293
56.355 8.956594
56.360 8.986031
56.365 8.584185
56.370 8.615939
56.375 8.488554
56.380 8.364797
56.385 8.771617
56.390 8.692188
56.395 8.808969
56.400 8.71806
56.405 8.665435
56.410 8.970938
56.415 9.186695
56.420 8.860607
56.425 8.560663
56.430 9.09777
56.435 9.477942
56.440 9.354589
56.445 9.325302
56.450 9.189271
56.455 9.188359
56.460 9.112247
56.465 8.811058
56.470 8.56759
56.475 8.411978
56.480 8.542735
56.485 8.536184
56.490 8.621984
56.495 9.073051
56.500 8.770033
56.505 8.867594
56.510 9.039846
56.515 8.827416
56.520 8.999186
56.525 8.75999
56.530 8.31107
56.535 8.442622
56.540 8.127632
56.545 8.154102
56.550 8.306095
56.555 8.19652
56.560 8.523681
56.565 8.625196
56.570 8.644612
56.575 8.794778
56.580 8.84381
56.585 8.709478
56.590 8.89027
56.595 8.569485
56.600 8.44951
56.605 8.252687
56.610 8.270693
56.615 8.16191
56.620 8.416266
56.625 8.54901
56.630 9.159387
56.635 9.260272
56.640 9.427296
56.645 9.363331
56.650 9.508684
56.655 9.605741
56.660 9.584227
56.665 9.676458
56.670 9.625076
56.675 9.955257
56.680 9.998462
56.685 9.85412
56.690 9.805001
56.695 9.547195
56.700 9.323092
56.705 9.338904
56.710 9.060373
56.715 9.091705
56.720 8.811846
56.725 8.568345
56.730 9.155463
56.735 9.453511
56.740 9.775338
56.745 10.111634
56.750 10.047422
56.755 10.113841
56.760 10.18704
56.765 9.480254
56.770 9.406348
56.775 9.147672
56.780 8.734711
56.785 8.914646
56.790 9.394653
56.795 9.559491
56.800 9.749725
56.805 9.925213
56.810 9.954116
56.815 10.215005
56.820 10.14559
56.825 9.874797
56.830 9.90227
56.835 9.860703
56.840 9.346096
56.845 9.402895
56.850 9.243132
56.855 9.254601
56.860 9.035846
56.865 8.683974
56.870 8.758618
56.875 8.894509
56.880 8.758779
56.885 8.78893
56.890 8.481423
56.895 8.482892
56.900 8.680475
56.905 8.805365
56.910 8.992961
56.915 8.882141
56.920 8.63291
56.925 8.742418
56.930 9.133872
56.935 9.283918
56.940 8.895279
56.945 9.246576
56.950 9.796419
56.955 9.959039
56.960 10.069028
56.965 9.691536
56.970 9.857949
56.975 10.069624
56.980 9.904012
56.985 9.851844
56.990 10.096982
56.995 10.75964
57.000 11.137339
57.005 10.859247
57.010 10.600328
57.015 10.312191
57.020 10.199529
57.025 10.107069
57.030 9.194963
57.035 8.777615
57.040 8.705691
57.045 8.609683
57.050 8.796535
57.055 8.636465
57.060 8.403034
57.065 8.518809
57.070 8.928046
57.075 9.451916
57.080 9.48826
57.085 9.164176
57.090 9.380494
57.095 9.973063
57.100 9.98535
57.105 9.634638
57.110 8.991023
57.115 8.929318
57.120 8.989405
57.125 9.12298
57.130 9.099037
57.135 9.472764
57.140 9.826902
57.145 10.295674
57.150 10.52879
57.155 10.429399
57.160 10.092192
57.165 9.829467
57.170 9.871494
57.175 9.50126
57.180 9.246197
57.185 8.839163
57.190 8.723326
57.195 8.997261
57.200 8.972737
57.205 8.81542
57.210 9.003648
57.215 9.072895
57.220 9.840376
57.225 10.115613
57.230 10.036522
57.235 10.483706
57.240 10.808248
57.245 10.912015
57.250 10.707043
57.255 10.079618
57.260 10.005239
57.265 9.910167
57.270 9.557295
57.275 9.345659
57.280 9.565346
57.285 10.288274
57.290 10.91284
57.295 10.591294
57.300 10.466427
57.305 10.37643
57.310 10.507545
57.315 10.74795
57.320 10.558801
57.325 10.305575
57.330 10.449746
57.335 10.415861
57.340 10.156137
57.345 9.80991
57.350 9.162095
57.355 8.747798
57.360 9.109746
57.365 9.554437
57.370 9.682652
57.375 9.646284
57.380 9.738919
57.385 9.889922
57.390 9.659472
57.395 9.71835
57.400 9.799343
57.405 9.845492
57.410 10.32799
57.415 10.706165
57.420 11.014977
57.425 11.207974
57.430 10.305509
57.435 9.517383
57.440 9.531585
57.445 9.219322
57.450 9.05111
57.455 9.265248
57.460 9.560611
57.465 9.848541
57.470 10.383172
57.475 10.024987
57.480 9.835115
57.485 10.039259
57.490 10.225736
57.495 10.261628
57.500 10.651756
57.505 10.36202
57.510 10.389039
57.515 10.455049
57.520 10.166492
57.525 9.716544
57.530 9.651115
57.535 9.483615
57.540 9.954329
57.545 9.973166
57.550 9.792952
57.555 10.23398
57.560 10.157839
57.565 10.018418
57.570 9.914211
57.575 9.548848
57.580 9.806828
57.585 9.541504
57.590 9.21283
57.595 9.215777
57.600 9.53715
57.605 9.839534
57.610 10.175353
57.615 10.093782
57.620 10.409405
57.625 10.319862
57.630 10.845011
57.635 10.737667
57.640 10.603889
57.645 10.338517
57.650 10.65775
57.655 11.184127
57.660 10.985154
57.665 10.344103
57.670 10.043368
57.675 10.024866
57.680 10.068948
57.685 9.580959
57.690 9.103098
57.695 9.038183
57.700 9.07943
57.705 9.064975
57.710 9.074001
57.715 9.084363
57.720 9.160888
57.725 9.273514
57.730 9.228578
57.735 9.341436
57.740 9.638018
57.745 9.811082
57.750 9.63793
57.755 9.768689
57.760 9.711458
57.765 10.330085
57.770 10.461948
57.775 10.49169
57.780 10.523624
57.785 10.858226
57.790 10.880514
57.795 10.456836
57.800 10.018475
57.805 10.101378
57.810 9.991668
57.815 10.232363
57.820 10.131912
57.825 10.223585
57.830 10.612411
57.835 10.729205
57.840 10.446502
57.845 10.555556
57.850 10.392951
57.855 10.178025
57.860 10.241667
57.865 10.440551
57.870 10.547225
57.875 10.663266
57.880 10.480281
57.885 10.53927
57.890 10.590292
57.895 10.507256
57.900 10.474391
57.905 10.449722
57.910 10.381203
57.915 10.417693
57.920 10.34633
57.925 10.738873
57.930 10.70476
57.935 10.882609
57.940 11.248649
57.945 11.362825
57.950 11.50802
57.955 11.501612
57.960 11.469411
57.965 11.429226
57.970 11.423705
57.975 10.873406
57.980 11.352897
57.985 11.508171
57.990 11.506683
57.995 11.532723
58.000 11.63533
58.005 11.595205
58.010 11.953388
58.015 11.90248
58.020 12.163523
58.025 11.793816
58.030 11.89707
58.035 12.095852
58.040 11.932364
58.045 11.797501
58.050 11.654113
58.055 11.813804
58.060 12.110978
58.065 12.340595
58.070 12.464489
58.075 13.006754
58.080 12.741061
58.085 12.353085
58.090 12.210962
58.095 12.517333
58.100 12.145025
58.105 11.85624
58.110 11.685203
58.115 12.465936
58.120 12.615043
58.125 12.518448
58.130 12.087388
58.135 11.904865
58.140 11.721762
58.145 11.191835
58.150 10.801157
58.155 11.353974
58.160 11.610961
58.165 11.772079
58.170 12.564417
58.175 13.325238
58.180 13.739032
58.185 13.808919
58.190 13.467226
58.195 13.452099
58.200 13.337729
58.205 12.976378
58.210 12.671479
58.215 12.466165
58.220 12.155696
58.225 11.993561
58.230 12.072755
58.235 12.352736
58.240 12.065781
58.245 11.603749
58.250 12.118701
58.255 12.630003
58.260 12.959536
58.265 13.202987
58.270 13.349926
58.275 13.319678
58.280 13.532007
58.285 13.543156
58.290 13.650327
58.295 13.167929
58.300 12.929327
58.305 13.055916
58.310 13.727732
58.315 13.526506
58.320 13.113132
58.325 13.053825
58.330 13.481604
58.335 13.572261
58.340 13.336447
58.345 13.098621
58.350 13.542555
58.355 13.531143
58.360 13.106387
58.365 13.072724
58.370 13.354162
58.375 13.584292
58.380 13.897373
58.385 13.473271
58.390 13.305779
58.395 13.047254
58.400 13.206275
58.405 13.357554
58.410 13.174809
58.415 13.044345
58.420 13.994122
58.425 14.598316
58.430 14.903093
58.435 14.517916
58.440 15.067648
58.445 15.463408
58.450 15.44865
58.455 15.708275
58.460 16.714687
58.465 17.529341
58.470 18.389568
58.475 18.085199
58.480 18.209312
58.485 18.748407
58.490 18.991486
58.495 18.800001
58.500 19.356516
58.505 19.427912
58.510 19.885448
58.515 20.912544
58.520 21.04838
58.525 21.324993
58.530 21.134457
58.535 20.706966
58.540 21.106613
58.545 21.591028
58.550 20.752943
58.555 20.322422
58.560 20.823399
58.565 21.81901
58.570 22.307245
58.575 22.201811
58.580 21.851826
58.585 22.298946
58.590 23.148933
58.595 23.612883
58.600 23.370668
58.605 23.521635
58.610 24.14839
58.615 24.725857
58.620 25.483761
58.625 25.201115
58.630 25.195911
58.635 25.689795
58.640 25.951406
58.645 25.455784
58.650 25.092728
58.655 24.944147
58.660 25.632389
58.665 25.091064
58.670 25.041113
58.675 25.084721
58.680 25.018621
58.685 24.777491
