!@!!GADDS PLOTSO FILE: Chi integration type
!@!!Title/SampleName: map-109
!@!!Comment: ?
!@!!User: Bruker Instrument Administrator
!@!!Site: University of Illinois Chicago
!@!!Frame: map-109_01_000.gfrm
!@!!Wavelengths    1.54184   1.54056   1.54439
!@!!Frame angles: 2Theta: 63.000 Omega: 50.000 Phi: 0.000 Chi: 90.000
!@!!Integration range: 2Theta: 53.000 to 73.000  Gamma: -105.000 to -75.000
!@!!Integration method: bin normalized
!@!N
!@!SS
!@!M
!@!L 0.0 0.0 0.0 0.0
!@!XDegrees
!@!YCounts
53.000 8.730848
53.005 8.769957
53.010 8.393079
53.015 8.490944
53.020 8.680358
53.025 9.008895
53.030 9.125482
53.035 9.265875
53.040 9.264758
53.045 9.590493
53.050 9.103153
53.055 8.60037
53.060 8.443072
53.065 8.352035
53.070 8.336645
53.075 8.404234
53.080 8.386713
53.085 8.89809
53.090 9.225709
53.095 9.392803
53.100 9.269023
53.105 9.427005
53.110 9.750664
53.115 9.985178
53.120 9.969109
53.125 9.313262
53.130 9.417446
53.135 9.553563
53.140 9.074026
53.145 8.515375
53.150 7.689442
53.155 7.718679
53.160 8.03777
53.165 7.851658
53.170 8.351742
53.175 8.610579
53.180 9.054479
53.185 9.461417
53.190 9.410428
53.195 9.245223
53.200 9.186985
53.205 9.072323
53.210 8.943504
53.215 9.285225
53.220 9.534172
53.225 9.70191
53.230 9.23519
53.235 8.913169
53.240 8.810126
53.245 8.853219
53.250 8.844497
53.255 8.763035
53.260 8.940724
53.265 9.079085
53.270 8.895062
53.275 8.776741
53.280 8.671711
53.285 8.464587
53.290 8.440323
53.295 8.505864
53.300 8.591883
53.305 8.517604
53.310 8.459283
53.315 8.646878
53.320 8.557663
53.325 8.413212
53.330 8.510654
53.335 9.280024
53.340 9.612091
53.345 9.517034
53.350 9.919299
53.355 10.110035
53.360 10.665808
53.365 10.883796
53.370 10.756966
53.375 10.648163
53.380 10.370187
53.385 9.586819
53.390 9.355621
53.395 9.287232
53.400 9.027663
53.405 8.774449
53.410 8.737147
53.415 9.026296
53.420 8.980252
53.425 8.646089
53.430 8.561069
53.435 8.737963
53.440 9.256116
53.445 9.666777
53.450 9.786171
53.455 9.858042
53.460 9.706295
53.465 9.574082
53.470 9.364127
53.475 9.173851
53.480 8.913106
53.485 8.983406
53.490 9.214325
53.495 9.464494
53.500 9.756375
53.505 9.726811
53.510 9.837583
53.515 9.786455
53.520 9.778188
53.525 10.171911
53.530 9.884793
53.535 9.636321
53.540 9.810541
53.545 9.783233
53.550 9.945219
53.555 10.053828
53.560 10.047771
53.565 10.496719
53.570 10.314642
53.575 9.783535
53.580 9.758005
53.585 9.842627
53.590 10.093641
53.595 10.086799
53.600 10.321694
53.605 10.725438
53.610 10.929868
53.615 11.188684
53.620 10.920449
53.625 10.326452
53.630 9.8961
53.635 9.289529
53.640 8.945357
53.645 8.871225
53.650 8.753397
53.655 8.920575
53.660 9.204775
53.665 9.588105
53.670 9.872088
53.675 10.100287
53.680 10.312237
53.685 10.463385
53.690 10.698
53.695 10.383726
53.700 10.686481
53.705 10.569492
53.710 10.547666
53.715 10.488379
53.720 10.569252
53.725 10.369374
53.730 9.855877
53.735 9.628689
53.740 9.791067
53.745 9.982214
53.750 9.738614
53.755 9.095368
53.760 9.109816
53.765 9.892004
53.770 10.104308
53.775 9.76552
53.780 9.564292
53.785 10.039678
53.790 10.466718
53.795 10.219526
53.800 9.673593
53.805 9.260796
53.810 9.456836
53.815 9.539847
53.820 9.227286
53.825 10.229241
53.830 10.839341
53.835 10.973962
53.840 11.258144
53.845 11.109593
53.850 11.297337
53.855 11.169432
53.860 10.748465
53.865 10.168613
53.870 9.924132
53.875 9.778463
53.880 9.828378
53.885 9.951587
53.890 10.388621
53.895 10.727135
53.900 10.960354
53.905 11.214429
53.910 11.019602
53.915 10.832909
53.920 10.901412
53.925 10.02287
53.930 9.289388
53.935 9.478909
53.940 10.032321
53.945 10.336232
53.950 10.385171
53.955 10.398024
53.960 11.066425
53.965 11.543903
53.970 11.154469
53.975 11.024
53.980 11.116834
53.985 10.96094
53.990 10.924891
53.995 10.492984
54.000 10.400699
54.005 10.224119
54.010 10.008199
54.015 10.100909
54.020 9.908298
54.025 9.793689
54.030 9.929173
54.035 9.9263
54.040 10.027989
54.045 9.815601
54.050 9.400299
54.055 9.523732
54.060 9.698701
54.065 9.743552
54.070 9.724882
54.075 9.617576
54.080 10.221109
54.085 10.392454
54.090 10.536061
54.095 10.318365
54.100 10.486125
54.105 10.797145
54.110 11.285009
54.115 11.494259
54.120 11.599579
54.125 11.631308
54.130 11.739978
54.135 11.765213
54.140 11.800221
54.145 11.284454
54.150 10.882637
54.155 10.658304
54.160 10.683196
54.165 10.489054
54.170 10.409866
54.175 10.564241
54.180 10.702076
54.185 10.773777
54.190 10.858559
54.195 11.210188
54.200 11.198433
54.205 11.431355
54.210 11.481103
54.215 11.291388
54.220 11.310924
54.225 11.061891
54.230 10.676539
54.235 10.408624
54.240 10.039989
54.245 10.071665
54.250 10.06443
54.255 10.10893
54.260 9.816666
54.265 10.159097
54.270 10.685379
54.275 10.212971
54.280 9.990779
54.285 10.000486
54.290 9.966854
54.295 9.930201
54.300 9.938199
54.305 9.801834
54.310 10.00145
54.315 10.202853
54.320 10.417809
54.325 10.544225
54.330 10.743629
54.335 10.578442
54.340 10.922276
54.345 11.152308
54.350 11.371517
54.355 11.296947
54.360 11.239012
54.365 10.925541
54.370 10.749449
54.375 10.217995
54.380 9.845709
54.385 9.931207
54.390 10.173181
54.395 10.191634
54.400 10.453217
54.405 10.47112
54.410 10.740522
54.415 10.518515
54.420 10.169436
54.425 10.037487
54.430 10.115109
54.435 10.458102
54.440 10.763073
54.445 10.875009
54.450 10.870528
54.455 10.910851
54.460 10.465704
54.465 10.445149
54.470 10.061383
54.475 10.056363
54.480 10.273678
54.485 10.626796
54.490 10.501788
54.495 10.279424
54.500 10.046525
54.505 10.021156
54.510 9.668531
54.515 9.729716
54.520 9.825915
54.525 10.618118
54.530 11.034392
54.535 11.490312
54.540 11.667875
54.545 12.069481
54.550 11.910902
54.555 11.989227
54.560 11.804645
54.565 11.513179
54.570 11.103879
54.575 11.134141
54.580 10.543336
54.585 10.412086
54.590 10.118614
54.595 10.362364
54.600 10.610744
54.605 10.723952
54.610 10.986162
54.615 11.499344
54.620 11.424376
54.625 11.314838
54.630 11.431298
54.635 11.364347
54.640 11.355096
54.645 10.860029
54.650 10.721279
54.655 10.789041
54.660 10.547445
54.665 9.995641
54.670 9.585041
54.675 9.150545
54.680 9.521059
54.685 9.760183
54.690 9.215998
54.695 9.097797
54.700 9.023853
54.705 9.114221
54.710 9.475909
54.715 9.283119
54.720 9.261445
54.725 9.861052
54.730 10.597096
54.735 11.081766
54.740 11.630415
54.745 11.946674
54.750 11.929377
54.755 12.247983
54.760 12.06153
54.765 11.761202
54.770 11.709832
54.775 11.086336
54.780 10.765015
54.785 11.081838
54.790 11.002058
54.795 10.897346
54.800 10.749654
54.805 10.690326
54.810 10.777168
54.815 10.454733
54.820 9.771147
54.825 9.759179
54.830 9.620428
54.835 9.580793
54.840 9.636966
54.845 9.557099
54.850 10.107841
54.855 10.608762
54.860 10.406397
54.865 10.590553
54.870 10.877233
54.875 10.706355
54.880 11.055749
54.885 10.883246
54.890 11.109557
54.895 11.555402
54.900 11.09422
54.905 11.131573
54.910 11.699386
54.915 12.238872
54.920 12.080264
54.925 12.324576
54.930 12.327964
54.935 12.681949
54.940 12.661278
54.945 11.967
54.950 11.412799
54.955 11.255363
54.960 10.761847
54.965 10.773401
54.970 10.660771
54.975 10.323827
54.980 10.109417
54.985 10.039534
54.990 9.89673
54.995 9.877769
55.000 9.821452
55.005 9.766174
55.010 9.86546
55.015 9.859798
55.020 9.926177
55.025 10.046414
55.030 9.78299
55.035 9.977725
55.040 10.414916
55.045 10.890497
55.050 10.909156
55.055 10.607592
55.060 11.069422
55.065 11.568033
55.070 11.725513
55.075 11.439032
55.080 11.318988
55.085 11.741994
55.090 11.982566
55.095 12.113981
55.100 12.028574
55.105 11.692488
55.110 12.035158
55.115 12.440263
55.120 12.527467
55.125 12.130293
55.130 11.892667
55.135 11.412619
55.140 11.319442
55.145 10.965003
55.150 10.667706
55.155 10.400238
55.160 10.818736
55.165 10.958123
55.170 11.500496
55.175 11.620078
55.180 11.405527
55.185 11.399698
55.190 11.689016
55.195 11.218725
55.200 10.769684
55.205 10.340725
55.210 10.326927
55.215 10.560013
55.220 10.710479
55.225 10.976926
55.230 11.367195
55.235 11.542266
55.240 11.642153
55.245 11.235353
55.250 11.080291
55.255 10.834606
55.260 10.823914
55.265 10.938046
55.270 11.433297
55.275 11.976975
55.280 12.084799
55.285 12.276724
55.290 12.113133
55.295 11.566361
55.300 11.561085
55.305 11.614976
55.310 11.711692
55.315 12.167893
55.320 12.18773
55.325 12.499916
55.330 12.380962
55.335 12.22716
55.340 12.181399
55.345 12.045896
55.350 12.040588
55.355 12.422782
55.360 13.014109
55.365 13.289
55.370 12.99993
55.375 12.467859
55.380 12.495021
55.385 12.332192
55.390 11.907009
55.395 11.331739
55.400 11.644322
55.405 12.378524
55.410 12.358547
55.415 11.870644
55.420 11.660533
55.425 11.069886
55.430 11.254541
55.435 11.651658
55.440 10.935811
55.445 11.020359
55.450 11.146716
55.455 11.552199
55.460 11.909118
55.465 11.635481
55.470 11.38197
55.475 11.615485
55.480 11.627121
55.485 12.007899
55.490 12.0709
55.495 12.213337
55.500 12.263561
55.505 12.404874
55.510 12.898241
55.515 12.943322
55.520 12.853367
55.525 12.213144
55.530 11.937468
55.535 11.601526
55.540 10.944612
55.545 10.503342
55.550 10.17291
55.555 9.84574
55.560 10.444711
55.565 10.902974
55.570 10.880984
55.575 11.002485
55.580 11.254924
55.585 11.912229
55.590 12.143574
55.595 11.786316
55.600 11.739391
55.605 12.158037
55.610 12.285773
55.615 12.479496
55.620 12.468551
55.625 12.129465
55.630 11.537149
55.635 11.436731
55.640 11.233328
55.645 11.233711
55.650 11.529776
55.655 11.352116
55.660 11.690606
55.665 12.3241
55.670 12.439193
55.675 12.701794
55.680 12.465549
55.685 11.803461
55.690 12.422068
55.695 12.76459
55.700 12.92362
55.705 12.369941
55.710 12.137362
55.715 12.330344
55.720 12.190103
55.725 11.734693
55.730 11.148696
55.735 10.591112
55.740 10.528765
55.745 10.960934
55.750 11.408316
55.755 11.552649
55.760 11.854555
55.765 12.153234
55.770 12.486531
55.775 13.004095
55.780 12.401751
55.785 12.04519
55.790 11.875206
55.795 11.910109
55.800 12.431719
55.805 13.045518
55.810 13.218846
55.815 13.335953
55.820 13.596264
55.825 13.861735
55.830 14.004104
55.835 13.7054
55.840 13.455771
55.845 13.792468
55.850 13.877732
55.855 13.804204
55.860 13.615605
55.865 13.502295
55.870 13.654265
55.875 13.382431
55.880 12.951277
55.885 13.181387
55.890 13.0257
55.895 12.867194
55.900 12.444225
55.905 12.179372
55.910 12.13538
55.915 12.195214
55.920 12.433653
55.925 12.281772
55.930 12.495806
55.935 13.144575
55.940 13.150269
55.945 13.223643
55.950 13.116801
55.955 12.874399
55.960 13.178233
55.965 13.055724
55.970 12.355658
55.975 12.24386
55.980 11.998679
55.985 11.755927
55.990 11.579801
55.995 11.554654
56.000 11.868116
56.005 12.0887
56.010 11.691661
56.015 11.764943
56.020 11.713858
56.025 11.769906
56.030 11.615786
56.035 11.50484
56.040 11.701227
56.045 11.53133
56.050 10.822157
56.055 10.988481
56.060 11.137446
56.065 11.028456
56.070 11.198517
56.075 11.389745
56.080 12.267265
56.085 13.206513
56.090 13.228368
56.095 13.808321
56.100 14.45908
56.105 14.500267
56.110 14.49542
56.115 14.074117
56.120 13.504119
56.125 12.998796
56.130 12.428568
56.135 12.55458
56.140 12.331933
56.145 12.240128
56.150 12.268348
56.155 12.442101
56.160 12.812826
56.165 12.855476
56.170 12.784681
56.175 12.53197
56.180 12.389017
56.185 12.630605
56.190 12.915122
56.195 12.776316
56.200 12.378029
56.205 12.443671
56.210 12.807667
56.215 13.312321
56.220 13.231253
56.225 12.92101
56.230 12.872163
56.235 12.819988
56.240 12.757332
56.245 12.876959
56.250 12.640311
56.255 12.445955
56.260 12.459005
56.265 12.561152
56.270 12.713558
56.275 12.809155
56.280 12.40167
56.285 12.439712
56.290 13.012142
56.295 13.12299
56.300 13.013307
56.305 13.02857
56.310 12.757682
56.315 13.296171
56.320 13.548989
56.325 13.574916
56.330 14.031765
56.335 14.317312
56.340 14.141769
56.345 14.423966
56.350 14.284053
56.355 14.057188
56.360 13.420839
56.365 13.564939
56.370 13.33244
56.375 13.090172
56.380 13.027402
56.385 13.019036
56.390 12.974466
56.395 13.122907
56.400 12.93713
56.405 13.019687
56.410 13.006942
56.415 12.757646
56.420 13.113074
56.425 13.233012
56.430 12.894255
56.435 12.700721
56.440 12.721018
56.445 12.938504
56.450 13.046333
56.455 12.958411
56.460 12.999782
56.465 13.427931
56.470 13.2531
56.475 13.575125
56.480 13.469803
56.485 13.373295
56.490 13.697665
56.495 13.858953
56.500 13.769917
56.505 14.012204
56.510 13.599712
56.515 13.446286
56.520 13.361103
56.525 13.643893
56.530 13.52223
56.535 13.633749
56.540 14.021362
56.545 14.159163
56.550 14.425615
56.555 14.124013
56.560 13.220579
56.565 13.401564
56.570 13.377842
56.575 13.535901
56.580 13.698261
56.585 13.566697
56.590 13.412881
56.595 13.351091
56.600 12.775034
56.605 12.735375
56.610 12.295823
56.615 12.701055
56.620 12.94037
56.625 13.109703
56.630 13.219593
56.635 13.245057
56.640 12.928826
56.645 12.928949
56.650 12.389931
56.655 12.315226
56.660 13.033788
56.665 12.897313
56.670 13.354766
56.675 13.099978
56.680 13.168864
56.685 13.197093
56.690 13.328947
56.695 13.37925
56.700 13.549964
56.705 13.581655
56.710 13.449669
56.715 13.254911
56.720 13.466223
56.725 13.291078
56.730 12.979211
56.735 13.489144
56.740 13.510843
56.745 13.643153
56.750 13.575196
56.755 13.604932
56.760 13.712579
56.765 13.79353
56.770 13.613738
56.775 13.664747
56.780 14.015189
56.785 14.376823
56.790 14.591812
56.795 14.924035
56.800 14.816046
56.805 14.550997
56.810 14.354361
56.815 13.885895
56.820 13.697255
56.825 13.2919
56.830 12.673551
56.835 12.558498
56.840 12.791738
56.845 12.996206
56.850 13.07189
56.855 12.60396
56.860 12.576488
56.865 12.988674
56.870 13.37532
56.875 13.085148
56.880 13.559961
56.885 13.773698
56.890 13.694247
56.895 13.612059
56.900 13.240895
56.905 12.38433
56.910 12.154875
56.915 11.560884
56.920 11.252104
56.925 11.661013
56.930 12.127838
56.935 13.125966
56.940 13.44104
56.945 13.63047
56.950 13.683653
56.955 13.972855
56.960 14.025134
56.965 13.653358
56.970 13.123854
56.975 13.523393
56.980 13.264088
56.985 13.032371
56.990 12.992247
56.995 12.919124
57.000 12.670225
57.005 12.858564
57.010 13.015415
57.015 14.216162
57.020 14.880456
57.025 15.399704
57.030 15.422146
57.035 15.468986
57.040 14.946246
57.045 14.475337
57.050 14.261052
57.055 14.031085
57.060 13.768118
57.065 13.917769
57.070 13.805583
57.075 14.295209
57.080 14.593019
57.085 14.005877
57.090 13.860273
57.095 13.103414
57.100 12.917644
57.105 12.895568
57.110 12.34075
57.115 12.012821
57.120 11.830789
57.125 11.87372
57.130 12.25033
57.135 12.257547
57.140 12.419994
57.145 12.577915
57.150 12.537641
57.155 12.748855
57.160 12.184479
57.165 12.301774
57.170 12.806156
57.175 13.324499
57.180 13.585959
57.185 13.57262
57.190 13.802507
57.195 14.422997
57.200 14.402403
57.205 14.35468
57.210 14.10387
57.215 14.197316
57.220 14.474234
57.225 14.546494
57.230 14.183594
57.235 14.319901
57.240 14.172485
57.245 13.819922
57.250 13.856226
57.255 14.278248
57.260 14.465953
57.265 14.333243
57.270 13.900456
57.275 13.653222
57.280 13.90761
57.285 13.860692
57.290 12.890988
57.295 12.628269
57.300 12.427135
57.305 12.454414
57.310 12.404114
57.315 11.677307
57.320 11.620531
57.325 12.053602
57.330 12.517835
57.335 13.430297
57.340 13.890129
57.345 14.439931
57.350 15.105625
57.355 15.017395
57.360 14.840388
57.365 14.670985
57.370 13.927531
57.375 13.17888
57.380 13.20385
57.385 13.037928
57.390 13.015591
57.395 13.128502
57.400 13.196269
57.405 13.709041
57.410 13.817122
57.415 13.543355
57.420 13.498968
57.425 13.964489
57.430 14.205815
57.435 14.358397
57.440 14.092777
57.445 14.614983
57.450 15.369701
57.455 16.274691
57.460 16.338575
57.465 16.102346
57.470 15.701512
57.475 15.655174
57.480 15.444954
57.485 15.312037
57.490 14.816792
57.495 14.442544
57.500 14.256875
57.505 14.262424
57.510 14.13069
57.515 14.235273
57.520 13.464357
57.525 13.431753
57.530 13.370005
57.535 13.926624
57.540 14.237015
57.545 14.420968
57.550 14.093002
57.555 14.398483
57.560 14.506124
57.565 14.317451
57.570 13.779496
57.575 13.77999
57.580 14.2026
57.585 14.892653
57.590 15.163395
57.595 15.136119
57.600 15.371234
57.605 15.359892
57.610 15.155567
57.615 14.805953
57.620 14.167719
57.625 13.476042
57.630 13.073043
57.635 13.184655
57.640 13.608277
57.645 13.49791
57.650 13.263509
57.655 13.421716
57.660 13.847784
57.665 14.221493
57.670 14.244769
57.675 13.917873
57.680 14.392484
57.685 14.726171
57.690 14.667901
57.695 14.449393
57.700 14.328948
57.705 14.237271
57.710 14.481994
57.715 14.657539
57.720 14.330275
57.725 14.308718
57.730 14.760994
57.735 14.56965
57.740 14.554921
57.745 14.274576
57.750 13.885282
57.755 13.999404
57.760 14.193378
57.765 13.874439
57.770 14.048802
57.775 14.342706
57.780 14.533931
57.785 14.791274
57.790 14.949555
57.795 14.940915
57.800 15.015295
57.805 14.917347
57.810 14.830943
57.815 14.52336
57.820 14.3613
57.825 13.892171
57.830 13.97021
57.835 14.535547
57.840 14.690963
57.845 14.355357
57.850 14.304178
57.855 14.174083
57.860 14.10334
57.865 13.18911
57.870 12.599311
57.875 12.449029
57.880 12.25009
57.885 12.276844
57.890 12.701658
57.895 13.201062
57.900 13.495072
57.905 13.321089
57.910 13.410526
57.915 13.971557
57.920 13.851743
57.925 13.630169
57.930 13.527269
57.935 14.481682
57.940 14.345266
57.945 14.413405
57.950 14.722478
57.955 14.772932
57.960 15.203233
57.965 15.59878
57.970 15.232419
57.975 15.448983
57.980 14.683061
57.985 13.957768
57.990 13.95154
57.995 13.352618
58.000 13.104524
58.005 13.376841
58.010 14.019215
58.015 15.053339
58.020 15.502335
58.025 15.730373
58.030 15.933084
58.035 16.219488
58.040 15.811323
58.045 15.280972
58.050 15.050344
58.055 15.187069
58.060 15.200416
58.065 15.12335
58.070 14.712274
58.075 15.244372
58.080 15.48947
58.085 15.106032
58.090 15.66974
58.095 15.8633
58.100 16.22085
58.105 16.496748
58.110 16.158285
58.115 16.080044
58.120 16.223881
58.125 15.265865
58.130 14.488291
58.135 13.737267
58.140 13.548854
58.145 13.662955
58.150 13.398334
58.155 13.464099
58.160 14.379175
58.165 15.233918
58.170 15.495835
58.175 15.389523
58.180 15.211629
58.185 15.844466
58.190 15.533413
58.195 14.392635
58.200 14.435918
58.205 14.567057
58.210 14.272121
58.215 14.264651
58.220 13.756703
58.225 13.801137
58.230 13.847231
58.235 13.285082
58.240 13.432784
58.245 13.444571
58.250 13.48939
58.255 13.847592
58.260 14.37439
58.265 15.00868
58.270 15.620696
58.275 15.235749
58.280 15.380503
58.285 15.519083
58.290 15.361913
58.295 14.604929
58.300 14.068172
58.305 13.976043
58.310 14.718088
58.315 14.392906
58.320 13.788109
58.325 13.533261
58.330 13.616123
58.335 13.528009
58.340 13.159534
58.345 13.095215
58.350 13.8594
58.355 14.868117
58.360 15.422219
58.365 15.894298
58.370 16.029539
58.375 15.794316
58.380 15.401155
58.385 14.569676
58.390 13.862373
58.395 13.440181
58.400 13.364128
58.405 13.601166
58.410 13.88391
58.415 13.608656
58.420 13.977841
58.425 13.871431
58.430 13.695786
58.435 13.57205
58.440 13.705709
58.445 13.75562
58.450 14.079989
58.455 13.906239
58.460 13.879563
58.465 14.291983
58.470 14.212456
58.475 13.959051
58.480 13.888957
58.485 14.180158
58.490 14.517965
