!@!!GADDS PLOTSO FILE: Chi integration type
!@!!Title/SampleName: map-3e
!@!!Comment: ?
!@!!User: Bruker Instrument Administrator
!@!!Site: University of Illinois Chicago
!@!!Frame: map-3e_01_000.gfrm
!@!!Wavelengths    1.54184   1.54056   1.54439
!@!!Frame angles: 2Theta: 63.000 Omega: 50.000 Phi: 0.000 Chi: 90.000
!@!!Integration range: 2Theta: 53.000 to 73.000  Gamma: -105.000 to -75.000
!@!!Integration method: bin normalized
!@!N
!@!SS
!@!M
!@!L 0.0 0.0 0.0 0.0
!@!XDegrees
!@!YCounts
53.000 7.776835
53.005 7.957887
53.010 7.987414
53.015 7.946333
53.020 8.00683
53.025 8.294642
53.030 7.956117
53.035 7.93153
53.040 7.759193
53.045 7.842315
53.050 7.976643
53.055 7.879742
53.060 7.892579
53.065 8.158893
53.070 8.071828
53.075 8.182151
53.080 7.621686
53.085 7.331436
53.090 6.985454
53.095 6.755291
53.100 6.943964
53.105 7.140051
53.110 7.085898
53.115 7.540536
53.120 7.522037
53.125 7.807425
53.130 8.051671
53.135 8.269525
53.140 7.968602
53.145 8.031678
53.150 8.028119
53.155 8.106388
53.160 8.516627
53.165 8.159161
53.170 8.293062
53.175 8.697686
53.180 8.500237
53.185 8.411563
53.190 8.316759
53.195 7.882458
53.200 8.081413
53.205 7.779315
53.210 7.642794
53.215 8.070827
53.220 8.261932
53.225 8.309425
53.230 8.351377
53.235 8.537653
53.240 8.980622
53.245 8.920913
53.250 8.64641
53.255 8.594567
53.260 8.79408
53.265 8.553942
53.270 8.23231
53.275 8.040474
53.280 7.905227
53.285 8.062315
53.290 8.006924
53.295 7.736901
53.300 7.934181
53.305 8.239996
53.310 7.829259
53.315 7.439181
53.320 7.045474
53.325 7.056658
53.330 7.62301
53.335 8.00261
53.340 8.087288
53.345 8.721341
53.350 9.268563
53.355 9.806515
53.360 10.08261
53.365 9.762726
53.370 9.604277
53.375 9.587969
53.380 9.502063
53.385 9.454401
53.390 9.154319
53.395 8.716883
53.400 8.876
53.405 8.519989
53.410 8.585336
53.415 8.630713
53.420 8.543402
53.425 8.665236
53.430 8.687868
53.435 8.711633
53.440 8.934829
53.445 8.736667
53.450 8.951547
53.455 9.858042
53.460 10.168344
53.465 10.097325
53.470 10.239308
53.475 10.298199
53.480 10.023391
53.485 9.857697
53.490 9.113394
53.495 9.045862
53.500 9.233265
53.505 9.137575
53.510 9.147528
53.515 9.270085
53.520 9.409595
53.525 9.864344
53.530 9.585973
53.535 9.62455
53.540 9.500581
53.545 9.542123
53.550 9.725715
53.555 9.393307
53.560 9.253969
53.565 9.258096
53.570 9.177525
53.575 9.072792
53.580 8.748216
53.585 8.580926
53.590 8.231995
53.595 8.232273
53.600 8.393549
53.605 8.547502
53.610 9.006813
53.615 9.241415
53.620 9.447536
53.625 9.808379
53.630 9.872887
53.635 10.011166
53.640 10.215574
53.645 10.184143
53.650 10.068715
53.655 10.206396
53.660 10.380053
53.665 10.721496
53.670 10.407486
53.675 10.238404
53.680 10.183097
53.685 10.60209
53.690 10.599993
53.695 9.999646
53.700 9.240797
53.705 9.046456
53.710 8.783716
53.715 8.673324
53.720 8.51087
53.725 8.87001
53.730 9.314962
53.735 9.860389
53.740 10.603839
53.745 10.829312
53.750 11.069659
53.755 11.251862
53.760 11.276512
53.765 11.239706
53.770 10.757034
53.775 10.560529
53.780 10.483839
53.785 10.30199
53.790 9.735365
53.795 9.233131
53.800 9.402308
53.805 9.551998
53.810 9.082269
53.815 8.618289
53.820 8.583007
53.825 8.575604
53.830 8.88872
53.835 8.897328
53.840 8.685814
53.845 9.310163
53.850 9.729216
53.855 10.043864
53.860 10.102524
53.865 9.877748
53.870 9.592716
53.875 9.804726
53.880 9.353837
53.885 9.184195
53.890 9.062594
53.895 8.772303
53.900 8.691542
53.905 8.987698
53.910 9.171848
53.915 9.190994
53.920 8.894474
53.925 8.666255
53.930 8.884116
53.935 8.82314
53.940 8.374115
53.945 8.381259
53.950 8.919122
53.955 8.975122
53.960 9.075014
53.965 9.293264
53.970 9.213573
53.975 9.492024
53.980 9.455996
53.985 9.195855
53.990 9.446726
53.995 9.329353
54.000 9.24216
54.005 9.44075
54.010 9.336074
54.015 9.141539
54.020 8.967642
54.025 8.722514
54.030 8.995449
54.035 9.181986
54.040 9.05674
54.045 9.453333
54.050 9.753995
54.055 9.706335
54.060 9.916108
54.065 9.610629
54.070 9.992629
54.075 10.006727
54.080 9.775589
54.085 9.786483
54.090 10.094441
54.095 10.468624
54.100 10.445182
54.105 9.932194
54.110 9.970026
54.115 9.738395
54.120 9.823452
54.125 9.775711
54.130 9.160101
54.135 9.011582
54.140 9.293233
54.145 9.280644
54.150 9.36083
54.155 8.992003
54.160 8.921014
54.165 9.201467
54.170 9.751124
54.175 9.81642
54.180 10.263583
54.185 10.580729
54.190 10.760633
54.195 10.865937
54.200 10.574797
54.205 10.181556
54.210 9.910806
54.215 9.435986
54.220 9.495766
54.225 9.63828
54.230 9.819472
54.235 9.850321
54.240 9.541607
54.245 9.618136
54.250 9.225673
54.255 9.025915
54.260 9.13985
54.265 8.960516
54.270 9.293544
54.275 9.775517
54.280 9.816837
54.285 9.960746
54.290 9.749634
54.295 9.376578
54.300 9.604661
54.305 9.994761
54.310 10.33122
54.315 10.353486
54.320 10.890822
54.325 11.041416
54.330 11.098281
54.335 10.82509
54.340 10.599093
54.345 10.729581
54.350 10.590067
54.355 10.121655
54.360 10.452868
54.365 10.802737
54.370 10.934742
54.375 10.87096
54.380 10.157148
54.385 10.284057
54.390 10.341695
54.395 10.089902
54.400 9.535935
54.405 9.319689
54.410 9.563643
54.415 10.21443
54.420 10.581505
54.425 10.719404
54.430 10.969911
54.435 11.07712
54.440 11.406226
54.445 11.261012
54.450 10.787227
54.455 10.004972
54.460 9.636505
54.465 9.232656
54.470 9.059132
54.475 8.82558
54.480 9.36112
54.485 9.979507
54.490 10.172276
54.495 10.334796
54.500 10.451754
54.505 10.774199
54.510 10.243478
54.515 10.266751
54.520 10.128034
54.525 10.511773
54.530 10.848031
54.535 10.714594
54.540 10.314711
54.545 10.169425
54.550 10.262706
54.555 10.080282
54.560 9.693516
54.565 9.294751
54.570 9.377571
54.575 9.666414
54.580 9.590964
54.585 9.285316
54.590 9.514895
54.595 9.832675
54.600 10.346325
54.605 10.903831
54.610 11.125971
54.615 11.046004
54.620 10.619273
54.625 10.244801
54.630 10.135357
54.635 9.639395
54.640 9.5107
54.645 9.56819
54.650 10.079905
54.655 10.443997
54.660 10.387079
54.665 10.548959
54.670 10.833702
54.675 10.970542
54.680 11.027374
54.685 10.361626
54.690 10.569485
54.695 11.224983
54.700 11.18532
54.705 10.777353
54.710 10.255815
54.715 10.261007
54.720 10.320962
54.725 9.869328
54.730 9.439286
54.735 9.466112
54.740 9.319203
54.745 9.341938
54.750 9.663694
54.755 9.76225
54.760 10.141369
54.765 10.375
54.770 10.320624
54.775 10.669658
54.780 10.487931
54.785 10.349003
54.790 10.624187
54.795 10.614335
54.800 10.785966
54.805 10.72431
54.810 10.631528
54.815 10.429901
54.820 10.525796
54.825 10.7627
54.830 10.455857
54.835 10.322955
54.840 10.241231
54.845 10.447034
54.850 11.181008
54.855 10.894676
54.860 10.778052
54.865 10.734696
54.870 11.112142
54.875 11.168942
54.880 11.228333
54.885 11.181259
54.890 11.270485
54.895 11.450559
54.900 11.110136
54.905 10.741042
54.910 10.841703
54.915 10.447463
54.920 10.255957
54.925 10.563548
54.930 10.881253
54.935 11.392094
54.940 11.217126
54.945 10.937628
54.950 10.911786
54.955 10.430694
54.960 9.971148
54.965 9.465297
54.970 9.217797
54.975 9.668455
54.980 9.827948
54.985 10.059783
54.990 10.22504
54.995 10.532224
55.000 10.53194
55.005 10.656869
55.010 10.636978
55.015 10.217194
55.020 10.169389
55.025 10.441652
55.030 10.201449
55.035 10.31814
55.040 10.305952
55.045 10.513931
55.050 10.716561
55.055 11.044244
55.060 11.249069
55.065 11.064013
55.070 10.656067
55.075 10.521076
55.080 10.652877
55.085 10.706807
55.090 10.47331
55.095 10.344025
55.100 10.873436
55.105 11.932703
55.110 12.404487
55.115 12.537156
55.120 12.378943
55.125 12.063118
55.130 11.881792
55.135 11.832458
55.140 10.889894
55.145 10.582989
55.150 10.807273
55.155 11.169362
55.160 11.551289
55.165 11.551827
55.170 12.11957
55.175 12.395056
55.180 12.411237
55.185 12.296124
55.190 12.845393
55.195 13.221621
55.200 13.320659
55.205 12.907988
55.210 12.879459
55.215 12.236374
55.220 11.733533
55.225 11.49755
55.230 10.979967
55.235 10.810017
55.240 10.828192
55.245 11.237363
55.250 11.624624
55.255 11.855927
55.260 11.234093
55.265 11.410972
55.270 11.360441
55.275 10.852875
55.280 10.612891
55.285 10.36509
55.290 10.068087
55.295 10.517915
55.300 10.380492
55.305 10.662309
55.310 10.577882
55.315 10.667614
55.320 10.780292
55.325 10.614334
55.330 10.473299
55.335 10.5013
55.340 10.594112
55.345 10.904656
55.350 10.854107
55.355 11.18571
55.360 11.599324
55.365 11.344043
55.370 11.422425
55.375 11.007983
55.380 10.709688
55.385 10.694527
55.390 10.598807
55.395 10.400017
55.400 10.273853
55.405 10.162135
55.410 10.46718
55.415 10.412415
55.420 10.205936
55.425 9.856606
55.430 9.623135
55.435 9.539439
55.440 9.411889
55.445 9.516504
55.450 9.635347
55.455 9.627608
55.460 9.722644
55.465 10.189348
55.470 10.938277
55.475 11.002725
55.480 10.892824
55.485 10.777095
55.490 10.868216
55.495 11.097553
55.500 10.99048
55.505 10.401276
55.510 10.358864
55.515 10.514623
55.520 10.58017
55.525 10.536842
55.530 10.185918
55.535 10.318247
55.540 10.736764
55.545 10.404933
55.550 10.424805
55.555 10.751663
55.560 11.238436
55.565 11.485778
55.570 10.998565
55.575 11.258876
55.580 11.987011
55.585 12.050018
55.590 11.653219
55.595 11.468679
55.600 11.8608
55.605 11.843193
55.610 11.547245
55.615 11.103981
55.620 11.039226
55.625 11.124127
55.630 10.938785
55.635 10.596438
55.640 10.543323
55.645 10.741782
55.650 11.121534
55.655 11.272388
55.660 11.224663
55.665 10.552648
55.670 10.518988
55.675 10.757006
55.680 10.752527
55.685 10.511105
55.690 10.56665
55.695 10.902371
55.700 11.758262
55.705 12.221041
55.710 12.232767
55.715 12.031574
55.720 11.936147
55.725 12.075966
55.730 12.160048
55.735 11.946682
55.740 11.35656
55.745 11.073727
55.750 11.278469
55.755 11.108067
55.760 10.971138
55.765 11.00316
55.770 10.915202
55.775 10.815234
55.780 10.787858
55.785 10.758636
55.790 11.326942
55.795 11.284102
55.800 11.25176
55.805 11.53323
55.810 12.055401
55.815 11.894929
55.820 11.633469
55.825 11.150249
55.830 11.155432
55.835 11.099694
55.840 10.55158
55.845 10.419459
55.850 10.331341
55.855 10.501282
55.860 10.387547
55.865 10.29973
55.870 9.638968
55.875 9.840358
55.880 10.1649
55.885 10.692513
55.890 10.733899
55.895 10.962136
55.900 11.268745
55.905 12.060353
55.910 11.998231
55.915 11.780871
55.920 11.999998
55.925 12.203765
55.930 11.797274
55.935 11.767811
55.940 11.776114
55.945 12.052302
55.950 12.07092
55.955 11.778474
55.960 11.77608
55.965 11.678424
55.970 11.744723
55.975 11.796621
55.980 12.011135
55.985 12.152233
55.990 11.974771
55.995 12.026216
56.000 12.414526
56.005 12.357586
56.010 11.893624
56.015 11.532043
56.020 11.50389
56.025 11.836025
56.030 11.315067
56.035 11.533404
56.040 11.403545
56.045 11.637659
56.050 11.729663
56.055 11.409698
56.060 11.01815
56.065 11.163017
56.070 10.922193
56.075 11.331971
56.080 11.358698
56.085 11.376631
56.090 11.83301
56.095 11.782356
56.100 11.60153
56.105 11.98074
56.110 12.053942
56.115 11.715842
56.120 11.315745
56.125 10.674476
56.130 10.411251
56.135 10.393322
56.140 9.826495
56.145 9.748716
56.150 10.211469
56.155 10.700397
56.160 11.438777
56.165 11.751583
56.170 11.787381
56.175 11.658269
56.180 11.146483
56.185 11.222928
56.190 11.407305
56.195 11.327113
56.200 11.769001
56.205 11.597813
56.210 11.535251
56.215 12.158458
56.220 11.805507
56.225 11.871022
56.230 12.086633
56.235 12.370052
56.240 12.784972
56.245 13.678122
56.250 13.347674
56.255 13.574747
56.260 13.5771
56.265 13.53464
56.270 13.45254
56.275 12.948322
56.280 12.225632
56.285 12.671272
56.290 13.239579
56.295 13.337738
56.300 13.300539
56.305 13.588432
56.310 13.760607
56.315 14.161042
56.320 13.718337
56.325 13.369187
56.330 13.353111
56.335 13.747273
56.340 13.339508
56.345 13.543778
56.350 13.681849
56.355 13.730729
56.360 13.612733
56.365 13.084506
56.370 13.120496
56.375 13.734739
56.380 13.484634
56.385 13.381796
56.390 13.173305
56.395 13.068058
56.400 13.073083
56.405 12.199725
56.410 11.902717
56.415 11.876655
56.420 11.987109
56.425 12.352329
56.430 12.638323
56.435 12.857282
56.440 13.135342
56.445 12.979528
56.450 12.623516
56.455 11.833012
56.460 11.132689
56.465 10.607221
56.470 10.483952
56.475 10.125179
56.480 9.930755
56.485 10.284614
56.490 10.409374
56.495 10.467049
56.500 10.863648
56.505 11.162993
56.510 11.549533
56.515 11.931879
56.520 12.245458
56.525 12.735022
56.530 12.604334
56.535 12.357527
56.540 12.579971
56.545 12.90796
56.550 12.858263
56.555 13.153289
56.560 12.889939
56.565 13.396086
56.570 13.77318
56.575 13.197076
56.580 13.273105
56.585 13.282117
56.590 13.093055
56.595 13.568332
56.600 13.760889
56.605 13.981734
56.610 14.168517
56.615 13.426183
56.620 13.357453
56.625 13.301371
56.630 13.652929
56.635 13.340941
56.640 12.954797
56.645 12.711256
56.650 12.815372
56.655 12.760951
56.660 12.591408
56.665 12.198608
56.670 12.320807
56.675 12.495069
56.680 12.904461
56.685 13.266754
56.690 13.644416
56.695 13.414
56.700 13.093987
56.705 13.109118
56.710 12.740023
56.715 12.246531
56.720 12.21656
56.725 12.264862
56.730 12.640436
56.735 13.205317
56.740 13.073296
56.745 14.077811
56.750 14.3167
56.755 14.015867
56.760 13.944353
56.765 13.792489
56.770 13.856952
56.775 14.01058
56.780 13.324622
56.785 13.79332
56.790 14.303451
56.795 14.545702
56.800 15.020996
56.805 15.539644
56.810 15.596474
56.815 15.460944
56.820 15.019651
56.825 14.350983
56.830 13.948349
56.835 13.103678
56.840 12.320559
56.845 12.186545
56.850 12.328573
56.855 12.070226
56.860 12.212097
56.865 12.405529
56.870 12.023331
56.875 11.908816
56.880 12.142485
56.885 12.094999
56.890 12.1602
56.895 11.681985
56.900 11.34117
56.905 11.89798
56.910 11.628747
56.915 11.750571
56.920 11.993242
56.925 12.377591
56.930 12.914419
56.935 12.656934
56.940 12.777165
56.945 12.912045
56.950 12.324685
56.955 12.111265
56.960 11.959076
56.965 11.869588
56.970 11.953487
56.975 12.215606
56.980 12.679738
56.985 13.609163
56.990 13.694008
56.995 14.065188
57.000 14.331606
57.005 14.525002
57.010 14.415962
57.015 13.857973
57.020 13.350987
57.025 13.22631
57.030 12.751284
57.035 12.524628
57.040 12.438767
57.045 12.202171
57.050 12.380886
57.055 12.609604
57.060 12.841784
57.065 13.146619
57.070 13.225203
57.075 13.054132
57.080 13.091988
57.085 13.034258
57.090 12.887175
57.095 12.572114
57.100 12.416224
57.105 12.227727
57.110 12.608432
57.115 12.190872
57.120 11.911782
57.125 12.243766
57.130 12.472204
57.135 12.72538
57.140 12.850687
57.145 12.705276
57.150 13.142519
57.155 13.502121
57.160 13.244203
57.165 12.904247
57.170 12.840808
57.175 13.320215
57.180 13.555698
57.185 13.427831
57.190 13.68231
57.195 13.686477
57.200 14.001478
57.205 14.167882
57.210 14.034054
57.215 13.889009
57.220 13.824625
57.225 13.48028
57.230 13.667966
57.235 13.380494
57.240 13.715238
57.245 13.611111
57.250 13.660748
57.255 13.278337
57.260 13.24171
57.265 13.49141
57.270 13.720255
57.275 13.086476
57.280 12.850154
57.285 12.822791
57.290 13.087308
57.295 13.397866
57.300 13.141453
57.305 13.015047
57.310 12.633766
57.315 12.752928
57.320 12.608657
57.325 12.412749
57.330 12.273847
57.335 12.46909
57.340 13.212203
57.345 13.782381
57.350 14.375971
57.355 14.601249
57.360 14.746837
57.365 15.003022
57.370 15.10158
57.375 14.773497
57.380 14.765594
57.385 14.514763
57.390 15.121888
57.395 15.440145
57.400 14.676974
57.405 14.322765
57.410 14.264509
57.415 13.736903
57.420 13.684567
57.425 13.415507
57.430 13.150909
57.435 13.618428
57.440 13.356143
57.445 13.074274
57.450 13.15679
57.455 13.11321
57.460 12.407204
57.465 12.498806
57.470 12.396702
57.475 12.848958
57.480 13.558659
57.485 13.778637
57.490 13.714914
57.495 14.214949
57.500 14.259261
57.505 14.170918
57.510 13.84534
57.515 13.63908
57.520 13.680005
57.525 13.589699
57.530 13.24818
57.535 13.089512
57.540 12.725558
57.545 12.461722
57.550 12.456848
57.555 12.237057
57.560 12.223621
57.565 12.398134
57.570 12.952695
57.575 13.61641
57.580 14.116505
57.585 14.305237
57.590 14.399026
57.595 14.527906
57.600 14.323553
57.605 13.564256
57.610 13.998543
57.615 13.859374
57.620 13.501309
57.625 13.95918
57.630 14.359964
57.635 14.299278
57.640 14.641415
57.645 14.271085
57.650 14.169585
57.655 14.17106
57.660 14.146533
57.665 14.16858
57.670 14.457076
57.675 13.858956
57.680 13.693686
57.685 13.443005
57.690 13.182091
57.695 12.433284
57.700 12.539234
57.705 12.571216
57.710 12.888577
57.715 12.859412
57.720 13.330914
57.725 13.302786
57.730 13.495485
57.735 13.027821
57.740 12.863981
57.745 13.050927
57.750 13.35827
57.755 13.589231
57.760 14.405163
57.765 14.824965
57.770 15.112166
57.775 15.838549
57.780 15.883537
57.785 15.645174
57.790 15.069818
57.795 14.55845
57.800 14.225196
57.805 14.060431
57.810 13.319112
57.815 13.413465
57.820 13.73562
57.825 13.898021
57.830 13.489966
57.835 13.221552
57.840 13.105719
57.845 12.831603
57.850 12.6898
57.855 12.787457
57.860 12.821599
57.865 13.428686
57.870 13.427982
57.875 13.19465
57.880 13.40497
57.885 13.227036
57.890 12.832577
57.895 12.963367
57.900 12.644278
57.905 12.752504
57.910 13.207313
57.915 13.212148
57.920 13.359608
57.925 13.041629
57.930 13.106058
57.935 13.195979
57.940 13.239803
57.945 12.522163
57.950 12.556338
57.955 12.909439
57.960 12.891064
57.965 12.667503
57.970 12.918769
57.975 13.026246
57.980 13.361762
57.985 13.436266
57.990 13.279855
57.995 13.552299
58.000 13.894483
58.005 13.749053
58.010 14.327551
58.015 14.360109
58.020 14.173692
58.025 14.066279
58.030 13.772688
58.035 13.925385
58.040 14.121025
58.045 14.19331
58.050 14.494348
58.055 14.83057
58.060 15.260098
58.065 15.410244
58.070 15.099037
58.075 15.634213
58.080 15.4545
58.085 14.959672
58.090 14.639642
58.095 14.745611
58.100 14.297626
58.105 14.502703
58.110 13.855429
58.115 13.77356
58.120 13.908057
58.125 13.831048
58.130 13.855481
58.135 13.993468
58.140 13.207141
58.145 13.17011
58.150 13.308087
58.155 13.31066
58.160 13.607715
58.165 13.821317
58.170 14.599332
58.175 15.295197
58.180 15.573998
58.185 15.363995
58.190 15.184381
58.195 14.676981
58.200 14.359717
58.205 13.631449
58.210 13.405905
58.215 13.429304
58.220 13.925161
58.225 14.058052
58.230 13.752151
58.235 13.329121
58.240 13.356856
58.245 13.221729
58.250 12.717751
58.255 12.757545
58.260 12.877443
58.265 12.888564
58.270 13.333817
58.275 13.661775
58.280 14.154786
58.285 14.227953
58.290 13.676282
58.295 13.887587
58.300 13.780319
58.305 13.906059
58.310 13.965437
58.315 13.274831
58.320 13.707346
58.325 13.571916
58.330 13.294745
58.335 13.575643
58.340 13.405885
58.345 13.439589
58.350 13.936392
58.355 14.351271
58.360 14.47077
58.365 14.820814
58.370 14.670741
58.375 15.082101
58.380 15.483804
58.385 15.218202
58.390 14.834569
58.395 15.128158
58.400 15.535592
58.405 15.746908
58.410 15.581357
58.415 15.63223
58.420 15.661447
58.425 15.715302
58.430 15.505837
58.435 14.959086
58.440 14.915276
58.445 14.504242
58.450 14.137125
58.455 13.913546
58.460 13.673957
58.465 13.626125
58.470 13.850756
58.475 13.450946
58.480 14.085087
58.485 14.330029
58.490 14.429745
58.495 14.319452
58.500 14.328486
58.505 14.243481
58.510 14.485399
58.515 14.065923
