!@!!GADDS PLOTSO FILE: Chi integration type
!@!!Title/SampleName: map-cc
!@!!Comment: ?
!@!!User: Bruker Instrument Administrator
!@!!Site: University of Illinois Chicago
!@!!Frame: map-cc_01_000.gfrm
!@!!Wavelengths    1.54184   1.54056   1.54439
!@!!Frame angles: 2Theta: 63.000 Omega: 50.000 Phi: 0.000 Chi: 90.000
!@!!Integration range: 2Theta: 53.000 to 73.000  Gamma: -105.000 to -75.000
!@!!Integration method: bin normalized
!@!N
!@!SS
!@!M
!@!L 0.0 0.0 0.0 0.0
!@!XDegrees
!@!YCounts
53.000 10.736663
53.005 10.830385
53.010 10.516936
53.015 10.166448
53.020 9.763393
53.025 9.045259
53.030 8.49173
53.035 8.462564
53.040 8.586218
53.045 9.166946
53.050 9.782064
53.055 9.975924
53.060 10.73439
53.065 10.931451
53.070 10.377866
53.075 10.638959
53.080 10.487035
53.085 10.035366
53.090 10.390839
53.095 10.315825
53.100 10.64124
53.105 11.120496
53.110 10.9399
53.115 11.216138
53.120 11.278979
53.125 10.946996
53.130 10.639034
53.135 10.554004
53.140 10.249716
53.145 9.81528
53.150 9.664578
53.155 9.77612
53.160 9.791821
53.165 9.693794
53.170 9.661725
53.175 9.851174
53.180 10.03506
53.185 9.88582
53.190 10.018526
53.195 10.347612
53.200 10.57545
53.205 10.896179
53.210 10.602661
53.215 10.909484
53.220 11.136325
53.225 10.824616
53.230 10.822536
53.235 11.006363
53.240 11.495748
53.245 11.432271
53.250 11.284875
53.255 11.433172
53.260 11.315171
53.265 11.075321
53.270 10.568909
53.275 10.306665
53.280 10.300589
53.285 9.481374
53.290 8.917078
53.295 8.817226
53.300 8.881223
53.305 9.313394
53.310 9.482438
53.315 10.252371
53.320 10.967671
53.325 11.409636
53.330 11.167676
53.335 11.402382
53.340 10.783871
53.345 10.592405
53.350 10.374275
53.355 10.223549
53.360 10.690385
53.365 11.154701
53.370 11.257355
53.375 11.324893
53.380 11.331323
53.385 10.994206
53.390 10.637803
53.395 10.670182
53.400 10.689454
53.405 10.782411
53.410 10.855956
53.415 11.081097
53.420 11.157317
53.425 10.885504
53.430 11.133452
53.435 11.305906
53.440 11.328604
53.445 11.69897
53.450 11.545457
53.455 11.69983
53.460 12.270665
53.465 12.072673
53.470 12.196105
53.475 12.363857
53.480 11.987176
53.485 12.194299
53.490 11.924623
53.495 11.146088
53.500 10.655917
53.505 10.431424
53.510 9.985573
53.515 9.824683
53.520 9.96837
53.525 10.305285
53.530 10.494132
53.535 10.440623
53.540 10.399985
53.545 10.68937
53.550 11.118589
53.555 10.690706
53.560 10.919766
53.565 11.249485
53.570 11.303251
53.575 11.55055
53.580 11.172541
53.585 11.165119
53.590 11.674301
53.595 12.161295
53.600 12.196661
53.605 12.251564
53.610 12.506503
53.615 13.23315
53.620 13.309726
53.625 13.230324
53.630 12.63133
53.635 12.643159
53.640 12.570375
53.645 12.619232
53.650 12.43234
53.655 12.018935
53.660 11.650446
53.665 11.608748
53.670 11.486551
53.675 10.852298
53.680 10.362402
53.685 10.476315
53.690 10.799818
53.695 11.401009
53.700 11.703196
53.705 12.014954
53.710 12.242267
53.715 12.120157
53.720 12.021994
53.725 11.60661
53.730 11.240987
53.735 10.90851
53.740 10.478183
53.745 10.439058
53.750 9.793097
53.755 9.499779
53.760 9.74082
53.765 9.551863
53.770 9.467874
53.775 9.573472
53.780 9.720069
53.785 10.343024
53.790 10.511713
53.795 10.45065
53.800 10.57901
53.805 10.300113
53.810 10.657924
53.815 10.958632
53.820 11.04385
53.825 11.100704
53.830 10.993259
53.835 11.378049
53.840 11.509572
53.845 11.477193
53.850 11.075639
53.855 10.917591
53.860 10.614413
53.865 10.558926
53.870 10.317104
53.875 10.495994
53.880 10.151411
53.885 9.953557
53.890 9.889887
53.895 9.949312
53.900 9.934636
53.905 9.884809
53.910 9.980699
53.915 10.324685
53.920 10.390719
53.925 10.446961
53.930 10.808898
53.935 10.67923
53.940 10.003143
53.945 9.944047
53.950 9.96615
53.955 10.228645
53.960 10.25526
53.965 10.355223
53.970 10.637879
53.975 10.727774
53.980 10.572505
53.985 10.248394
53.990 9.684638
53.995 9.43896
54.000 9.12088
54.005 9.296493
54.010 9.614177
54.015 9.899123
54.020 10.724002
54.025 11.523532
54.030 11.964857
54.035 12.03827
54.040 12.160047
54.045 12.441544
54.050 12.133294
54.055 11.761045
54.060 11.132585
54.065 10.928883
54.070 11.257532
54.075 11.221952
54.080 10.399074
54.085 9.84833
54.090 10.322742
54.095 10.642453
54.100 10.636984
54.105 10.892895
54.110 11.420715
54.115 11.977201
54.120 12.197703
54.125 11.969617
54.130 12.03726
54.135 11.964717
54.140 11.224657
54.145 11.455452
54.150 11.691727
54.155 11.673789
54.160 11.690919
54.165 11.477076
54.170 11.375225
54.175 11.048624
54.180 10.325043
54.185 10.000334
54.190 10.040143
54.195 9.846143
54.200 9.9975
54.205 10.137577
54.210 10.382993
54.215 10.631401
54.220 10.598149
54.225 10.75605
54.230 11.020473
54.235 11.193089
54.240 11.262136
54.245 11.536448
54.250 11.729786
54.255 12.023263
54.260 11.920642
54.265 12.097339
54.270 12.399508
54.275 12.781649
54.280 12.602604
54.285 12.410359
54.290 12.329837
54.295 12.57511
54.300 12.478827
54.305 12.699235
54.310 12.464936
54.315 12.647099
54.320 13.118771
54.325 13.224422
54.330 13.245162
54.335 13.29425
54.340 12.758553
54.345 13.062813
54.350 12.973701
54.355 12.593213
54.360 12.356167
54.365 12.020485
54.370 11.539874
54.375 11.368988
54.380 11.010454
54.385 11.301784
54.390 11.498601
54.395 11.924209
54.400 12.220285
54.405 13.113048
54.410 13.75147
54.415 13.472838
54.420 12.717255
54.425 12.678806
54.430 12.298565
54.435 11.858507
54.440 11.036308
54.445 10.971844
54.450 11.409726
54.455 11.600235
54.460 11.528798
54.465 11.461069
54.470 11.91336
54.475 12.118646
54.480 11.742126
54.485 12.10015
54.490 12.587363
54.495 12.71418
54.500 12.451321
54.505 11.714701
54.510 11.598907
54.515 11.527725
54.520 11.22438
54.525 11.290121
54.530 11.205513
54.535 11.883018
54.540 12.921078
54.545 13.387752
54.550 13.281559
54.555 13.233586
54.560 13.349643
54.565 13.799395
54.570 13.812819
54.575 13.084848
54.580 12.954405
54.585 13.274522
54.590 13.514353
54.595 13.02388
54.600 12.748284
54.605 12.820138
54.610 12.93352
54.615 13.43171
54.620 13.153379
54.625 12.78484
54.630 12.924253
54.635 12.840992
54.640 12.444448
54.645 12.599895
54.650 11.965879
54.655 11.974388
54.660 11.587442
54.665 11.371552
54.670 11.342743
54.675 11.298241
54.680 10.918973
54.685 11.27216
54.690 11.641333
54.695 11.752287
54.700 11.533446
54.705 11.534718
54.710 11.742049
54.715 11.947569
54.720 12.072115
54.725 12.191929
54.730 13.035889
54.735 13.577377
54.740 13.547409
54.745 13.33269
54.750 13.042511
54.755 13.050161
54.760 13.275647
54.765 12.992866
54.770 12.882342
54.775 12.977229
54.780 12.707187
54.785 13.093925
54.790 12.769197
54.795 12.291183
54.800 11.911654
54.805 11.900216
54.810 12.279696
54.815 12.830243
54.820 12.827518
54.825 13.127795
54.830 13.389879
54.835 13.332014
54.840 13.139218
54.845 12.935263
54.850 12.608204
54.855 12.892864
54.860 12.800601
54.865 13.026225
54.870 13.01367
54.875 13.418852
54.880 13.266397
54.885 12.980531
54.890 12.622735
54.895 12.895607
54.900 12.748879
54.905 12.506723
54.910 12.642273
54.915 12.963176
54.920 13.213395
54.925 12.6051
54.930 12.224428
54.935 12.48103
54.940 12.756181
54.945 12.711748
54.950 12.907551
54.955 12.789183
54.960 13.106058
54.965 13.158563
54.970 13.435856
54.975 13.438932
54.980 13.115034
54.985 13.078778
54.990 12.911487
54.995 12.478494
55.000 12.281693
55.005 12.012973
55.010 11.836416
55.015 11.598825
55.020 11.209846
55.025 11.736944
55.030 12.184485
55.035 12.226457
55.040 11.999408
55.045 12.052518
55.050 12.22279
55.055 12.314093
55.060 12.001008
55.065 11.837696
55.070 12.223607
55.075 12.568746
55.080 12.431338
55.085 12.05012
55.090 12.079391
55.095 12.019372
55.100 11.904868
55.105 11.521084
55.110 11.534949
55.115 11.606861
55.120 11.562526
55.125 12.037508
55.130 12.795007
55.135 12.994164
55.140 13.110882
55.145 12.934693
55.150 13.052428
55.155 13.404422
55.160 12.711653
55.165 12.106374
55.170 11.689857
55.175 11.320622
55.180 11.738655
55.185 11.971706
55.190 12.001623
55.195 11.861974
55.200 11.798047
55.205 11.918324
55.210 12.157992
55.215 12.34376
55.220 11.957426
55.225 12.101179
55.230 11.872869
55.235 12.317422
55.240 12.549678
55.245 13.004013
55.250 13.430815
55.255 14.178137
55.260 14.176055
55.265 14.367672
55.270 14.225326
55.275 13.647345
55.280 12.752966
55.285 11.930824
55.290 11.411532
55.295 11.525096
55.300 11.270646
55.305 11.024964
55.310 11.490773
55.315 12.155974
55.320 12.193033
55.325 12.529885
55.330 12.477581
55.335 12.78548
55.340 12.967279
55.345 12.45184
55.350 12.061073
55.355 12.16382
55.360 11.750809
55.365 12.131906
55.370 11.827083
55.375 11.610678
55.380 11.66762
55.385 11.67793
55.390 11.534263
55.395 11.997386
55.400 12.383997
55.405 13.093312
55.410 13.435801
55.415 13.298332
55.420 13.296541
55.425 13.000901
55.430 12.727006
55.435 12.70014
55.440 12.668296
55.445 13.153705
55.450 13.549068
55.455 13.807515
55.460 14.231881
55.465 14.012441
55.470 13.834476
55.475 13.21957
55.480 13.147217
55.485 13.501864
55.490 13.503896
55.495 13.761872
55.500 13.765629
55.505 14.270094
55.510 14.935795
55.515 14.55572
55.520 14.202165
55.525 14.034171
55.530 13.787465
55.535 13.814856
55.540 13.332038
55.545 13.109827
55.550 13.330169
55.555 13.389329
55.560 13.230609
55.565 12.926807
55.570 12.471487
55.575 12.257303
55.580 12.267089
55.585 12.066201
55.590 12.277916
55.595 12.84266
55.600 13.306828
55.605 13.336339
55.610 13.427442
55.615 13.209094
55.620 13.455756
55.625 13.122343
55.630 12.436
55.635 11.780836
55.640 11.552862
55.645 11.386553
55.650 11.213107
55.655 11.179166
55.660 11.712161
55.665 11.933335
55.670 12.158754
55.675 12.206582
55.680 12.542754
55.685 12.837214
55.690 12.8477
55.695 12.681459
55.700 12.825188
55.705 12.861694
55.710 12.873833
55.715 12.906768
55.720 13.228249
55.725 13.400185
55.730 13.269555
55.735 12.917964
55.740 12.863452
55.745 12.371224
55.750 11.819239
55.755 11.270263
55.760 10.615623
55.765 10.73102
55.770 11.240389
55.775 11.605863
55.780 12.276759
55.785 12.273827
55.790 12.04333
55.795 12.226705
55.800 12.327166
55.805 12.490661
55.810 12.246713
55.815 11.981953
55.820 12.365127
55.825 12.868858
55.830 12.914559
55.835 13.113733
55.840 13.232403
55.845 13.771502
55.850 13.817887
55.855 13.762715
55.860 13.260794
55.865 13.015209
55.870 12.742208
55.875 13.011106
55.880 12.483714
55.885 12.489637
55.890 12.434525
55.895 12.90622
55.900 13.148136
55.905 13.176131
55.910 13.107618
55.915 13.396613
55.920 13.345309
55.925 13.502603
55.930 13.485905
55.935 13.767895
55.940 14.179858
55.945 14.89204
55.950 15.902497
55.955 16.384712
55.960 16.016109
55.965 15.520241
55.970 15.071964
55.975 14.452546
55.980 13.673064
55.985 12.714925
55.990 12.315054
55.995 12.514616
56.000 12.793629
56.005 12.589627
56.010 12.272452
56.015 12.124451
56.020 12.188337
56.025 12.571578
56.030 12.711764
56.035 12.447465
56.040 12.487445
56.045 12.769687
56.050 13.101685
56.055 13.103351
56.060 12.815434
56.065 12.828964
56.070 13.334387
56.075 13.524874
56.080 13.330125
56.085 13.095518
56.090 12.995305
56.095 12.847213
56.100 12.511567
56.105 12.510824
56.110 12.617399
56.115 12.973277
56.120 12.985884
56.125 13.011696
56.130 12.919654
56.135 13.177531
56.140 13.017062
56.145 13.072716
56.150 13.281416
56.155 13.524738
56.160 13.754373
56.165 13.785825
56.170 14.011024
56.175 13.871224
56.180 13.591641
56.185 13.496336
56.190 13.763311
56.195 14.19424
56.200 14.544548
56.205 14.752392
56.210 14.957899
56.215 14.905869
56.220 14.373662
56.225 13.36082
56.230 13.041075
56.235 12.90969
56.240 12.984644
56.245 12.862398
56.250 12.91017
56.255 13.437708
56.260 14.169174
56.265 14.275566
56.270 14.410009
56.275 14.284803
56.280 14.354366
56.285 14.298476
56.290 14.005496
56.295 14.135359
56.300 14.125299
56.305 13.830514
56.310 13.811448
56.315 14.006334
56.320 14.031246
56.325 13.680302
56.330 13.483366
56.335 13.527006
56.340 13.472224
56.345 13.535789
56.350 13.617464
56.355 14.358249
56.360 14.436738
56.365 13.827013
56.370 14.228857
56.375 13.986967
56.380 13.361115
56.385 13.524734
56.390 13.171761
56.395 13.560092
56.400 13.938033
56.405 13.607213
56.410 14.192011
56.415 14.705671
56.420 14.805903
56.425 14.948528
56.430 14.812806
56.435 14.94321
56.440 15.103745
56.445 15.382845
56.450 15.389528
56.455 15.039777
56.460 14.971308
56.465 14.893651
56.470 14.647735
56.475 14.418413
56.480 13.808944
56.485 13.343903
56.490 13.3762
56.495 13.458002
56.500 13.331864
56.505 13.199472
56.510 13.221479
56.515 13.882373
56.520 14.414175
56.525 14.683705
56.530 14.821055
56.535 15.36987
56.540 15.716238
56.545 15.700123
56.550 15.197397
56.555 15.127005
56.560 14.715639
56.565 15.015706
56.570 14.740693
56.575 14.254374
56.580 14.294802
56.585 13.77364
56.590 13.467103
56.595 13.576231
56.600 13.123678
56.605 13.189372
56.610 13.468496
56.615 13.574333
56.620 13.927929
56.625 14.116663
56.630 14.430259
56.635 14.681041
56.640 14.993412
56.645 14.983164
56.650 14.723446
56.655 14.619615
56.660 14.388541
56.665 14.064087
56.670 13.790466
56.675 14.002321
56.680 14.532003
56.685 14.970062
56.690 14.920141
56.695 14.773806
56.700 14.250339
56.705 13.792117
56.710 13.160291
56.715 12.100047
56.720 11.904908
56.725 12.043541
56.730 12.105506
56.735 12.146096
56.740 12.006435
56.745 12.414982
56.750 12.984824
56.755 13.678488
56.760 14.585905
56.765 14.878917
56.770 15.268261
56.775 15.89535
56.780 16.158676
56.785 16.759283
56.790 16.00555
56.795 15.657546
56.800 16.297113
56.805 16.835905
56.810 16.774773
56.815 16.212669
56.820 15.303326
56.825 14.994391
56.830 14.105023
56.835 12.956414
56.840 12.765902
56.845 12.763438
56.850 12.444593
56.855 12.550729
56.860 12.960467
56.865 13.561175
56.870 13.884078
56.875 13.665818
56.880 13.675391
56.885 13.938402
56.890 14.303281
56.895 14.772124
56.900 14.936064
56.905 15.063114
56.910 14.764105
56.915 14.950798
56.920 15.238945
56.925 15.786849
56.930 15.659909
56.935 15.889627
56.940 15.535851
56.945 15.481086
56.950 15.831839
56.955 15.310274
56.960 14.431575
56.965 14.224763
56.970 14.220819
56.975 14.685799
56.980 14.927626
56.985 14.807248
56.990 15.041713
56.995 15.308403
57.000 15.476242
57.005 15.406878
57.010 15.318716
57.015 15.493801
57.020 15.433043
57.025 15.582666
57.030 15.586924
57.035 15.385824
57.040 14.970845
57.045 14.882286
57.050 14.658501
57.055 14.920127
57.060 14.901778
57.065 14.924356
57.070 15.357439
57.075 15.519959
57.080 15.501144
57.085 15.402202
57.090 15.160875
57.095 14.558102
57.100 14.549751
57.105 14.929511
57.110 15.518472
57.115 16.016508
57.120 15.963976
57.125 15.920056
57.130 16.107914
57.135 15.653516
57.140 15.278283
57.145 15.517598
57.150 15.642817
57.155 15.759403
57.160 15.881263
57.165 16.440424
57.170 16.653311
57.175 16.425043
57.180 16.045992
57.185 15.653668
57.190 15.924664
57.195 15.382927
57.200 15.267284
57.205 15.573762
57.210 16.026037
57.215 16.24099
57.220 16.121574
57.225 16.252192
57.230 16.553534
57.235 16.486391
57.240 15.948616
57.245 15.38709
57.250 15.41523
57.255 15.379186
57.260 15.209074
57.265 15.1661
57.270 14.864859
57.275 14.859097
57.280 15.038423
57.285 14.527613
57.290 14.315771
57.295 14.602969
57.300 15.139099
57.305 15.560849
57.310 15.634394
57.315 14.89034
57.320 15.136538
57.325 15.575027
57.330 15.069592
57.335 14.924503
57.340 15.025042
57.345 16.101034
57.350 17.278957
57.355 17.571993
57.360 17.64617
57.365 18.150337
57.370 17.846876
57.375 17.460592
57.380 16.590591
57.385 16.226074
57.390 15.612639
57.395 15.363234
57.400 15.269258
57.405 15.934182
57.410 16.072107
57.415 15.725666
57.420 15.262522
57.425 15.699649
57.430 15.716684
57.435 15.519547
57.440 14.80872
57.445 14.384131
57.450 14.513316
57.455 14.973812
57.460 14.884477
57.465 14.865745
57.470 15.074802
57.475 15.705807
57.480 16.579195
57.485 17.156719
57.490 17.223209
57.495 17.146284
57.500 17.325537
57.505 17.295486
57.510 17.318111
57.515 17.235573
57.520 16.710062
57.525 16.289375
57.530 15.920911
57.535 15.609932
57.540 15.300432
57.545 14.71562
57.550 14.290499
57.555 14.058684
57.560 14.419369
57.565 14.294591
57.570 14.724244
57.575 15.153862
57.580 15.146394
57.585 15.402569
57.590 16.19062
57.595 16.372295
57.600 16.956194
57.605 16.818735
57.610 17.366196
57.615 17.490099
57.620 17.701551
57.625 17.457348
57.630 17.451815
57.635 17.480726
57.640 17.289045
57.645 17.01252
57.650 17.492716
57.655 18.020025
57.660 18.409481
57.665 18.470423
57.670 17.81348
57.675 17.412666
57.680 16.511454
57.685 16.061621
57.690 15.733869
57.695 16.215336
57.700 16.384724
57.705 17.276657
57.710 17.715691
57.715 18.336878
57.720 18.7085
57.725 18.170982
57.730 18.059587
57.735 18.05649
57.740 17.784481
57.745 17.978382
57.750 18.109674
57.755 18.241804
57.760 18.319145
57.765 18.135565
57.770 17.94158
57.775 17.55854
57.780 17.049885
57.785 17.143133
57.790 17.102724
57.795 17.107182
57.800 16.566425
57.805 16.960999
57.810 17.693859
57.815 17.758577
57.820 16.897833
57.825 16.459536
57.830 17.027365
57.835 17.902908
57.840 17.832644
57.845 17.586151
57.850 17.696659
57.855 18.225731
57.860 18.048836
57.865 17.432648
57.870 16.856766
57.875 16.739662
57.880 16.99682
57.885 17.251921
57.890 17.1052
57.895 16.742754
57.900 16.693483
57.905 17.002602
57.910 17.419937
57.915 17.379908
57.920 17.052711
57.925 17.192001
57.930 17.59853
57.935 17.92395
57.940 17.557951
57.945 16.815008
57.950 16.73653
57.955 17.111038
57.960 17.333305
57.965 16.873991
57.970 16.556068
57.975 17.262619
57.980 17.581635
57.985 17.870663
57.990 17.230623
57.995 17.441034
58.000 17.72126
58.005 17.904243
58.010 17.585115
58.015 17.359638
58.020 16.95936
58.025 17.35277
58.030 17.192905
58.035 17.498547
58.040 17.481361
58.045 17.093424
58.050 17.270452
58.055 17.845398
58.060 17.684631
58.065 17.546621
58.070 18.021793
58.075 18.410742
58.080 18.998838
58.085 19.447519
58.090 19.305237
58.095 19.673079
58.100 19.520144
58.105 18.693539
58.110 17.810095
58.115 16.996084
58.120 16.806934
58.125 17.220509
58.130 17.059149
58.135 17.615355
58.140 17.953466
58.145 18.883657
58.150 19.307825
58.155 19.254126
58.160 19.337423
58.165 19.614828
58.170 19.432497
58.175 19.119005
58.180 18.891588
58.185 18.791988
58.190 18.529184
58.195 18.268208
58.200 18.130915
58.205 18.082916
58.210 19.00511
58.215 19.815748
58.220 20.174213
58.225 20.073418
58.230 20.711349
58.235 21.254791
58.240 21.595222
58.245 21.455498
58.250 21.387356
58.255 21.911514
58.260 22.483688
58.265 22.504736
58.270 22.304239
58.275 22.359474
58.280 22.282192
58.285 22.276711
58.290 22.207958
58.295 22.513693
58.300 22.136066
58.305 22.450026
58.310 22.466051
58.315 22.642593
58.320 22.718235
58.325 23.24687
58.330 23.49935
58.335 24.209702
58.340 24.480316
58.345 24.971046
58.350 26.109024
58.355 26.283798
58.360 26.290491
58.365 26.268766
58.370 25.938164
58.375 26.275196
58.380 26.318693
58.385 25.676338
58.390 25.526249
58.395 25.196217
58.400 24.86043
58.405 25.402803
58.410 25.740604
58.415 25.89678
58.420 26.143278
58.425 26.440561
58.430 27.127106
58.435 27.730312
58.440 27.57111
58.445 27.727898
58.450 28.218821
58.455 28.542681
