!@!!GADDS PLOTSO FILE: Chi integration type
!@!!Title/SampleName: map-18
!@!!Comment: ?
!@!!User: Bruker Instrument Administrator
!@!!Site: University of Illinois Chicago
!@!!Frame: map-18_01_000.gfrm
!@!!Wavelengths    1.54184   1.54056   1.54439
!@!!Frame angles: 2Theta: 63.000 Omega: 50.000 Phi: 0.000 Chi: 90.000
!@!!Integration range: 2Theta: 53.000 to 73.000  Gamma: -105.000 to -75.000
!@!!Integration method: bin normalized
!@!N
!@!SS
!@!M
!@!L 0.0 0.0 0.0 0.0
!@!XDegrees
!@!YCounts
53.000 8.299943
53.005 8.659677
53.010 8.982742
53.015 9.212134
53.020 9.528674
53.025 9.487539
53.030 9.707228
53.035 9.51873
53.040 9.146133
53.045 9.017929
53.050 8.547727
53.055 8.045691
53.060 8.263027
53.065 8.215905
53.070 8.628901
53.075 8.789551
53.080 8.352966
53.085 8.575451
53.090 8.623596
53.095 8.65306
53.100 8.563909
53.105 8.100559
53.110 8.357683
53.115 9.112895
53.120 9.414838
53.125 9.416306
53.130 9.384513
53.135 9.26687
53.140 9.1331
53.145 8.985611
53.150 8.662592
53.155 8.375113
53.160 8.273145
53.165 8.183712
53.170 8.196613
53.175 8.432776
53.180 8.376765
53.185 8.347003
53.190 8.421568
53.195 8.596311
53.200 9.046474
53.205 9.135261
53.210 9.397668
53.215 9.474815
53.220 9.363315
53.225 9.175122
53.230 9.183873
53.235 9.041686
53.240 8.935517
53.245 8.884501
53.250 9.260586
53.255 9.622985
53.260 9.405703
53.265 9.210771
53.270 8.994951
53.275 8.808871
53.280 8.604715
53.285 7.959675
53.290 7.849633
53.295 8.181636
53.300 8.383217
53.305 8.553582
53.310 8.732939
53.315 8.628286
53.320 8.500056
53.325 8.760439
53.330 8.941359
53.335 8.579965
53.340 8.762855
53.345 8.780905
53.350 8.872161
53.355 8.968771
53.360 9.109553
53.365 8.86972
53.370 8.953535
53.375 8.507816
53.380 8.68739
53.385 9.0011
53.390 9.036407
53.395 8.763231
53.400 8.840635
53.405 9.117704
53.410 9.33088
53.415 8.813859
53.420 8.377791
53.425 8.48457
53.430 8.770631
53.435 8.647652
53.440 8.439458
53.445 8.730329
53.450 9.028272
53.455 9.133171
53.460 8.481305
53.465 8.079801
53.470 8.164594
53.475 8.450393
53.480 8.410731
53.485 8.444892
53.490 8.028344
53.495 7.94352
53.500 8.266903
53.505 8.234509
53.510 8.044009
53.515 8.190561
53.520 8.86107
53.525 9.637553
53.530 9.809636
53.535 9.985975
53.540 9.936876
53.545 9.644755
53.550 9.065385
53.555 8.796267
53.560 8.989623
53.565 9.160543
53.570 9.328588
53.575 9.541181
53.580 9.980402
53.585 9.835767
53.590 9.678374
53.595 9.325657
53.600 9.186166
53.605 8.658422
53.610 8.259235
53.615 8.586972
53.620 9.265499
53.625 9.373942
53.630 9.333162
53.635 9.511454
53.640 9.782598
53.645 9.67995
53.650 9.434295
53.655 9.117403
53.660 8.912202
53.665 8.929922
53.670 8.756882
53.675 8.679331
53.680 8.92985
53.685 9.216108
53.690 9.458124
53.695 9.483064
53.700 9.636292
53.705 9.485423
53.710 9.496974
53.715 9.454446
53.720 9.0959
53.725 8.926703
53.730 9.034421
53.735 8.660742
53.740 9.231704
53.745 9.748004
53.750 9.791488
53.755 9.792049
53.760 9.628606
53.765 9.455768
53.770 9.734901
53.775 9.384821
53.780 8.982707
53.785 8.806527
53.790 8.589845
53.795 8.405827
53.800 8.823844
53.805 9.058824
53.810 9.363562
53.815 9.632261
53.820 9.854732
53.825 9.963691
53.830 10.142947
53.835 9.624695
53.840 9.31744
53.845 9.172912
53.850 9.056813
53.855 8.795266
53.860 9.073751
53.865 9.290776
53.870 9.650291
53.875 9.894209
53.880 9.5825
53.885 9.505248
53.890 9.669604
53.895 9.523432
53.900 9.747453
53.905 9.879944
53.910 9.455552
53.915 9.579406
53.920 9.68012
53.925 9.982241
53.930 10.406692
53.935 10.117352
53.940 10.186396
53.945 10.479639
53.950 10.826389
53.955 10.722966
53.960 10.07704
53.965 9.662496
53.970 9.982764
53.975 9.828031
53.980 9.555899
53.985 9.236288
53.990 9.572342
53.995 10.027334
54.000 10.128374
54.005 9.216465
54.010 9.054966
54.015 9.208307
54.020 9.284425
54.025 9.027419
54.030 8.826857
54.035 8.880822
54.040 9.802696
54.045 10.197228
54.050 10.081322
54.055 9.789418
54.060 9.520415
54.065 9.67003
54.070 9.215858
54.075 8.615506
54.080 8.61272
54.085 8.435734
54.090 8.751649
54.095 8.782501
54.100 8.298036
54.105 9.199355
54.110 9.55867
54.115 9.626332
54.120 9.703611
54.125 9.593526
54.130 9.809681
54.135 9.573903
54.140 9.197138
54.145 9.077708
54.150 9.079014
54.155 9.293921
54.160 9.248951
54.165 9.203331
54.170 9.472745
54.175 9.239841
54.180 9.18853
54.185 9.170515
54.190 8.874525
54.195 9.096278
54.200 10.085221
54.205 10.387419
54.210 10.449537
54.215 10.231232
54.220 10.467927
54.225 10.466412
54.230 10.260516
54.235 9.6546
54.240 9.233284
54.245 8.947128
54.250 9.521688
54.255 9.496078
54.260 9.393301
54.265 9.611836
54.270 10.107146
54.275 10.475982
54.280 10.382315
54.285 9.871271
54.290 9.603974
54.295 9.690253
54.300 9.180327
54.305 8.822806
54.310 9.197547
54.315 10.004657
54.320 11.009457
54.325 11.597291
54.330 11.911066
54.335 11.859141
54.340 11.069306
54.345 10.848088
54.350 10.122255
54.355 9.588806
54.360 9.414633
54.365 9.414362
54.370 9.762259
54.375 10.317357
54.380 10.425257
54.385 10.594921
54.390 10.769956
54.395 10.455475
54.400 10.414064
54.405 10.628592
54.410 10.203599
54.415 9.98959
54.420 10.477392
54.425 10.701757
54.430 11.280851
54.435 11.185424
54.440 11.072219
54.445 11.382733
54.450 11.315376
54.455 10.647943
54.460 10.544617
54.465 10.767523
54.470 11.479698
54.475 12.007204
54.480 12.191957
54.485 11.794668
54.490 11.787138
54.495 11.416904
54.500 10.863294
54.505 10.319752
54.510 9.817957
54.515 9.598575
54.520 10.053753
54.525 9.943742
54.530 9.919719
54.535 10.323783
54.540 10.264859
54.545 10.130851
54.550 9.864067
54.555 9.759739
54.560 10.177783
54.565 10.263535
54.570 10.018985
54.575 10.375769
54.580 10.431777
54.585 10.248271
54.590 9.737769
54.595 9.237012
54.600 8.986778
54.605 8.388773
54.610 7.739724
54.615 7.933208
54.620 8.387406
54.625 8.745539
54.630 8.826394
54.635 9.150369
54.640 9.76722
54.645 10.084946
54.650 10.06492
54.655 9.950186
54.660 9.975751
54.665 9.881823
54.670 9.553105
54.675 9.964169
54.680 10.582926
54.685 10.686353
54.690 10.783978
54.695 10.971395
54.700 11.422682
54.705 11.191289
54.710 10.508028
54.715 9.887951
54.720 10.043009
54.725 10.078266
54.730 9.618258
54.735 9.20201
54.740 9.163046
54.745 9.415903
54.750 9.934025
54.755 10.102377
54.760 10.387087
54.765 10.419703
54.770 10.475288
54.775 10.640212
54.780 10.426321
54.785 10.180635
54.790 9.983198
54.795 9.799238
54.800 10.392208
54.805 10.861398
54.810 11.090926
54.815 11.164296
54.820 11.171762
54.825 11.265212
54.830 11.691449
54.835 11.740698
54.840 11.693832
54.845 11.871287
54.850 12.022268
54.855 11.930737
54.860 11.371572
54.865 11.05905
54.870 11.160504
54.875 11.169985
54.880 11.37219
54.885 11.391047
54.890 11.685878
54.895 12.162919
54.900 12.41277
54.905 11.976366
54.910 11.828948
54.915 11.566938
54.920 11.614469
54.925 11.669975
54.930 11.051501
54.935 10.569258
54.940 10.517851
54.945 10.396746
54.950 10.283905
54.955 10.161796
54.960 10.309
54.965 10.802262
54.970 10.606661
54.975 10.515365
54.980 10.237662
54.985 10.169316
54.990 10.173529
54.995 9.914755
55.000 9.671426
55.005 9.550995
55.010 9.387033
55.015 9.206758
55.020 9.120152
55.025 8.94838
55.030 8.579815
55.035 8.516673
55.040 8.967278
55.045 9.588931
55.050 10.123276
55.055 10.132643
55.060 10.168076
55.065 10.565608
55.070 10.470569
55.075 10.401291
55.080 10.190545
55.085 10.344239
55.090 10.671868
55.095 10.92687
55.100 10.622737
55.105 10.785401
55.110 10.688704
55.115 10.649633
55.120 9.996979
55.125 9.764571
55.130 9.749853
55.135 9.949837
55.140 10.046795
55.145 10.100185
55.150 10.259508
55.155 10.671366
55.160 11.163873
55.165 11.128181
55.170 11.359141
55.175 11.295857
55.180 11.303672
55.185 11.094023
55.190 10.981639
55.195 10.377372
55.200 10.756642
55.205 10.914936
55.210 11.13854
55.215 11.435379
55.220 11.372627
55.225 11.557978
55.230 11.709424
55.235 11.399594
55.240 11.251919
55.245 11.146751
55.250 10.956001
55.255 10.885578
55.260 10.913828
55.265 10.648737
55.270 10.719485
55.275 10.559008
55.280 10.098156
55.285 10.000633
55.290 10.016656
55.295 10.002564
55.300 10.306932
55.305 10.113431
55.310 10.138778
55.315 10.305957
55.320 10.421435
55.325 10.219939
55.330 10.603529
55.335 10.796573
55.340 10.823018
55.345 10.946549
55.350 11.503101
55.355 11.747011
55.360 11.851729
55.365 11.342559
55.370 11.69351
55.375 12.242068
55.380 12.181062
55.385 12.268632
55.390 12.761617
55.395 13.089411
55.400 13.181003
55.405 12.953313
55.410 12.915954
55.415 12.679789
55.420 12.161532
55.425 11.228786
55.430 10.558525
55.435 10.497356
55.440 10.155534
55.445 9.954115
55.450 10.287021
55.455 10.302318
55.460 10.39267
55.465 10.412126
55.470 10.669641
55.475 11.006806
55.480 10.928201
55.485 10.528298
55.490 11.006309
55.495 12.190951
55.500 12.349236
55.505 11.916944
55.510 11.769798
55.515 11.975965
55.520 11.935819
55.525 11.342989
55.530 10.350028
55.535 10.245207
55.540 10.431045
55.545 10.287062
55.550 10.683125
55.555 11.061536
55.560 10.961467
55.565 11.227287
55.570 11.360956
55.575 11.484869
55.580 11.576007
55.585 11.531239
55.590 11.385768
55.595 11.340418
55.600 11.594691
55.605 11.616646
55.610 11.532759
55.615 11.217452
55.620 11.000079
55.625 11.083465
55.630 11.011361
55.635 10.722054
55.640 10.853018
55.645 11.286208
55.650 11.850623
55.655 11.908912
55.660 12.206699
55.665 12.40285
55.670 12.116107
55.675 11.962478
55.680 11.559238
55.685 11.396025
55.690 11.431607
55.695 11.28218
55.700 11.637227
55.705 11.971053
55.710 11.874351
55.715 11.836109
55.720 11.898152
55.725 11.874203
55.730 11.724182
55.735 11.378913
55.740 11.222637
55.745 10.965089
55.750 11.036886
55.755 10.78518
55.760 10.678144
55.765 10.647854
55.770 10.605891
55.775 10.497919
55.780 10.776777
55.785 10.877607
55.790 10.587617
55.795 10.350163
55.800 10.778734
55.805 11.035299
55.810 11.524026
55.815 11.351813
55.820 11.488419
55.825 12.105258
55.830 12.421309
55.835 12.495914
55.840 12.631721
55.845 12.931367
55.850 13.083592
55.855 12.480712
55.860 12.124154
55.865 11.99052
55.870 11.702564
55.875 11.498534
55.880 10.784615
55.885 11.129475
55.890 11.703413
55.895 12.01548
55.900 12.227486
55.905 11.795541
55.910 11.663304
55.915 11.758577
55.920 11.72336
55.925 11.320218
55.930 10.907643
55.935 10.771008
55.940 11.215819
55.945 11.362719
55.950 11.404349
55.955 11.48365
55.960 11.778421
55.965 11.785677
55.970 11.897594
55.975 11.759139
55.980 12.005258
55.985 11.877815
55.990 11.429613
55.995 11.668046
56.000 11.566624
56.005 11.877252
56.010 11.837683
56.015 11.249415
56.020 11.42809
56.025 11.336157
56.030 10.953105
56.035 11.205343
56.040 11.558921
56.045 12.068864
56.050 12.380301
56.055 12.08432
56.060 12.796773
56.065 13.351373
56.070 13.379653
56.075 12.504402
56.080 12.172573
56.085 12.108819
56.090 12.487152
56.095 12.036641
56.100 11.855655
56.105 12.038927
56.110 12.712886
56.115 13.437672
56.120 13.372175
56.125 13.092993
56.130 13.141229
56.135 13.181451
56.140 13.040402
56.145 12.278835
56.150 11.993403
56.155 12.162531
56.160 12.567717
56.165 12.327861
56.170 12.025373
56.175 11.790404
56.180 11.801763
56.185 11.55552
56.190 11.571685
56.195 11.307856
56.200 11.449678
56.205 11.556261
56.210 12.023436
56.215 12.282743
56.220 12.370326
56.225 12.641925
56.230 12.924523
56.235 13.327135
56.240 13.236418
56.245 13.179545
56.250 13.140241
56.255 13.112091
56.260 13.065089
56.265 12.774487
56.270 12.65047
56.275 12.943559
56.280 12.9326
56.285 12.906229
56.290 12.942284
56.295 12.441075
56.300 12.072088
56.305 12.05143
56.310 11.948703
56.315 11.680806
56.320 11.339589
56.325 11.498753
56.330 11.967536
56.335 12.004399
56.340 11.84803
56.345 12.141669
56.350 12.69134
56.355 12.856016
56.360 12.408673
56.365 12.675432
56.370 12.646023
56.375 11.831325
56.380 11.480386
56.385 11.550223
56.390 11.270336
56.395 11.32808
56.400 11.318335
56.405 11.804057
56.410 12.251887
56.415 11.940048
56.420 11.468296
56.425 11.735371
56.430 11.709518
56.435 11.836893
56.440 11.742635
56.445 11.751479
56.450 11.870654
56.455 12.137536
56.460 12.199471
56.465 11.908398
56.470 11.687818
56.475 11.804445
56.480 11.676628
56.485 11.474286
56.490 11.393021
56.495 11.731471
56.500 12.070837
56.505 12.411869
56.510 12.524939
56.515 12.638071
56.520 13.124169
56.525 13.537355
56.530 13.737281
56.535 13.887946
56.540 13.459577
56.545 13.355387
56.550 13.297616
56.555 13.001184
56.560 13.266419
56.565 12.93929
56.570 12.839842
56.575 12.486171
56.580 12.390323
56.585 12.446787
56.590 12.25233
56.595 11.84028
56.600 11.571869
56.605 11.651339
56.610 12.113461
56.615 11.83378
56.620 11.690279
56.625 11.370435
56.630 10.884415
56.635 10.878523
56.640 10.767778
56.645 10.702362
56.650 11.526766
56.655 12.083798
56.660 12.651595
56.665 12.62451
56.670 12.363584
56.675 12.6399
56.680 12.929602
56.685 12.692776
56.690 12.721704
56.695 12.169634
56.700 12.942769
56.705 13.380829
56.710 13.239895
56.715 13.084143
56.720 12.774048
56.725 12.869024
56.730 13.451787
56.735 13.155386
56.740 12.628206
56.745 12.216105
56.750 11.825334
56.755 11.702085
56.760 11.690765
56.765 11.833593
56.770 12.026393
56.775 12.248329
56.780 12.514177
56.785 12.777514
56.790 12.993039
56.795 12.925069
56.800 12.397222
56.805 12.54357
56.810 13.297438
56.815 13.767805
56.820 13.742389
56.825 13.287164
56.830 13.092071
56.835 13.033298
56.840 12.807306
56.845 12.666224
56.850 12.387321
56.855 12.597256
56.860 12.720303
56.865 12.942416
56.870 13.152525
56.875 13.177042
56.880 12.770874
56.885 12.326924
56.890 12.204873
56.895 12.315441
56.900 12.262569
56.905 12.579597
56.910 12.395437
56.915 12.397873
56.920 12.62913
56.925 12.837494
56.930 13.034853
56.935 13.320262
56.940 13.340541
56.945 13.230678
56.950 12.772623
56.955 12.696884
56.960 12.588401
56.965 12.228336
56.970 11.625521
56.975 11.558021
56.980 12.06847
56.985 13.000345
56.990 13.33062
56.995 13.432406
57.000 13.98499
57.005 14.399928
57.010 14.350896
57.015 14.428792
57.020 14.240447
57.025 14.157607
57.030 13.806371
57.035 13.709093
57.040 13.548958
57.045 13.246111
57.050 13.356353
57.055 13.238976
57.060 12.626088
57.065 12.559215
57.070 12.42552
57.075 12.92367
57.080 12.889958
57.085 12.805325
57.090 13.343819
57.095 14.400394
57.100 14.797697
57.105 14.641939
57.110 13.879428
57.115 13.397822
57.120 12.999347
57.125 12.619063
57.130 12.210194
57.135 12.157029
57.140 12.465689
57.145 12.768785
57.150 13.204066
57.155 13.741295
57.160 14.125174
57.165 14.246536
57.170 14.310149
57.175 14.75026
57.180 15.679443
57.185 15.47858
57.190 15.059984
57.195 15.260493
57.200 15.446485
57.205 15.531226
57.210 15.284764
57.215 14.509361
57.220 15.139609
57.225 15.427911
57.230 14.81568
57.235 14.429729
57.240 14.389915
57.245 14.716529
57.250 14.694249
57.255 14.392897
57.260 14.358361
57.265 14.948116
57.270 15.399646
57.275 15.390725
57.280 15.064029
57.285 14.937993
57.290 14.930742
57.295 14.336246
57.300 13.763151
57.305 13.573384
57.310 13.332651
57.315 13.378419
57.320 13.774319
57.325 14.170484
57.330 15.036274
57.335 15.103684
57.340 15.260356
57.345 16.103498
57.350 16.841526
57.355 16.550903
57.360 15.861395
57.365 15.393867
57.370 15.493555
57.375 15.960057
57.380 15.548563
57.385 15.257303
57.390 15.450325
57.395 15.406722
57.400 15.104154
57.405 14.980536
57.410 14.219704
57.415 14.153371
57.420 14.209443
57.425 14.833182
57.430 15.093396
57.435 14.975695
57.440 14.861164
57.445 14.816004
57.450 14.715792
57.455 14.736952
57.460 14.460259
57.465 14.646495
57.470 15.160647
57.475 15.290689
57.480 15.510908
57.485 15.735555
57.490 15.03908
57.495 14.833863
57.500 14.531847
57.505 14.337116
57.510 13.548278
57.515 13.137375
57.520 13.219361
57.525 13.234557
57.530 13.425968
57.535 13.467133
57.540 13.487923
57.545 13.774767
57.550 13.626451
57.555 13.401414
57.560 14.144012
57.565 14.417483
57.570 14.650786
57.575 14.532941
57.580 14.709603
57.585 14.969183
57.590 14.490225
57.595 13.964536
57.600 13.76942
57.605 13.59864
57.610 13.428286
57.615 13.040871
57.620 13.123367
57.625 13.292304
57.630 13.273126
57.635 13.505817
57.640 13.861592
57.645 14.082412
57.650 14.453708
57.655 15.080728
57.660 14.980736
57.665 14.677104
57.670 14.572968
57.675 14.10635
57.680 14.300337
57.685 14.127094
57.690 13.617642
57.695 13.697771
57.700 13.822426
57.705 13.61403
57.710 14.191741
57.715 14.937396
57.720 15.147522
57.725 15.185985
57.730 15.144742
57.735 15.10002
57.740 15.207007
57.745 15.10008
57.750 14.969848
57.755 15.243979
57.760 15.251126
57.765 15.708995
57.770 15.80254
57.775 16.316557
57.780 16.412294
57.785 16.125385
57.790 15.885242
57.795 16.180746
57.800 16.132813
57.805 16.340694
57.810 16.259285
57.815 16.270397
57.820 16.395182
57.825 16.188681
57.830 15.626545
57.835 15.24232
57.840 15.128781
57.845 14.496322
57.850 14.045454
57.855 13.964062
57.860 14.523438
57.865 14.968912
57.870 15.180243
57.875 14.781648
57.880 15.4154
57.885 15.880676
57.890 15.917387
57.895 15.347431
57.900 15.124917
57.905 15.554688
57.910 16.118422
57.915 16.249325
57.920 16.188082
57.925 16.104586
57.930 16.231607
57.935 16.224911
57.940 15.704825
57.945 15.611712
57.950 14.963975
57.955 14.698215
57.960 14.844652
57.965 15.219664
57.970 15.737833
57.975 16.692711
57.980 16.947424
57.985 17.183273
57.990 17.181572
57.995 16.791801
58.000 16.567636
58.005 16.297276
58.010 15.965395
58.015 15.690841
58.020 15.664664
58.025 15.958056
58.030 16.498503
58.035 17.179514
58.040 17.740503
58.045 17.352108
58.050 17.203497
58.055 17.576004
58.060 17.279102
58.065 17.023418
58.070 16.483568
58.075 16.395798
58.080 16.963692
58.085 17.574987
58.090 17.73568
58.095 17.698702
58.100 17.195309
58.105 17.036791
58.110 16.998831
58.115 17.338285
58.120 17.395969
58.125 16.978413
58.130 17.271282
58.135 18.033577
58.140 18.746769
58.145 18.645073
58.150 18.030426
58.155 17.884361
58.160 18.302778
58.165 18.743269
58.170 18.580959
58.175 17.909859
58.180 17.558945
58.185 17.768921
58.190 17.822824
58.195 17.980179
58.200 17.428886
58.205 17.224449
58.210 17.590183
58.215 17.6572
58.220 17.027138
58.225 16.304665
58.230 16.206451
58.235 16.36318
58.240 16.902079
58.245 17.069981
58.250 17.524677
58.255 18.221317
58.260 18.814789
58.265 19.164387
58.270 19.037443
58.275 18.446182
58.280 18.172495
58.285 18.361073
58.290 18.340652
58.295 18.676849
58.300 18.558138
58.305 18.693813
58.310 19.544807
58.315 19.619553
58.320 19.304535
58.325 19.217819
58.330 18.96299
58.335 19.501457
58.340 20.477503
58.345 20.836765
58.350 21.202734
58.355 21.510698
58.360 21.767614
58.365 21.793076
58.370 21.958109
58.375 21.672735
58.380 21.003794
58.385 21.037678
58.390 20.533657
58.395 20.986326
58.400 21.738462
58.405 21.3578
58.410 21.426735
58.415 21.366468
58.420 21.263659
58.425 22.102501
58.430 21.910217
58.435 21.700092
58.440 21.985954
58.445 22.16791
58.450 22.598282
58.455 23.122849
58.460 23.147354
58.465 23.017683
58.470 22.984842
58.475 22.677126
58.480 22.719334
58.485 23.454418
58.490 23.693523
58.495 23.376625
58.500 23.233351
58.505 23.223822
58.510 23.811207
58.515 23.666975
