!@!!GADDS PLOTSO FILE: Chi integration type
!@!!Title/SampleName: map-cd
!@!!Comment: ?
!@!!User: Bruker Instrument Administrator
!@!!Site: University of Illinois Chicago
!@!!Frame: map-cd_01_000.gfrm
!@!!Wavelengths    1.54184   1.54056   1.54439
!@!!Frame angles: 2Theta: 63.000 Omega: 50.000 Phi: 0.000 Chi: 90.000
!@!!Integration range: 2Theta: 53.000 to 73.000  Gamma: -105.000 to -75.000
!@!!Integration method: bin normalized
!@!N
!@!SS
!@!M
!@!L 0.0 0.0 0.0 0.0
!@!XDegrees
!@!YCounts
53.000 9.357003
53.005 9.402879
53.010 9.377606
53.015 9.530214
53.020 9.780804
53.025 10.092295
53.030 9.96128
53.035 9.524409
53.040 9.322529
53.045 9.03227
53.050 8.459052
53.055 8.611363
53.060 8.598856
53.065 8.784485
53.070 8.89231
53.075 9.090466
53.080 9.446612
53.085 9.327922
53.090 9.117038
53.095 9.079232
53.100 8.976793
53.105 9.390382
53.110 9.250343
53.115 9.215735
53.120 9.164971
53.125 9.258644
53.130 9.386912
53.135 8.934895
53.140 8.864419
53.145 9.086981
53.150 9.052683
53.155 9.099504
53.160 8.942201
53.165 8.866895
53.170 9.38477
53.175 9.266717
53.180 8.839878
53.185 8.983702
53.190 9.416075
53.195 9.862658
53.200 9.766168
53.205 9.211727
53.210 9.683816
53.215 10.108823
53.220 9.698096
53.225 9.333577
53.230 9.503946
53.235 9.889633
53.240 10.225751
53.245 9.936791
53.250 10.122623
53.255 10.486073
53.260 10.296009
53.265 9.908459
53.270 9.266556
53.275 9.111501
53.280 9.202581
53.285 8.640805
53.290 8.470565
53.295 8.529508
53.300 9.163828
53.305 9.823119
53.310 10.055042
53.315 10.470723
53.320 10.616455
53.325 10.677413
53.330 10.872238
53.335 10.557294
53.340 10.338075
53.345 10.129147
53.350 10.129889
53.355 10.101986
53.360 9.592876
53.365 9.740612
53.370 10.024802
53.375 10.298674
53.380 10.397019
53.385 10.39473
53.390 10.836531
53.395 11.590391
53.400 11.281991
53.405 11.162436
53.410 10.7852
53.415 10.688586
53.420 10.358594
53.425 10.353455
53.430 9.920795
53.435 9.501975
53.440 9.036761
53.445 8.948244
53.450 8.887867
53.455 8.758789
53.460 8.60084
53.465 8.746483
53.470 9.443181
53.475 9.786983
53.480 9.720798
53.485 9.744432
53.490 9.704674
53.495 9.833113
53.500 9.86917
53.505 10.022335
53.510 10.176001
53.515 10.187459
53.520 10.155409
53.525 10.231339
53.530 10.15719
53.535 10.21139
53.540 9.684526
53.545 9.370695
53.550 9.257113
53.555 9.7397
53.560 9.739878
53.565 9.74437
53.570 9.599205
53.575 9.679153
53.580 10.322117
53.585 10.52991
53.590 10.701076
53.595 10.308167
53.600 10.796268
53.605 11.299184
53.610 11.390264
53.615 11.268243
53.620 10.918903
53.625 10.900764
53.630 11.325223
53.635 10.757078
53.640 10.550188
53.645 10.717545
53.650 10.777562
53.655 10.573198
53.660 10.746845
53.665 11.218767
53.670 11.095153
53.675 10.99464
53.680 10.956867
53.685 11.623073
53.690 11.43548
53.695 11.203148
53.700 11.088858
53.705 11.612411
53.710 11.520659
53.715 11.218196
53.720 11.145337
53.725 11.568295
53.730 11.282641
53.735 10.656872
53.740 10.267856
53.745 10.405805
53.750 10.462074
53.755 10.252001
53.760 10.204047
53.765 10.29276
53.770 10.482431
53.775 10.353394
53.780 10.040087
53.785 10.148231
53.790 10.218563
53.795 10.012541
53.800 10.493576
53.805 10.463329
53.810 10.804323
53.815 11.229217
53.820 10.972214
53.825 10.988491
53.830 10.875729
53.835 10.409951
53.840 10.740746
53.845 10.530618
53.850 10.047334
53.855 10.098552
53.860 9.670024
53.865 9.712803
53.870 9.60296
53.875 9.469771
53.880 9.745985
53.885 9.703838
53.890 9.754791
53.895 9.802181
53.900 9.916533
53.905 10.367259
53.910 10.244943
53.915 10.270059
53.920 10.645468
53.925 11.446901
53.930 11.99457
53.935 12.069715
53.940 11.935038
53.945 12.211807
53.950 11.782392
53.955 11.147752
53.960 10.596876
53.965 10.827722
53.970 10.701564
53.975 10.582534
53.980 10.203326
53.985 10.173621
53.990 10.594327
53.995 10.375667
54.000 10.072465
54.005 10.361588
54.010 10.694758
54.015 11.021649
54.020 11.088725
54.025 11.254251
54.030 11.777541
54.035 11.729322
54.040 11.309964
54.045 11.192806
54.050 11.205001
54.055 11.136244
54.060 10.895694
54.065 10.634179
54.070 10.746762
54.075 10.667048
54.080 10.975457
54.085 10.931008
54.090 11.214373
54.095 11.011912
54.100 11.190592
54.105 11.607963
54.110 12.186596
54.115 12.141287
54.120 11.88059
54.125 11.319937
54.130 11.293948
54.135 10.646144
54.140 9.689207
54.145 8.831819
54.150 8.681602
54.155 9.270743
54.160 9.830563
54.165 10.552963
54.170 11.346239
54.175 11.99213
54.180 12.078339
54.185 12.078742
54.190 11.684927
54.195 11.16463
54.200 11.201708
54.205 10.693819
54.210 10.489419
54.215 10.723256
54.220 11.16944
54.225 11.355203
54.230 11.320916
54.235 11.382602
54.240 11.74537
54.245 11.967421
54.250 11.954817
54.255 11.887085
54.260 11.883315
54.265 12.011607
54.270 11.579925
54.275 11.594665
54.280 11.674887
54.285 11.690742
54.290 11.668254
54.295 11.064381
54.300 11.085075
54.305 11.174326
54.310 11.326473
54.315 11.570002
54.320 11.488035
54.325 11.733308
54.330 12.418333
54.335 12.033303
54.340 12.060814
54.345 11.665681
54.350 11.404548
54.355 11.229184
54.360 11.116017
54.365 11.015582
54.370 11.153993
54.375 11.113364
54.380 11.057777
54.385 11.585702
54.390 12.029844
54.395 11.934626
54.400 11.809371
54.405 11.684382
54.410 11.581433
54.415 11.465517
54.420 10.985753
54.425 10.538647
54.430 10.112473
54.435 10.236023
54.440 10.454592
54.445 11.260852
54.450 11.682419
54.455 11.728354
54.460 11.833714
54.465 12.427119
54.470 12.614555
54.475 12.64325
54.480 12.135729
54.485 11.658698
54.490 11.678725
54.495 12.10997
54.500 12.06089
54.505 12.14933
54.510 12.124432
54.515 11.831492
54.520 11.486127
54.525 11.693178
54.530 11.211139
54.535 10.820818
54.540 10.632868
54.545 10.655286
54.550 11.193854
54.555 11.625544
54.560 11.560145
54.565 11.593217
54.570 11.825989
54.575 11.849959
54.580 11.929556
54.585 11.903936
54.590 12.209712
54.595 12.090769
54.600 12.083026
54.605 11.989593
54.610 12.000909
54.615 11.803784
54.620 11.421687
54.625 11.207335
54.630 11.45931
54.635 11.416751
54.640 11.462395
54.645 11.222729
54.650 11.44645
54.655 11.873219
54.660 11.744134
54.665 11.505671
54.670 11.617074
54.675 11.572925
54.680 11.820778
54.685 11.52587
54.690 11.433059
54.695 11.459648
54.700 11.510837
54.705 11.451899
54.710 11.261655
54.715 11.327206
54.720 11.321463
54.725 10.997569
54.730 11.007176
54.735 11.160727
54.740 11.554737
54.745 11.571243
54.750 11.265538
54.755 10.913943
54.760 10.947595
54.765 11.155958
54.770 10.997088
54.775 10.767805
54.780 10.79419
54.785 11.062211
54.790 11.420831
54.795 11.443436
54.800 10.895735
54.805 10.469933
54.810 9.848206
54.815 9.453324
54.820 9.137358
54.825 9.067257
54.830 9.207725
54.835 9.62015
54.840 10.121135
54.845 10.728165
54.850 11.206136
54.855 11.5777
54.860 11.551157
54.865 11.486646
54.870 11.758128
54.875 11.768193
54.880 11.688225
54.885 11.295749
54.890 11.033276
54.895 10.823156
54.900 10.748807
54.905 10.660097
54.910 10.688922
54.915 11.114755
54.920 11.654024
54.925 11.725197
54.930 11.618328
54.935 12.108003
54.940 11.967196
54.945 11.48289
54.950 11.226121
54.955 11.248836
54.960 11.294137
54.965 11.475464
54.970 11.080553
54.975 11.461244
54.980 11.546465
54.985 11.262898
54.990 10.885107
54.995 10.771822
55.000 10.637797
55.005 10.492043
55.010 10.86614
55.015 11.042073
55.020 11.136183
55.025 11.130556
55.030 11.069969
55.035 11.384809
55.040 11.45066
55.045 11.159482
55.050 11.481449
55.055 12.020067
55.060 12.935678
55.065 13.513391
55.070 13.193736
55.075 12.876706
55.080 13.038477
55.085 12.637341
55.090 12.545792
55.095 11.854702
55.100 11.529407
55.105 11.793808
55.110 11.971104
55.115 12.128573
55.120 12.090371
55.125 11.934884
55.130 12.550259
55.135 12.834488
55.140 13.105376
55.145 13.094533
55.150 12.514102
55.155 12.19908
55.160 12.21568
55.165 11.553986
55.170 11.230676
55.175 11.277329
55.180 11.712567
55.185 12.427121
55.190 12.739054
55.195 12.838905
55.200 13.136123
55.205 12.95978
55.210 12.571664
55.215 12.011648
55.220 11.673088
55.225 11.166712
55.230 10.49985
55.235 10.387964
55.240 10.496341
55.245 10.731025
55.250 10.887242
55.255 10.823621
55.260 11.226295
55.265 11.369112
55.270 11.452799
55.275 11.286024
55.280 10.863263
55.285 10.889004
55.290 11.334117
55.295 10.902186
55.300 11.189289
55.305 11.285269
55.310 11.170589
55.315 11.039119
55.320 10.683228
55.325 10.689394
55.330 11.09285
55.335 10.863456
55.340 10.597576
55.345 10.659704
55.350 11.068864
55.355 11.735698
55.360 12.076641
55.365 12.140845
55.370 12.201177
55.375 12.421918
55.380 12.780107
55.385 13.026152
55.390 12.110803
55.395 11.22435
55.400 10.906366
55.405 11.008128
55.410 11.287563
55.415 10.961432
55.420 10.701519
55.425 10.78082
55.430 11.275938
55.435 12.075717
55.440 11.964872
55.445 11.700882
55.450 11.937901
55.455 11.983461
55.460 12.149693
55.465 11.857123
55.470 11.238791
55.475 11.008814
55.480 11.233032
55.485 11.143903
55.490 10.951961
55.495 11.255531
55.500 11.248732
55.505 11.911009
55.510 12.361763
55.515 12.177578
55.520 12.470599
55.525 12.338734
55.530 12.352645
55.535 12.058928
55.540 11.379329
55.545 11.329344
55.550 11.904002
55.555 11.665747
55.560 11.5524
55.565 11.685136
55.570 11.89577
55.575 12.213375
55.580 12.210421
55.585 11.546882
55.590 12.069929
55.595 12.435853
55.600 12.701139
55.605 12.302025
55.610 12.244259
55.615 12.006973
55.620 11.877005
55.625 11.831787
55.630 11.96346
55.635 12.528584
55.640 12.865117
55.645 13.176767
55.650 13.647771
55.655 13.593644
55.660 13.228958
55.665 12.882719
55.670 12.323612
55.675 11.977265
55.680 11.490745
55.685 11.481728
55.690 12.054535
55.695 11.877585
55.700 11.99827
55.705 12.043951
55.710 12.701817
55.715 12.752739
55.720 12.572079
55.725 12.827258
55.730 13.189612
55.735 12.934895
55.740 13.072581
55.745 12.520964
55.750 12.779097
55.755 12.279019
55.760 11.998114
55.765 12.051974
55.770 12.044387
55.775 11.687334
55.780 11.751842
55.785 11.860633
55.790 12.091249
55.795 12.080679
55.800 11.960623
55.805 12.157112
55.810 12.329421
55.815 12.14299
55.820 12.104851
55.825 12.12274
55.830 12.185242
55.835 12.950377
55.840 13.160592
55.845 13.493139
55.850 13.718473
55.855 13.903123
55.860 13.798885
55.865 13.207623
55.870 12.121128
55.875 11.809974
55.880 12.058351
55.885 11.911808
55.890 11.894934
55.895 12.432639
55.900 12.550423
55.905 13.042982
55.910 12.811527
55.915 12.271225
55.920 12.492133
55.925 12.285756
55.930 11.812485
55.935 11.839488
55.940 11.95003
55.945 12.630124
55.950 12.707889
55.955 12.847026
55.960 12.972562
55.965 13.101761
55.970 13.052371
55.975 12.133872
55.980 11.845193
55.985 11.5795
55.990 11.237577
55.995 11.255723
56.000 11.226097
56.005 11.618346
56.010 12.251056
56.015 12.371074
56.020 12.389202
56.025 12.291933
56.030 12.401603
56.035 12.579804
56.040 12.521232
56.045 12.439316
56.050 11.881669
56.055 11.892221
56.060 12.321298
56.065 12.152916
56.070 11.584599
56.075 11.506643
56.080 11.544137
56.085 12.083635
56.090 12.173702
56.095 12.172491
56.100 12.149998
56.105 12.439822
56.110 12.335465
56.115 12.021029
56.120 12.355833
56.125 12.155214
56.130 11.855279
56.135 11.805759
56.140 11.76015
56.145 12.503413
56.150 12.489147
56.155 12.396781
56.160 12.447209
56.165 12.197946
56.170 12.364967
56.175 12.192576
56.180 11.745911
56.185 11.756947
56.190 11.40971
56.195 11.277815
56.200 11.34854
56.205 11.429768
56.210 11.321692
56.215 11.315682
56.220 11.986529
56.225 12.090895
56.230 12.692673
56.235 12.965126
56.240 13.250353
56.245 13.721173
56.250 13.892671
56.255 13.84814
56.260 13.728553
56.265 13.463425
56.270 13.418812
56.275 13.01315
56.280 13.071459
56.285 12.645225
56.290 12.263674
56.295 12.201617
56.300 12.315386
56.305 12.054411
56.310 12.095815
56.315 11.792742
56.320 11.639902
56.325 11.49627
56.330 11.396495
56.335 11.262235
56.340 11.526664
56.345 11.620584
56.350 11.348108
56.355 11.685404
56.360 12.246693
56.365 13.25166
56.370 13.222001
56.375 13.068302
56.380 12.629252
56.385 12.48581
56.390 11.928331
56.395 11.44679
56.400 11.003107
56.405 11.218334
56.410 11.392054
56.415 12.128559
56.420 13.037066
56.425 13.546411
56.430 14.01265
56.435 14.429468
56.440 14.174716
56.445 13.67526
56.450 13.000982
56.455 12.905466
56.460 12.757024
56.465 11.962276
56.470 11.587044
56.475 11.975154
56.480 12.031153
56.485 12.004553
56.490 11.967719
56.495 11.958261
56.500 12.468059
56.505 12.419575
56.510 12.401011
56.515 13.109041
56.520 13.824856
56.525 13.808826
56.530 14.080746
56.535 13.832729
56.540 13.818495
56.545 13.651058
56.550 13.468244
56.555 12.818969
56.560 12.553211
56.565 12.824253
56.570 13.133083
56.575 13.620838
56.580 13.632114
56.585 13.37429
56.590 13.677863
56.595 13.503112
56.600 13.03262
56.605 12.216333
56.610 11.638469
56.615 11.525341
56.620 11.896177
56.625 11.687153
56.630 11.590115
56.635 11.656441
56.640 12.673454
56.645 12.906627
56.650 12.777491
56.655 12.892874
56.660 13.800136
56.665 13.917297
56.670 13.758056
56.675 13.282914
56.680 13.133487
56.685 13.136096
56.690 13.232115
56.695 13.226348
56.700 13.251072
56.705 13.572193
56.710 13.449146
56.715 13.606338
56.720 14.220174
56.725 13.702898
56.730 13.677718
56.735 14.48531
56.740 14.364538
56.745 15.158605
56.750 15.497113
56.755 15.063481
56.760 14.855853
56.765 14.697542
56.770 14.390444
56.775 14.267018
56.780 14.184386
56.785 14.109984
56.790 14.419501
56.795 15.030932
56.800 15.074882
56.805 14.888962
56.810 14.570791
56.815 14.092883
56.820 13.56629
56.825 13.690009
56.830 13.52225
56.835 13.522566
56.840 13.65714
56.845 13.850736
56.850 14.193545
56.855 14.642165
56.860 14.222232
56.865 13.927835
56.870 13.826242
56.875 14.149139
56.880 14.418312
56.885 14.305199
56.890 13.996586
56.895 14.072248
56.900 13.911613
56.905 13.871311
56.910 13.176494
56.915 12.455882
56.920 12.296101
56.925 12.81012
56.930 12.995175
56.935 13.181354
56.940 13.241339
56.945 13.646301
56.950 14.315712
56.955 14.583194
56.960 14.248552
56.965 14.655728
56.970 15.045876
56.975 15.20496
56.980 15.412281
56.985 15.76038
56.990 15.910222
56.995 16.01893
57.000 15.523866
57.005 15.068561
57.010 15.047488
57.015 14.795427
57.020 14.441485
57.025 14.43862
57.030 14.506357
57.035 14.677635
57.040 14.654447
57.045 14.574708
57.050 14.707314
57.055 14.695761
57.060 14.889133
57.065 14.67607
57.070 14.905443
57.075 15.241831
57.080 15.368308
57.085 14.943372
57.090 14.604129
57.095 14.151581
57.100 13.954308
57.105 13.876918
57.110 13.856308
57.115 14.161236
57.120 14.104021
57.125 13.384294
57.130 13.084679
57.135 12.771894
57.140 12.245782
57.145 11.52354
57.150 11.651638
57.155 11.982896
57.160 12.836896
57.165 13.24255
57.170 13.734772
57.175 13.878532
57.180 13.764616
57.185 13.176003
57.190 13.116138
57.195 12.848974
57.200 12.891949
57.205 12.803625
57.210 13.091098
57.215 13.241138
57.220 13.904572
57.225 14.329801
57.230 14.460625
57.235 14.252496
57.240 14.536482
57.245 14.602777
57.250 14.742168
57.255 14.386959
57.260 14.457652
57.265 14.84636
57.270 14.820454
57.275 14.732731
57.280 15.376042
57.285 15.619469
57.290 15.832673
57.295 15.460344
57.300 15.467797
57.305 15.654295
57.310 15.383222
57.315 15.846401
57.320 15.881704
57.325 16.292517
57.330 16.593477
57.335 16.74712
57.340 16.848825
57.345 16.583668
57.350 16.319477
57.355 16.608051
57.360 16.219753
57.365 15.913918
57.370 15.519576
57.375 15.867335
57.380 15.640744
57.385 15.253778
57.390 14.649365
57.395 14.460029
57.400 14.493657
57.405 14.709149
57.410 14.422122
57.415 14.519366
57.420 14.263597
57.425 14.446237
57.430 14.463246
57.435 14.520801
57.440 13.814424
57.445 13.741645
57.450 14.127152
57.455 14.534923
57.460 14.096283
57.465 14.21864
57.470 14.533126
57.475 14.980079
57.480 15.485067
57.485 15.309955
57.490 15.388646
57.495 16.016638
57.500 15.823695
57.505 15.74862
57.510 15.565129
57.515 15.365849
57.520 15.212024
57.525 14.888391
57.530 15.293294
57.535 15.546582
57.540 15.861622
57.545 16.173605
57.550 16.030935
57.555 16.157076
57.560 16.148121
57.565 15.538264
57.570 15.551337
57.575 15.441154
57.580 15.411456
57.585 15.712517
57.590 15.704419
57.595 15.70773
57.600 16.198088
57.605 16.366234
57.610 16.383085
57.615 16.395744
57.620 16.225529
57.625 16.54961
57.630 16.520832
57.635 15.833718
57.640 15.503354
57.645 15.532925
57.650 15.250549
57.655 15.10757
57.660 14.603588
57.665 14.686891
57.670 15.228341
57.675 15.122121
57.680 14.629807
57.685 14.609494
57.690 14.657427
57.695 14.767145
57.700 14.670762
57.705 14.512337
57.710 14.556738
57.715 14.866326
57.720 15.31472
57.725 15.089024
57.730 15.140038
57.735 15.506939
57.740 15.331413
57.745 15.45286
57.750 15.506036
57.755 15.642633
57.760 16.159241
57.765 15.95074
57.770 15.799922
57.775 16.202051
57.780 16.293207
57.785 16.193676
57.790 15.58422
57.795 15.063205
57.800 15.053191
57.805 14.955593
57.810 15.267907
57.815 15.534143
57.820 15.83399
57.825 16.083307
57.830 16.067698
57.835 15.710695
57.840 15.441081
57.845 15.377608
57.850 14.954344
57.855 14.61259
57.860 14.526631
57.865 14.785791
57.870 15.170395
57.875 15.534671
57.880 14.791119
57.885 15.047986
57.890 15.581496
57.895 15.683812
57.900 15.880334
57.905 16.509964
57.910 16.759073
57.915 17.095211
57.920 17.448574
57.925 17.884422
57.930 18.240417
57.935 17.94887
57.940 17.427914
57.945 17.527559
57.950 17.522923
57.955 17.050869
57.960 16.669464
57.965 16.363499
57.970 16.541271
57.975 15.895314
57.980 15.742942
57.985 15.553383
57.990 15.429156
57.995 14.950024
58.000 15.108317
58.005 15.198022
58.010 14.932008
58.015 15.142289
58.020 15.43409
58.025 15.734705
58.030 16.08976
58.035 15.993073
58.040 16.083036
58.045 16.354874
58.050 15.856619
58.055 16.070499
58.060 16.384916
58.065 16.531811
58.070 16.762444
58.075 16.602705
58.080 16.625626
58.085 17.120787
58.090 16.691755
58.095 16.446507
58.100 16.180473
58.105 15.229964
58.110 15.053483
58.115 15.345159
58.120 15.473323
58.125 15.689378
58.130 15.832478
58.135 16.168972
58.140 17.189505
58.145 17.65173
58.150 17.492477
58.155 17.62331
58.160 17.460667
58.165 17.265455
58.170 17.100388
58.175 17.391495
58.180 17.526836
58.185 17.911295
58.190 17.490551
58.195 17.613499
58.200 18.016579
58.205 18.032339
58.210 18.022512
58.215 17.942797
58.220 17.574749
58.225 17.225945
58.230 17.167744
58.235 16.930618
58.240 17.457886
58.245 17.301008
58.250 16.927206
58.255 16.651199
58.260 17.248823
58.265 17.728798
58.270 17.565073
58.275 17.314062
58.280 17.442829
58.285 17.770655
58.290 18.252682
58.295 18.208622
58.300 18.131245
58.305 18.511164
58.310 18.533426
58.315 17.857748
58.320 18.144878
58.325 18.28244
58.330 18.115904
58.335 18.370878
58.340 18.477995
58.345 18.849705
58.350 19.199955
58.355 19.139221
58.360 19.094702
58.365 19.236198
58.370 18.914661
58.375 19.213644
58.380 18.937336
58.385 19.517443
58.390 19.691843
58.395 19.991632
58.400 20.033628
58.405 19.616163
58.410 18.954861
58.415 19.00773
58.420 19.432814
58.425 19.61459
58.430 19.074236
58.435 18.752512
58.440 19.274273
58.445 20.226185
58.450 20.367907
58.455 19.884817
58.460 20.028908
58.465 20.696514
