!@!!GADDS PLOTSO FILE: Chi integration type
!@!!Title/SampleName: map-120
!@!!Comment: ?
!@!!User: Bruker Instrument Administrator
!@!!Site: University of Illinois Chicago
!@!!Frame: map-120_01_000.gfrm
!@!!Wavelengths    1.54184   1.54056   1.54439
!@!!Frame angles: 2Theta: 63.000 Omega: 50.000 Phi: 0.000 Chi: 90.000
!@!!Integration range: 2Theta: 53.000 to 73.000  Gamma: -105.000 to -75.000
!@!!Integration method: bin normalized
!@!N
!@!SS
!@!M
!@!L 0.0 0.0 0.0 0.0
!@!XDegrees
!@!YCounts
53.000 5.519189
53.005 5.859278
53.010 6.122874
53.015 6.008553
53.020 5.611627
53.025 5.267823
53.030 5.230871
53.035 5.077391
53.040 4.868963
53.045 4.892318
53.050 5.031291
53.055 5.166271
53.060 4.860258
53.065 4.737489
53.070 4.835374
53.075 4.753852
53.080 4.696989
53.085 4.79078
53.090 4.713293
53.095 4.917852
53.100 4.835609
53.105 5.173825
53.110 5.270764
53.115 4.890924
53.120 5.02956
53.125 5.138031
53.130 5.300805
53.135 5.455808
53.140 5.803426
53.145 6.07704
53.150 6.130756
53.155 6.106386
53.160 6.24404
53.165 6.083273
53.170 5.83637
53.175 5.416859
53.180 5.350338
53.185 5.359428
53.190 5.512026
53.195 5.422212
53.200 5.360034
53.205 5.542676
53.210 5.560997
53.215 5.300018
53.220 5.415291
53.225 5.026571
53.230 4.909287
53.235 4.882388
53.240 4.796469
53.245 5.128338
53.250 5.425477
53.255 5.309706
53.260 5.543237
53.265 5.498939
53.270 5.409238
53.275 5.274557
53.280 5.138694
53.285 5.01343
53.290 5.114819
53.295 5.098725
53.300 5.514326
53.305 5.716216
53.310 5.764949
53.315 5.775131
53.320 5.938963
53.325 5.823807
53.330 5.591215
53.335 5.167955
53.340 5.002314
53.345 4.91341
53.350 5.012571
53.355 5.075166
53.360 4.774967
53.365 4.918892
53.370 4.993003
53.375 4.930466
53.380 5.014015
53.385 5.054516
53.390 5.232876
53.395 5.61287
53.400 5.476406
53.405 5.292651
53.410 5.066433
53.415 4.853785
53.420 4.888111
53.425 4.71312
53.430 4.848828
53.435 5.256019
53.440 5.556087
53.445 5.628183
53.450 5.430377
53.455 5.503521
53.460 5.622741
53.465 5.607233
53.470 5.40528
53.475 5.456326
53.480 5.898755
53.485 6.025791
53.490 5.797888
53.495 5.709765
53.500 5.584682
53.505 5.410357
53.510 5.511675
53.515 5.247024
53.520 5.030296
53.525 5.222279
53.530 5.648241
53.535 5.680253
53.540 5.300175
53.545 5.259864
53.550 5.556328
53.555 5.763773
53.560 5.263377
53.565 5.048942
53.570 5.476112
53.575 6.078319
53.580 5.711226
53.585 5.595231
53.590 5.537438
53.595 5.787733
53.600 5.502439
53.605 5.539939
53.610 5.547108
53.615 5.837733
53.620 5.873757
53.625 6.053051
53.630 6.036067
53.635 5.865273
53.640 5.823183
53.645 5.738901
53.650 5.81751
53.655 5.687357
53.660 5.504495
53.665 5.524346
53.670 5.752108
53.675 5.53537
53.680 5.246198
53.685 5.216104
53.690 5.319815
53.695 5.696882
53.700 5.463783
53.705 5.589746
53.710 5.678091
53.715 5.691055
53.720 6.176553
53.725 6.358501
53.730 6.197033
53.735 6.216894
53.740 6.221625
53.745 6.64682
53.750 6.667695
53.755 6.160394
53.760 5.934215
53.765 6.049086
53.770 5.985055
53.775 5.723182
53.780 5.303169
53.785 5.181599
53.790 5.25703
53.795 5.721802
53.800 6.003985
53.805 6.554375
53.810 6.73923
53.815 6.829719
53.820 7.270326
53.825 6.940928
53.830 6.602019
53.835 6.008572
53.840 5.334436
53.845 5.241209
53.850 4.959134
53.855 4.991961
53.860 5.085296
53.865 4.992878
53.870 5.099355
53.875 5.11102
53.880 5.343224
53.885 5.477523
53.890 5.176501
53.895 5.074898
53.900 5.057738
53.905 5.273818
53.910 5.256616
53.915 5.297879
53.920 5.503019
53.925 5.682976
53.930 5.876649
53.935 5.920657
53.940 6.479467
53.945 6.641292
53.950 6.359655
53.955 6.215014
53.960 6.053554
53.965 6.111269
53.970 6.209406
53.975 5.548229
53.980 5.308902
53.985 5.441525
53.990 5.556268
53.995 5.895466
54.000 5.84409
54.005 5.670666
54.010 5.828164
54.015 6.195814
54.020 6.259542
54.025 6.223798
54.030 5.92581
54.035 5.859021
54.040 6.087683
54.045 6.175425
54.050 6.217399
54.055 6.313024
54.060 6.446483
54.065 6.682311
54.070 6.541548
54.075 6.111059
54.080 5.850165
54.085 5.656544
54.090 5.175057
54.095 4.71346
54.100 4.809827
54.105 4.793722
54.110 4.952203
54.115 5.418483
54.120 5.913477
54.125 6.482366
54.130 6.703949
54.135 6.982964
54.140 7.619305
54.145 7.534654
54.150 7.066252
54.155 6.524027
54.160 6.412663
54.165 6.152614
54.170 5.842506
54.175 5.651924
54.180 5.890606
54.185 6.12386
54.190 6.244657
54.195 6.270537
54.200 6.084301
54.205 5.893554
54.210 5.398965
54.215 5.022541
54.220 4.745961
54.225 4.780212
54.230 5.126077
54.235 5.534173
54.240 5.493234
54.245 5.786019
54.250 6.029449
54.255 6.176468
54.260 5.986481
54.265 5.730602
54.270 5.909973
54.275 5.746379
54.280 5.917472
54.285 5.788894
54.290 5.714727
54.295 5.508843
54.300 5.353136
54.305 5.243176
54.310 5.508323
54.315 5.130765
54.320 5.269388
54.325 5.439984
54.330 5.362482
54.335 5.128136
54.340 5.299346
54.345 5.294288
54.350 5.690182
54.355 5.640374
54.360 5.67522
54.365 5.917918
54.370 6.007018
54.375 5.607669
54.380 5.323994
54.385 5.034864
54.390 4.90616
54.395 4.829137
54.400 4.826246
54.405 5.258987
54.410 5.98986
54.415 6.027465
54.420 6.143296
54.425 6.413161
54.430 6.494285
54.435 6.259441
54.440 5.602385
54.445 5.423627
54.450 5.509561
54.455 5.445725
54.460 5.474945
54.465 5.365997
54.470 5.409101
54.475 5.832843
54.480 5.444883
54.485 5.643423
54.490 5.669972
54.495 5.566045
54.500 5.618151
54.505 5.64045
54.510 5.82176
54.515 5.83451
54.520 5.724694
54.525 5.662663
54.530 5.958015
54.535 6.825214
54.540 6.760334
54.545 6.572693
54.550 6.743855
54.555 6.776464
54.560 6.635829
54.565 6.012855
54.570 5.37626
54.575 5.396451
54.580 5.326509
54.585 5.371349
54.590 5.473429
54.595 5.627552
54.600 5.925036
54.605 5.908483
54.610 6.133992
54.615 6.414963
54.620 6.052158
54.625 5.882597
54.630 5.493522
54.635 5.422001
54.640 5.429608
54.645 5.639024
54.650 5.90576
54.655 6.087202
54.660 6.337425
54.665 6.593191
54.670 6.670428
54.675 6.623158
54.680 6.578991
54.685 6.41956
54.690 6.342782
54.695 6.29173
54.700 6.574874
54.705 6.43324
54.710 6.580761
54.715 6.278402
54.720 6.261775
54.725 6.340759
54.730 6.407002
54.735 6.600803
54.740 6.519079
54.745 6.004103
54.750 5.891187
54.755 5.820676
54.760 6.312371
54.765 6.456004
54.770 6.391658
54.775 6.892743
54.780 7.144483
54.785 7.242014
54.790 7.36646
54.795 6.994554
54.800 6.82537
54.805 6.727327
54.810 6.148355
54.815 6.047439
54.820 5.863684
54.825 5.778396
54.830 5.720965
54.835 5.708804
54.840 5.738455
54.845 6.170064
54.850 6.155168
54.855 6.006812
54.860 5.762053
54.865 5.661679
54.870 5.389861
54.875 5.37229
54.880 5.68374
54.885 5.916563
54.890 5.954154
54.895 5.911363
54.900 6.366038
54.905 6.399003
54.910 6.115643
54.915 5.974986
54.920 6.085573
54.925 6.462458
54.930 6.463882
54.935 6.044594
54.940 6.096087
54.945 6.258065
54.950 6.13862
54.955 5.844599
54.960 5.849543
54.965 6.0271
54.970 6.12681
54.975 6.121248
54.980 5.965305
54.985 6.078064
54.990 6.478159
54.995 6.612316
55.000 6.753084
55.005 6.748784
55.010 7.126834
55.015 7.393175
55.020 7.490324
55.025 7.215257
55.030 7.083241
55.035 6.821795
55.040 6.603478
55.045 6.362579
55.050 6.095269
55.055 5.864743
55.060 5.73562
55.065 5.738953
55.070 5.760754
55.075 5.910725
55.080 5.891746
55.085 6.084484
55.090 6.061255
55.095 6.100991
55.100 5.999253
55.105 6.254313
55.110 6.547173
55.115 6.524941
55.120 6.15531
55.125 6.074433
55.130 6.038859
55.135 5.937172
55.140 5.438057
55.145 5.00205
55.150 5.09898
55.155 5.297088
55.160 5.360091
55.165 5.641288
55.170 5.764819
55.175 6.167095
55.180 6.404911
55.185 6.201283
55.190 6.460187
55.195 6.450552
55.200 6.355631
55.205 6.745235
55.210 6.786774
55.215 6.663576
55.220 7.344862
55.225 7.425608
55.230 7.491241
55.235 7.439344
55.240 6.937356
55.245 6.605121
55.250 6.970106
55.255 6.695158
55.260 6.445461
55.265 6.719856
55.270 7.01277
55.275 7.73101
55.280 7.791718
55.285 7.439879
55.290 7.220246
55.295 7.165819
55.300 6.941984
55.305 6.827206
55.310 6.155554
55.315 6.104088
55.320 6.095378
55.325 6.176818
55.330 5.991188
55.335 5.726788
55.340 5.556241
55.345 5.715229
55.350 5.651049
55.355 5.474734
55.360 5.536691
55.365 5.689853
55.370 6.069724
55.375 6.125512
55.380 6.386243
55.385 6.670596
55.390 7.123407
55.395 7.61027
55.400 7.378648
55.405 7.325946
55.410 7.564321
55.415 7.115653
55.420 6.89818
55.425 6.764638
55.430 6.600485
55.435 6.604818
55.440 6.345294
55.445 6.317351
55.450 6.322842
55.455 6.513858
55.460 6.245498
55.465 6.155061
55.470 5.925825
55.475 5.554014
55.480 5.400328
55.485 5.837274
55.490 5.815617
55.495 5.917416
55.500 6.096693
55.505 6.211354
55.510 6.473585
55.515 6.697728
55.520 6.019361
55.525 5.961523
55.530 5.970888
55.535 5.92462
55.540 6.237044
55.545 6.155833
55.550 5.971425
55.555 6.205934
55.560 6.4429
55.565 6.593532
55.570 6.785353
55.575 6.902337
55.580 6.943243
55.585 7.012736
55.590 7.077842
55.595 6.585059
55.600 6.059754
55.605 5.931313
55.610 5.880433
55.615 6.24129
55.620 6.119687
55.625 6.129005
55.630 6.229002
55.635 6.606399
55.640 6.498579
55.645 6.663857
55.650 6.52918
55.655 6.981982
55.660 6.872734
55.665 7.10073
55.670 7.108219
55.675 7.073279
55.680 6.698429
55.685 6.660715
55.690 6.254536
55.695 6.243622
55.700 5.922317
55.705 5.636957
55.710 5.659884
55.715 5.85174
55.720 6.115746
55.725 6.315563
55.730 6.405737
55.735 6.177772
55.740 6.114625
55.745 6.12966
55.750 6.201736
55.755 6.002436
55.760 5.863578
55.765 6.175909
55.770 6.485158
55.775 6.865222
55.780 6.832685
55.785 6.59441
55.790 6.282787
55.795 6.322868
55.800 6.006889
55.805 6.238781
55.810 6.275361
55.815 6.433029
55.820 6.662854
55.825 6.875273
55.830 7.246533
55.835 7.604882
55.840 7.277808
55.845 7.030933
55.850 6.956098
55.855 6.942381
55.860 6.609377
55.865 6.052769
55.870 6.00864
55.875 5.856307
55.880 6.015254
55.885 5.757836
55.890 5.651863
55.895 5.836483
55.900 6.039574
55.905 6.142519
55.910 6.6381
55.915 7.012929
55.920 7.126963
55.925 7.33539
55.930 7.544939
55.935 7.432593
55.940 7.244875
55.945 7.108183
55.950 6.76472
55.955 6.467571
55.960 6.123115
55.965 6.159387
55.970 5.966816
55.975 5.764925
55.980 5.328713
55.985 5.442062
55.990 5.91292
55.995 6.176048
56.000 6.208728
56.005 6.34959
56.010 6.551833
56.015 6.52561
56.020 6.269192
56.025 6.196046
56.030 6.436394
56.035 6.522042
56.040 6.288555
56.045 6.282438
56.050 6.368149
56.055 6.262253
56.060 6.058273
56.065 5.800203
56.070 5.574031
56.075 5.998188
56.080 6.133764
56.085 6.298499
56.090 6.497865
56.095 6.562526
56.100 6.423714
56.105 6.541228
56.110 6.468721
56.115 6.322547
56.120 6.806788
56.125 6.686779
56.130 6.527659
56.135 6.689454
56.140 6.578679
56.145 6.460811
56.150 6.16053
56.155 5.841156
56.160 6.020524
56.165 6.216449
56.170 6.414521
56.175 6.411763
56.180 6.139641
56.185 6.110866
56.190 6.235289
56.195 6.048051
56.200 6.042651
56.205 6.022092
56.210 6.172865
56.215 6.370976
56.220 6.291474
56.225 6.290683
56.230 6.893525
56.235 6.758004
56.240 6.742043
56.245 6.679582
56.250 6.985862
56.255 7.185505
56.260 7.115403
56.265 6.868732
56.270 6.97324
56.275 6.643126
56.280 6.347235
56.285 6.193266
56.290 5.87138
56.295 5.644716
56.300 5.376319
56.305 5.168599
56.310 5.276943
56.315 5.763856
56.320 5.86742
56.325 6.395614
56.330 6.788754
56.335 7.143916
56.340 7.469176
56.345 7.946263
56.350 7.953494
56.355 7.877621
56.360 7.558952
56.365 7.22553
56.370 7.180882
56.375 7.179271
56.380 6.926948
56.385 6.870506
56.390 6.86965
56.395 7.02501
56.400 6.958552
56.405 6.91923
56.410 7.025212
56.415 6.990413
56.420 7.100272
56.425 7.253494
56.430 7.074989
56.435 6.98256
56.440 6.687108
56.445 6.592521
56.450 6.561597
56.455 6.747681
56.460 6.651436
56.465 6.955932
56.470 7.206019
56.475 7.182311
56.480 7.238295
56.485 7.315105
56.490 7.298573
56.495 7.512316
56.500 7.693097
56.505 7.728454
56.510 7.76517
56.515 7.593022
56.520 7.62659
56.525 7.357133
56.530 7.507353
56.535 7.097867
56.540 7.005555
56.545 6.991478
56.550 6.963256
56.555 6.807729
56.560 6.929441
56.565 6.386382
56.570 6.465744
56.575 6.46453
56.580 6.538043
56.585 6.811918
56.590 7.177829
56.595 7.434044
56.600 7.804797
56.605 8.0829
56.610 8.107173
56.615 7.978358
56.620 7.849205
56.625 7.893221
56.630 7.587534
56.635 7.27028
56.640 7.271504
56.645 7.466486
56.650 7.225027
56.655 7.048179
56.660 6.806247
56.665 7.010182
56.670 6.945714
56.675 7.12569
56.680 7.236646
56.685 7.657561
56.690 7.809962
56.695 8.039287
56.700 8.260236
56.705 8.507459
56.710 8.233952
56.715 8.308057
56.720 8.559625
56.725 8.504806
56.730 8.006135
56.735 7.795666
56.740 7.653488
56.745 7.623934
56.750 7.547005
56.755 6.886199
56.760 6.996641
56.765 7.364045
56.770 7.396794
56.775 7.783279
56.780 7.939002
56.785 8.009274
56.790 8.179387
56.795 7.92688
56.800 7.781816
56.805 7.840978
56.810 7.329693
56.815 7.280541
56.820 7.331092
56.825 7.479071
56.830 7.852986
56.835 8.018236
56.840 7.89642
56.845 7.835713
56.850 7.580144
56.855 7.312515
56.860 7.239525
56.865 7.0418
56.870 7.221861
56.875 7.264462
56.880 7.371675
56.885 7.34688
56.890 7.42731
56.895 7.180852
56.900 7.000949
56.905 6.360744
56.910 6.336247
56.915 6.672084
56.920 6.895703
56.925 7.00132
56.930 7.074338
56.935 7.005231
56.940 7.330924
56.945 7.686141
56.950 7.570735
56.955 7.479214
56.960 7.490086
56.965 7.629916
56.970 7.887208
56.975 8.042256
56.980 7.867874
56.985 7.522964
56.990 7.292586
56.995 7.27702
57.000 7.339401
57.005 7.57622
57.010 7.502151
57.015 7.436861
57.020 7.663137
57.025 7.773982
57.030 7.758883
57.035 7.42797
57.040 7.112886
57.045 7.213589
57.050 7.54443
57.055 7.448247
57.060 7.653001
57.065 7.642944
57.070 7.683779
57.075 7.850676
57.080 7.983413
57.085 7.901235
57.090 7.771631
57.095 7.594448
57.100 7.842116
57.105 7.880465
57.110 7.826978
57.115 7.585279
57.120 7.678777
57.125 7.770948
57.130 8.06242
57.135 7.883633
57.140 7.631242
57.145 7.091684
57.150 6.939085
57.155 6.801245
57.160 6.8981
57.165 6.853966
57.170 7.047051
57.175 7.331994
57.180 7.582749
57.185 7.550766
57.190 7.635408
57.195 7.408504
57.200 7.210589
57.205 7.343606
57.210 7.260638
57.215 7.478248
57.220 7.789793
57.225 7.670445
57.230 7.711546
57.235 7.711733
57.240 7.653305
57.245 7.442528
57.250 7.125707
57.255 6.970808
57.260 7.145683
57.265 6.976599
57.270 6.957141
57.275 6.66594
57.280 6.873772
57.285 6.709883
57.290 6.702355
57.295 6.871092
57.300 7.173877
57.305 7.290445
57.310 7.06912
57.315 6.871392
57.320 6.894227
57.325 6.718494
57.330 6.570771
57.335 6.819299
57.340 7.146348
57.345 7.576364
57.350 7.806293
57.355 7.911523
57.360 8.063496
57.365 8.014952
57.370 7.818575
57.375 7.813321
57.380 8.081563
57.385 7.963218
57.390 8.105418
57.395 8.17536
57.400 8.173609
57.405 7.98507
57.410 7.796095
57.415 7.423813
57.420 7.329603
57.425 7.290974
57.430 7.205988
57.435 7.200799
57.440 7.167112
57.445 7.130114
57.450 7.426686
57.455 7.660935
57.460 7.682858
57.465 7.634049
57.470 7.619248
57.475 7.658328
57.480 7.835273
57.485 7.785225
57.490 7.798029
57.495 7.463463
57.500 7.290055
57.505 7.480215
57.510 7.547086
57.515 7.504303
57.520 7.34482
57.525 7.226156
57.530 7.348529
57.535 7.496513
57.540 7.161288
57.545 7.08535
57.550 7.141445
57.555 7.366199
57.560 7.728329
57.565 8.182376
57.570 8.28766
57.575 8.44022
57.580 8.336668
57.585 8.432263
57.590 8.383406
57.595 7.959396
57.600 7.957169
57.605 7.904736
57.610 7.859696
57.615 7.786921
57.620 7.493106
57.625 7.453109
57.630 7.751615
57.635 7.681195
57.640 7.89925
57.645 8.13314
57.650 8.220381
57.655 8.090321
57.660 7.902448
57.665 7.720891
57.670 7.616789
57.675 7.458672
57.680 7.347219
57.685 7.47583
57.690 7.389645
57.695 7.791158
57.700 7.652062
57.705 7.911736
57.710 7.68198
57.715 7.799949
57.720 7.87996
57.725 7.709828
57.730 7.617703
57.735 7.713404
57.740 7.605813
57.745 7.618372
57.750 7.287293
57.755 7.08076
57.760 7.268077
57.765 7.600705
57.770 7.437778
57.775 7.50976
57.780 7.632157
57.785 7.563149
57.790 7.854447
57.795 7.933989
57.800 7.524971
57.805 7.818649
57.810 7.670352
57.815 8.329011
57.820 8.866632
57.825 8.676754
57.830 8.612029
57.835 8.466492
57.840 8.103595
57.845 8.203742
57.850 7.711916
57.855 7.526592
57.860 7.867711
57.865 8.277699
57.870 8.61424
57.875 9.181157
57.880 9.092862
57.885 9.010777
57.890 8.924549
57.895 8.818966
57.900 8.375189
57.905 8.040631
57.910 7.757446
57.915 7.57666
57.920 7.646507
57.925 7.498919
57.930 7.214036
57.935 7.343266
57.940 7.126584
57.945 7.050647
57.950 7.18113
57.955 6.984938
57.960 6.979606
57.965 6.836358
57.970 7.278667
57.975 7.402586
57.980 7.634038
57.985 8.046081
57.990 8.13662
57.995 8.572498
58.000 8.77984
58.005 8.055799
58.010 8.004694
58.015 7.740845
58.020 7.583271
58.025 7.809886
58.030 7.517464
58.035 7.551904
58.040 8.01047
58.045 7.970349
58.050 8.085532
58.055 7.901712
58.060 7.783543
58.065 7.928933
58.070 8.058224
58.075 8.085598
58.080 8.289453
58.085 8.411706
58.090 8.576211
58.095 8.557273
58.100 8.250074
58.105 8.308544
58.110 8.450551
58.115 8.185321
58.120 8.05403
58.125 7.714633
58.130 7.445073
58.135 7.525301
58.140 7.228199
58.145 7.221036
58.150 7.314026
58.155 7.141489
58.160 7.489347
58.165 7.959929
58.170 8.204384
58.175 8.556098
58.180 8.550923
58.185 8.35497
58.190 8.494946
58.195 8.29249
58.200 8.166071
58.205 8.663644
58.210 8.994603
58.215 9.143431
58.220 9.235206
58.225 8.981993
58.230 8.922672
58.235 8.809804
58.240 8.528649
58.245 8.169787
58.250 8.265234
58.255 9.01211
58.260 9.13238
58.265 8.825784
58.270 8.669982
58.275 8.673935
58.280 8.659136
58.285 8.635303
58.290 8.431813
58.295 9.067829
58.300 9.687582
58.305 9.652233
58.310 9.525375
58.315 9.901232
58.320 9.952715
58.325 9.906459
58.330 9.339625
58.335 9.623586
58.340 9.733784
58.345 9.459815
58.350 8.91223
58.355 8.586237
58.360 8.502052
58.365 8.61896
58.370 8.067044
58.375 8.154236
58.380 8.111342
58.385 8.244066
58.390 8.785141
58.395 9.295938
58.400 9.434686
58.405 9.661456
58.410 9.569667
58.415 9.724852
58.420 9.680131
58.425 9.395158
58.430 9.241407
58.435 10.103681
58.440 10.46793
58.445 10.989149
58.450 11.729892
58.455 12.100306
58.460 12.330724
58.465 12.304625
58.470 11.672444
58.475 11.599073
58.480 11.396919
58.485 10.700325
58.490 10.732336
58.495 10.752063
58.500 10.821867
58.505 11.145406
58.510 11.319075
58.515 11.398788
58.520 11.567237
58.525 11.413407
58.530 11.908328
58.535 11.729714
58.540 11.517597
58.545 11.219045
58.550 11.602665
58.555 12.015051
58.560 12.084344
58.565 11.383558
58.570 11.263763
58.575 11.341781
58.580 11.570346
58.585 11.15633
58.590 10.957782
58.595 11.274909
58.600 11.950701
58.605 12.503173
58.610 12.513997
58.615 12.356158
58.620 12.50107
58.625 12.809484
58.630 12.987932
58.635 12.828513
58.640 12.467263
58.645 12.477558
58.650 12.657962
58.655 12.963304
58.660 13.091782
58.665 13.112159
58.670 13.135036
58.675 13.254242
58.680 13.384018
58.685 13.134387
58.690 12.360511
58.695 12.060493
58.700 11.752733
58.705 11.416412
58.710 11.321861
58.715 11.32658
58.720 11.354918
58.725 11.791301
58.730 11.689053
58.735 11.880536
58.740 12.153149
58.745 12.519663
