!@!!GADDS PLOTSO FILE: Chi integration type
!@!!Title/SampleName: map-15a
!@!!Comment: ?
!@!!User: Bruker Instrument Administrator
!@!!Site: University of Illinois Chicago
!@!!Frame: map-15a_01_000.gfrm
!@!!Wavelengths    1.54184   1.54056   1.54439
!@!!Frame angles: 2Theta: 63.000 Omega: 50.000 Phi: 0.000 Chi: 90.000
!@!!Integration range: 2Theta: 53.000 to 73.000  Gamma: -105.000 to -75.000
!@!!Integration method: bin normalized
!@!N
!@!SS
!@!M
!@!L 0.0 0.0 0.0 0.0
!@!XDegrees
!@!YCounts
53.000 7.405381
53.005 7.404482
53.010 7.184262
53.015 7.297565
53.020 7.406456
53.025 7.366349
53.030 7.281447
53.035 7.102864
53.040 7.179476
53.045 7.216924
53.050 6.997856
53.055 6.810608
53.060 6.987943
53.065 6.525352
53.070 6.150781
53.075 5.715991
53.080 5.496713
53.085 5.868418
53.090 6.22616
53.095 6.310331
53.100 6.771867
53.105 7.357136
53.110 7.843531
53.115 8.103374
53.120 7.539478
53.125 7.621305
53.130 7.78505
53.135 7.877225
53.140 7.837
53.145 7.911613
53.150 8.067921
53.155 8.069073
53.160 7.824377
53.165 8.080215
53.170 7.818841
53.175 7.507877
53.180 7.320121
53.185 7.100438
53.190 7.599217
53.195 7.376143
53.200 7.212873
53.205 7.681349
53.210 7.785081
53.215 7.95995
53.220 8.1845
53.225 8.176867
53.230 8.296824
53.235 8.224316
53.240 7.794271
53.245 7.791621
53.250 7.709304
53.255 7.298881
53.260 7.098772
53.265 6.971755
53.270 7.099888
53.275 7.777488
53.280 7.756299
53.285 7.380769
53.290 7.427401
53.295 7.3178
53.300 6.952053
53.305 6.631699
53.310 6.115674
53.315 6.271101
53.320 6.535703
53.325 6.529934
53.330 6.958422
53.335 7.194934
53.340 6.920699
53.345 7.028874
53.350 7.548351
53.355 7.82598
53.360 7.955205
53.365 7.709052
53.370 7.70974
53.375 7.55574
53.380 7.109822
53.385 6.603407
53.390 6.672724
53.395 6.793046
53.400 7.239817
53.405 7.53849
53.410 7.670577
53.415 8.093548
53.420 8.03811
53.425 7.549727
53.430 7.123128
53.435 6.982694
53.440 7.126586
53.445 7.421133
53.450 7.347944
53.455 7.372041
53.460 7.581941
53.465 7.665347
53.470 7.299673
53.475 7.318166
53.480 7.237678
53.485 7.453649
53.490 7.761525
53.495 7.560174
53.500 7.424779
53.505 7.540276
53.510 7.876053
53.515 8.03653
53.520 7.84055
53.525 7.667451
53.530 7.840955
53.535 8.00305
53.540 7.827929
53.545 7.461555
53.550 7.121232
53.555 6.757913
53.560 6.766601
53.565 6.999898
53.570 7.007871
53.575 7.22345
53.580 7.441359
53.585 7.894121
53.590 8.346586
53.595 8.203214
53.600 8.335128
53.605 8.471967
53.610 8.307381
53.615 8.138033
53.620 8.11524
53.625 8.812594
53.630 9.043564
53.635 9.178942
53.640 9.426363
53.645 9.635423
53.650 9.548461
53.655 9.394386
53.660 9.308823
53.665 9.514351
53.670 9.408082
53.675 9.428546
53.680 9.29318
53.685 9.071624
53.690 8.650448
53.695 8.255128
53.700 7.702419
53.705 7.18074
53.710 6.880087
53.715 7.211702
53.720 7.758821
53.725 8.422338
53.730 8.918167
53.735 9.237045
53.740 9.578803
53.745 9.394493
53.750 9.252625
53.755 8.900715
53.760 8.215658
53.765 7.927601
53.770 7.492657
53.775 7.488162
53.780 8.196337
53.785 8.380363
53.790 8.570039
53.795 8.824562
53.800 9.076094
53.805 9.52593
53.810 9.098492
53.815 8.90523
53.820 9.030796
53.825 8.883142
53.830 8.762917
53.835 8.858912
53.840 8.651737
53.845 8.729345
53.850 8.10508
53.855 7.882066
53.860 7.759677
53.865 7.574424
53.870 7.450535
53.875 7.485373
53.880 7.465841
53.885 7.586036
53.890 7.857381
53.895 7.966504
53.900 8.196787
53.905 8.496243
53.910 8.782605
53.915 8.81162
53.920 9.100146
53.925 8.960313
53.930 9.197297
53.935 9.168841
53.940 9.151209
53.945 9.271724
53.950 9.170799
53.955 8.80067
53.960 8.977663
53.965 8.761666
53.970 8.416788
53.975 8.243816
53.980 7.979072
53.985 8.287846
53.990 8.348237
53.995 8.335918
54.000 8.215489
54.005 8.210732
54.010 8.13521
54.015 8.166246
54.020 7.853679
54.025 7.901166
54.030 8.037956
54.035 8.414578
54.040 8.146828
54.045 8.62123
54.050 8.50639
54.055 8.686196
54.060 8.921508
54.065 8.693237
54.070 8.706957
54.075 8.591146
54.080 8.525914
54.085 9.151731
54.090 9.029371
54.095 8.812552
54.100 8.606204
54.105 8.824703
54.110 8.724895
54.115 8.5418
54.120 8.191158
54.125 8.184888
54.130 8.051663
54.135 8.033005
54.140 8.356414
54.145 8.400415
54.150 8.339753
54.155 8.309617
54.160 8.265416
54.165 8.584978
54.170 8.976269
54.175 9.011103
54.180 8.960112
54.185 9.039878
54.190 9.075842
54.195 8.917318
54.200 8.993898
54.205 8.971247
54.210 8.718301
54.215 8.690253
54.220 8.688222
54.225 8.698617
54.230 8.339155
54.235 7.849407
54.240 7.422238
54.245 7.658165
54.250 7.906117
54.255 8.293958
54.260 8.754859
54.265 9.202732
54.270 9.389789
54.275 9.461176
54.280 9.372089
54.285 9.348764
54.290 9.113953
54.295 8.86556
54.300 8.726287
54.305 8.673744
54.310 8.53664
54.315 8.612796
54.320 8.692444
54.325 8.350607
54.330 8.180164
54.335 8.444411
54.340 8.451137
54.345 8.553261
54.350 8.272544
54.355 7.984766
54.360 8.002529
54.365 8.161495
54.370 7.964135
54.375 7.701074
54.380 7.021232
54.385 7.207135
54.390 7.659571
54.395 8.196362
54.400 8.348977
54.405 8.473373
54.410 8.81004
54.415 8.924991
54.420 8.578553
54.425 8.507633
54.430 8.041177
54.435 8.018237
54.440 7.961664
54.445 7.983079
54.450 8.36541
54.455 8.349131
54.460 8.209441
54.465 8.158638
54.470 7.964625
54.475 8.306613
54.480 8.606699
54.485 8.344622
54.490 8.452834
54.495 8.392525
54.500 8.511687
54.505 8.813734
54.510 8.660041
54.515 8.706611
54.520 8.767962
54.525 8.858852
54.530 9.109845
54.535 8.902381
54.540 8.76899
54.545 8.784518
54.550 8.566374
54.555 8.771659
54.560 8.957527
54.565 8.955212
54.570 8.963072
54.575 8.505827
54.580 8.664479
54.585 8.892571
54.590 8.768231
54.595 8.672215
54.600 8.781405
54.605 9.184428
54.610 9.374226
54.615 9.179205
54.620 9.282
54.625 8.71527
54.630 8.287802
54.635 7.858606
54.640 7.401477
54.645 7.603557
54.650 7.366899
54.655 7.003366
54.660 7.125864
54.665 7.155147
54.670 7.057114
54.675 6.960033
54.680 6.866278
54.685 7.343771
54.690 7.64592
54.695 7.820861
54.700 8.010704
54.705 8.171812
54.710 8.282297
54.715 7.843
54.720 7.634929
54.725 7.513809
54.730 7.495027
54.735 7.501482
54.740 7.798788
54.745 8.154665
54.750 7.994545
54.755 7.849882
54.760 7.939384
54.765 8.272044
54.770 8.240408
54.775 8.297232
54.780 8.164958
54.785 8.327771
54.790 8.438057
54.795 8.237771
54.800 8.233736
54.805 8.835626
54.810 9.104118
54.815 9.513897
54.820 9.946476
54.825 10.075896
54.830 10.49553
54.835 10.160865
54.840 9.261097
54.845 9.214545
54.850 9.295426
54.855 9.520639
54.860 10.001579
54.865 10.121083
54.870 10.111523
54.875 10.246419
54.880 9.815359
54.885 9.816763
54.890 9.302848
54.895 9.120008
54.900 8.974723
54.905 8.768995
54.910 9.008813
54.915 9.635211
54.920 9.665605
54.925 9.405603
54.930 8.743253
54.935 9.177282
54.940 9.658394
54.945 9.228012
54.950 8.467107
54.955 8.201629
54.960 8.315129
54.965 8.373864
54.970 7.945549
54.975 7.682555
54.980 7.810564
54.985 8.362801
54.990 8.749141
54.995 9.190758
55.000 9.494625
55.005 9.793219
55.010 10.111715
55.015 10.534163
55.020 10.410332
55.025 10.308377
55.030 9.748747
55.035 9.707319
55.040 9.614364
55.045 9.370285
55.050 9.122183
55.055 9.000085
55.060 8.538036
55.065 8.749427
55.070 8.508975
55.075 8.55927
55.080 8.688803
55.085 8.743678
55.090 9.050337
55.095 9.153395
55.100 9.214432
55.105 9.560422
55.110 9.759684
55.115 9.670168
55.120 9.25127
55.125 9.035844
55.130 9.581993
55.135 9.766951
55.140 9.696189
55.145 9.594917
55.150 9.848343
55.155 9.856352
55.160 9.821701
55.165 9.196883
55.170 8.808035
55.175 8.533259
55.180 8.491236
55.185 8.325027
55.190 8.17519
55.195 7.967412
55.200 8.169145
55.205 8.155562
55.210 8.097265
55.215 7.863894
55.220 7.957246
55.225 8.259962
55.230 8.00197
55.235 7.964205
55.240 8.151096
55.245 8.281392
55.250 8.590456
55.255 8.531654
55.260 8.233183
55.265 8.595915
55.270 8.689595
55.275 8.609596
55.280 8.773457
55.285 8.792922
55.290 8.957561
55.295 9.280527
55.300 9.356676
55.305 9.512704
55.310 9.671583
55.315 9.445048
55.320 9.315237
55.325 9.079536
55.330 8.724809
55.335 8.336844
55.340 7.72118
55.345 7.455486
55.350 7.735597
55.355 7.924675
55.360 8.207675
55.365 8.387959
55.370 8.771346
55.375 9.11271
55.380 9.09539
55.385 8.661372
55.390 8.388368
55.395 8.690387
55.400 8.812
55.405 8.638842
55.410 8.551634
55.415 8.518762
55.420 8.521448
55.425 8.150167
55.430 7.599331
55.435 7.613657
55.440 7.480045
55.445 7.458426
55.450 7.673902
55.455 7.884202
55.460 8.22042
55.465 8.046472
55.470 8.105486
55.475 8.443192
55.480 8.502773
55.485 8.555307
55.490 8.404422
55.495 8.369749
55.500 8.818846
55.505 9.042428
55.510 8.754205
55.515 8.353339
55.520 8.168466
55.525 8.491463
55.530 8.898342
55.535 8.441042
55.540 8.368237
55.545 8.90351
55.550 9.438524
55.555 9.762573
55.560 9.450387
55.565 9.004969
55.570 8.919005
55.575 8.730056
55.580 8.379439
55.585 8.188572
55.590 8.100184
55.595 8.118018
55.600 8.231076
55.605 8.506814
55.610 9.18207
55.615 9.408269
55.620 9.459414
55.625 9.501637
55.630 9.691498
55.635 9.909643
55.640 9.663861
55.645 8.663715
55.650 8.361938
55.655 8.603702
55.660 8.457534
55.665 8.115739
55.670 7.794457
55.675 7.628964
55.680 8.0135
55.685 8.180408
55.690 7.997408
55.695 8.083841
55.700 8.153054
55.705 8.136565
55.710 8.031395
55.715 7.783743
55.720 7.687949
55.725 7.575369
55.730 7.707813
55.735 8.2016
55.740 8.31622
55.745 8.563942
55.750 8.908249
55.755 9.066748
55.760 9.062335
55.765 8.848729
55.770 8.55889
55.775 8.716988
55.780 8.955723
55.785 8.75765
55.790 9.129341
55.795 9.476807
55.800 9.627979
55.805 9.74907
55.810 9.720233
55.815 9.595173
55.820 9.868556
55.825 9.327534
55.830 9.216928
55.835 9.242626
55.840 9.077602
55.845 9.334921
55.850 9.185637
55.855 8.866215
55.860 9.079798
55.865 8.702785
55.870 8.525173
55.875 8.594728
55.880 8.52059
55.885 8.442213
55.890 8.449614
55.895 8.734224
55.900 8.962193
55.905 8.806845
55.910 8.420134
55.915 8.822803
55.920 8.45117
55.925 8.344732
55.930 8.538314
55.935 8.567369
55.940 8.632935
55.945 8.720835
55.950 8.473232
55.955 9.172817
55.960 9.222061
55.965 8.858705
55.970 8.955935
55.975 8.684645
55.980 8.360438
55.985 8.202159
55.990 7.856583
55.995 7.725587
56.000 8.008803
56.005 8.009891
56.010 8.468361
56.015 8.615346
56.020 8.533971
56.025 8.528526
56.030 8.373978
56.035 8.177742
56.040 7.776285
56.045 7.377218
56.050 7.284743
56.055 7.383572
56.060 7.416832
56.065 7.197596
56.070 7.479781
56.075 8.318139
56.080 8.573774
56.085 8.992478
56.090 9.109046
56.095 9.464499
56.100 9.377074
56.105 9.057466
56.110 8.77024
56.115 9.238527
56.120 9.628824
56.125 9.482096
56.130 9.399479
56.135 9.675568
56.140 9.499975
56.145 9.502913
56.150 8.704812
56.155 8.135314
56.160 8.213186
56.165 8.216779
56.170 8.735484
56.175 9.04049
56.180 9.522795
56.185 9.886905
56.190 10.001209
56.195 10.234195
56.200 10.098877
56.205 9.533405
56.210 9.322537
56.215 9.22538
56.220 9.222116
56.225 9.397899
56.230 9.73468
56.235 9.880801
56.240 10.006221
56.245 9.848366
56.250 9.727134
56.255 9.728041
56.260 9.582519
56.265 8.986687
56.270 8.929918
56.275 9.027693
56.280 9.314849
56.285 9.114845
56.290 8.931645
56.295 8.826735
56.300 8.94534
56.305 8.99112
56.310 9.053078
56.315 8.838071
56.320 8.939795
56.325 8.939449
56.330 8.872797
56.335 9.298524
56.340 9.261216
56.345 9.588597
56.350 9.759308
56.355 9.791758
56.360 9.637696
56.365 9.336584
56.370 9.031409
56.375 9.381446
56.380 9.029791
56.385 8.811436
56.390 9.024766
56.395 9.43083
56.400 10.019273
56.405 10.140284
56.410 9.847683
56.415 10.280733
56.420 10.826006
56.425 10.60193
56.430 10.723308
56.435 10.575157
56.440 10.226962
56.445 10.179889
56.450 9.997561
56.455 9.933513
56.460 9.927369
56.465 10.09625
56.470 10.335638
56.475 10.941732
56.480 10.627919
56.485 10.479616
56.490 10.834602
56.495 10.689092
56.500 10.44214
56.505 10.473514
56.510 10.801659
56.515 11.458803
56.520 11.4795
56.525 11.201043
56.530 11.495786
56.535 11.427989
56.540 11.07909
56.545 10.395173
56.550 10.208515
56.555 10.154357
56.560 10.129138
56.565 9.921334
56.570 9.997369
56.575 9.923885
56.580 10.105666
56.585 10.115715
56.590 9.987732
56.595 9.752565
56.600 9.951247
56.605 9.964247
56.610 10.028671
56.615 9.789645
56.620 9.300016
56.625 9.446589
56.630 9.757283
56.635 9.837864
56.640 9.670015
56.645 9.444549
56.650 9.5765
56.655 9.596087
56.660 9.857333
56.665 9.656598
56.670 9.130905
56.675 9.160459
56.680 9.498744
56.685 9.795681
56.690 10.163365
56.695 10.364791
56.700 10.277217
56.705 10.334175
56.710 10.536231
56.715 10.530584
56.720 10.303082
56.725 9.833493
56.730 9.263615
56.735 9.444754
56.740 9.88734
56.745 10.23206
56.750 10.258937
56.755 9.871099
56.760 9.7516
56.765 9.748103
56.770 10.015678
56.775 9.730924
56.780 9.061984
56.785 9.243082
56.790 9.936227
56.795 10.539338
56.800 10.635652
56.805 10.078167
56.810 10.092407
56.815 10.21101
56.820 9.75261
56.825 9.640765
56.830 9.371328
56.835 8.758507
56.840 8.974673
56.845 8.984083
56.850 8.822013
56.855 8.659679
56.860 8.406477
56.865 8.082713
56.870 8.392556
56.875 8.173983
56.880 8.113952
56.885 7.817117
56.890 7.90323
56.895 7.985298
56.900 8.523027
56.905 8.781717
56.910 8.487222
56.915 8.470329
56.920 8.545992
56.925 8.353523
56.930 8.370028
56.935 7.751895
56.940 7.940383
56.945 8.502319
56.950 8.553785
56.955 8.755479
56.960 9.094966
56.965 8.979934
56.970 9.258181
56.975 8.859733
56.980 8.375965
56.985 8.462362
56.990 8.245697
56.995 8.095936
57.000 8.403761
57.005 8.234678
57.010 8.385061
57.015 8.42404
57.020 8.541587
57.025 8.481478
57.030 8.330436
57.035 8.277509
57.040 8.341127
57.045 8.359259
57.050 8.306066
57.055 8.165049
57.060 8.418211
57.065 8.492734
57.070 8.668091
57.075 8.798487
57.080 8.85204
57.085 9.004185
57.090 9.024361
57.095 8.769114
57.100 8.669102
57.105 8.390776
57.110 8.491733
57.115 8.725279
57.120 9.103984
57.125 9.022226
57.130 9.093014
57.135 8.971709
57.140 8.903561
57.145 9.036199
57.150 8.977219
57.155 8.699764
57.160 8.73503
57.165 8.613025
57.170 8.645535
57.175 8.489061
57.180 8.168369
57.185 8.145663
57.190 7.946641
57.195 8.248904
57.200 8.35809
57.205 8.547476
57.210 9.06524
57.215 9.32167
57.220 9.050607
57.225 9.640942
57.230 9.754833
57.235 9.873992
57.240 9.889696
57.245 9.742027
57.250 9.539506
57.255 9.600694
57.260 9.229836
57.265 9.448854
57.270 9.624929
57.275 9.551221
57.280 9.622036
57.285 9.798144
57.290 9.702039
57.295 9.656868
57.300 9.444748
57.305 9.474512
57.310 9.123374
57.315 9.053132
57.320 8.982754
57.325 8.796715
57.330 9.044584
57.335 8.751892
57.340 8.940968
57.345 9.046106
57.350 9.050893
57.355 9.205117
57.360 9.137589
57.365 9.256975
57.370 9.385929
57.375 9.187407
57.380 9.511403
57.385 9.460048
57.390 9.865722
57.395 10.247279
57.400 10.091527
57.405 10.173312
57.410 9.936535
57.415 9.703899
57.420 9.950308
57.425 9.766793
57.430 9.481578
57.435 9.07631
57.440 8.970167
57.445 8.926561
57.450 8.679613
57.455 8.377426
57.460 8.156575
57.465 8.221232
57.470 8.719433
57.475 8.855835
57.480 8.998347
57.485 8.858701
57.490 8.892045
57.495 8.878798
57.500 8.912397
57.505 8.30054
57.510 8.530485
57.515 8.68457
57.520 8.506344
57.525 8.297557
57.530 8.204428
57.535 8.612056
57.540 9.175611
57.545 9.270526
57.550 9.26501
57.555 9.629636
57.560 9.813829
57.565 9.745982
57.570 9.548296
57.575 9.194295
57.580 8.997813
57.585 9.027315
57.590 9.34753
57.595 9.180909
57.600 9.413188
57.605 8.986237
57.610 9.028868
57.615 9.158307
57.620 9.088585
57.625 9.049517
57.630 9.195517
57.635 9.095167
57.640 9.512395
57.645 9.552676
57.650 9.402048
57.655 9.542544
57.660 9.362967
57.665 9.500168
57.670 10.055429
57.675 10.032293
57.680 10.243382
57.685 10.455249
57.690 10.719272
57.695 10.983626
57.700 10.427011
57.705 9.674822
57.710 9.407903
57.715 9.057337
57.720 8.646644
57.725 8.229187
57.730 7.955172
57.735 8.62311
57.740 9.052758
57.745 9.061504
57.750 9.261436
57.755 9.526517
57.760 9.263613
57.765 9.039071
57.770 8.277141
57.775 8.22046
57.780 8.435028
57.785 8.581088
57.790 9.308202
57.795 10.033635
57.800 10.33785
57.805 10.911139
57.810 11.196454
57.815 10.912252
57.820 10.60277
57.825 10.065799
57.830 9.476923
57.835 8.857739
57.840 8.678967
57.845 8.304864
57.850 8.580026
57.855 8.558443
57.860 8.378167
57.865 8.564224
57.870 9.209465
57.875 8.815728
57.880 8.678888
57.885 8.821774
57.890 8.816856
57.895 8.951697
57.900 8.539513
57.905 8.157966
57.910 8.348247
57.915 8.316965
57.920 8.26278
57.925 8.116942
57.930 8.067824
57.935 8.525496
57.940 8.896672
57.945 9.008584
57.950 9.193988
57.955 9.295549
57.960 9.906739
57.965 10.569633
57.970 10.574111
57.975 10.607593
57.980 10.644248
57.985 10.500978
57.990 10.692461
57.995 10.384298
58.000 9.896086
58.005 10.032452
58.010 9.512702
58.015 9.197354
58.020 8.826613
58.025 8.350507
58.030 7.990457
58.035 7.940751
58.040 8.160029
58.045 8.285142
58.050 8.68342
58.055 8.915074
58.060 8.865225
58.065 9.031624
58.070 9.27059
58.075 8.981392
58.080 9.24096
58.085 9.197548
58.090 9.212364
58.095 9.266706
58.100 9.484517
58.105 9.668513
58.110 10.148956
58.115 10.14887
58.120 10.147922
58.125 10.19928
58.130 10.275057
58.135 9.569131
58.140 9.19127
58.145 8.892056
58.150 8.766292
58.155 9.023246
58.160 8.912747
58.165 8.988723
58.170 9.405365
58.175 9.079969
58.180 9.144715
58.185 9.516647
58.190 9.567218
58.195 9.804821
58.200 10.280114
58.205 10.638114
58.210 11.047277
58.215 10.572439
58.220 10.088814
58.225 9.731047
58.230 9.63499
58.235 9.049863
58.240 8.967468
58.245 8.956097
58.250 9.320878
58.255 9.304042
58.260 9.231008
58.265 9.158021
58.270 9.128541
58.275 9.072948
58.280 9.266446
58.285 9.3278
58.290 9.313169
58.295 9.466486
58.300 9.619063
58.305 10.090683
58.310 10.217746
58.315 9.963925
58.320 9.346305
58.325 9.499489
58.330 9.315265
58.335 9.09931
58.340 8.808058
58.345 8.756878
58.350 9.416112
58.355 10.555501
58.360 10.628757
58.365 10.938981
58.370 10.694242
58.375 10.78657
58.380 10.754601
58.385 10.552909
58.390 10.180695
58.395 10.197769
58.400 10.099604
58.405 10.153446
58.410 10.379041
58.415 10.493464
58.420 10.653613
58.425 10.725262
58.430 11.031932
58.435 11.455936
58.440 11.498476
58.445 11.450184
58.450 11.592841
58.455 11.535101
58.460 11.326041
58.465 10.746531
58.470 10.677105
58.475 10.921782
58.480 10.887559
58.485 10.367162
58.490 10.690725
58.495 11.522364
58.500 11.939625
58.505 12.213226
58.510 12.317142
58.515 12.621924
58.520 12.877501
58.525 12.364426
58.530 11.887257
58.535 11.600222
58.540 11.300054
58.545 10.607585
58.550 10.173244
58.555 9.973821
58.560 10.162995
58.565 9.747108
58.570 9.581467
58.575 9.812252
58.580 9.95832
58.585 9.920622
58.590 9.930443
58.595 9.702295
58.600 9.566124
58.605 9.581323
58.610 9.253642
58.615 9.385048
58.620 9.680564
58.625 9.857153
58.630 10.038241
58.635 10.806924
58.640 11.303556
58.645 11.448149
58.650 11.134395
58.655 10.98513
58.660 11.058543
58.665 11.532011
58.670 11.012487
58.675 10.921232
58.680 11.594189
58.685 12.197697
58.690 12.048352
58.695 12.460061
58.700 12.230561
58.705 12.366173
58.710 11.768459
58.715 10.954476
