!@!!GADDS PLOTSO FILE: Chi integration type
!@!!Title/SampleName: map-47
!@!!Comment: ?
!@!!User: Bruker Instrument Administrator
!@!!Site: University of Illinois Chicago
!@!!Frame: map-47_01_000.gfrm
!@!!Wavelengths    1.54184   1.54056   1.54439
!@!!Frame angles: 2Theta: 63.000 Omega: 50.000 Phi: 0.000 Chi: 90.000
!@!!Integration range: 2Theta: 53.000 to 73.000  Gamma: -105.000 to -75.000
!@!!Integration method: bin normalized
!@!N
!@!SS
!@!M
!@!L 0.0 0.0 0.0 0.0
!@!XDegrees
!@!YCounts
53.000 9.375328
53.005 9.435214
53.010 9.8309
53.015 10.211242
53.020 10.355408
53.025 10.303262
53.030 9.90899
53.035 9.50149
53.040 9.590467
53.045 9.691089
53.050 9.565611
53.055 9.287737
53.060 9.580849
53.065 10.067457
53.070 10.364445
53.075 10.364309
53.080 10.323475
53.085 10.872427
53.090 10.798656
53.095 10.117834
53.100 9.84982
53.105 9.628041
53.110 9.300794
53.115 8.812628
53.120 8.365366
53.125 8.597596
53.130 8.726057
53.135 8.610415
53.140 8.756183
53.145 9.026648
53.150 9.599743
53.155 10.1487
53.160 10.607442
53.165 11.022676
53.170 11.024217
53.175 11.149812
53.180 11.442341
53.185 11.27879
53.190 10.911096
53.195 10.442091
53.200 9.972807
53.205 9.764863
53.210 8.955712
53.215 8.690426
53.220 9.084152
53.225 9.40274
53.230 9.887903
53.235 10.532554
53.240 10.951056
53.245 11.301677
53.250 10.714305
53.255 10.088682
53.260 9.597432
53.265 9.229069
53.270 8.727174
53.275 8.254175
53.280 8.699591
53.285 9.564712
53.290 9.842436
53.295 9.918271
53.300 9.871739
53.305 10.035674
53.310 10.193232
53.315 9.760784
53.320 9.324308
53.325 9.337887
53.330 9.69887
53.335 9.820871
53.340 9.752713
53.345 9.767382
53.350 9.777576
53.355 10.228872
53.360 10.084538
53.365 9.998745
53.370 10.110188
53.375 9.948545
53.380 10.522348
53.385 10.753901
53.390 10.522552
53.395 10.776613
53.400 10.724442
53.405 11.087477
53.410 10.897038
53.415 10.334216
53.420 10.142433
53.425 10.20967
53.430 9.903328
53.435 9.650743
53.440 9.606924
53.445 9.396746
53.450 9.415195
53.455 9.150027
53.460 9.10288
53.465 9.346306
53.470 9.613201
53.475 9.740864
53.480 9.888911
53.485 9.812044
53.490 9.917724
53.495 9.515207
53.500 9.652383
53.505 9.469252
53.510 9.655805
53.515 9.870393
53.520 9.909787
53.525 9.605011
53.530 9.386219
53.535 9.21888
53.540 9.419514
53.545 9.158132
53.550 8.935267
53.555 9.075354
53.560 9.62886
53.565 10.110609
53.570 9.82557
53.575 9.510103
53.580 10.159866
53.585 10.327391
53.590 10.518206
53.595 10.490657
53.600 10.244024
53.605 10.479168
53.610 10.306602
53.615 9.891966
53.620 9.412211
53.625 9.474714
53.630 9.547814
53.635 9.445023
53.640 9.09158
53.645 9.013741
53.650 9.136024
53.655 9.501887
53.660 9.741757
53.665 9.629607
53.670 9.990915
53.675 10.866279
53.680 10.708381
53.685 11.157918
53.690 11.121917
53.695 11.148403
53.700 11.607317
53.705 11.370827
53.710 11.193904
53.715 11.373647
53.720 11.442954
53.725 12.129433
53.730 11.982403
53.735 12.080728
53.740 11.754027
53.745 11.67055
53.750 11.920691
53.755 11.495226
53.760 10.919324
53.765 10.65743
53.770 10.545904
53.775 10.883192
53.780 10.698793
53.785 10.130118
53.790 10.143154
53.795 10.01949
53.800 10.248153
53.805 9.799276
53.810 9.666952
53.815 10.144472
53.820 10.523279
53.825 10.92415
53.830 10.622876
53.835 10.556911
53.840 10.94206
53.845 10.853585
53.850 10.38578
53.855 10.108761
53.860 10.483598
53.865 10.703363
53.870 10.765773
53.875 10.488482
53.880 10.493571
53.885 10.445004
53.890 10.207039
53.895 9.785426
53.900 9.883396
53.905 10.284659
53.910 10.786675
53.915 10.908231
53.920 10.801818
53.925 11.216069
53.930 11.782414
53.935 11.885948
53.940 11.526612
53.945 11.478238
53.950 11.692253
53.955 11.674143
53.960 10.901475
53.965 10.773363
53.970 10.854555
53.975 11.424556
53.980 11.674775
53.985 11.891905
53.990 12.630296
53.995 13.031384
54.000 12.707383
54.005 12.252476
54.010 11.411179
54.015 11.004346
54.020 10.533
54.025 10.031158
54.030 10.085627
54.035 10.189555
54.040 10.200397
54.045 10.388944
54.050 10.528727
54.055 10.554389
54.060 10.500476
54.065 10.276169
54.070 10.75194
54.075 11.208908
54.080 11.106848
54.085 10.757972
54.090 10.917766
54.095 10.743913
54.100 10.395852
54.105 10.225151
54.110 10.739325
54.115 10.992937
54.120 11.193304
54.125 11.200977
54.130 11.045854
54.135 11.207623
54.140 11.129322
54.145 11.113986
54.150 11.071103
54.155 10.959098
54.160 10.593322
54.165 10.546069
54.170 10.60527
54.175 10.082303
54.180 9.697864
54.185 10.215837
54.190 10.724524
54.195 10.961719
54.200 11.179791
54.205 10.865695
54.210 10.715858
54.215 10.296774
54.220 9.817457
54.225 9.665237
54.230 10.307916
54.235 10.774912
54.240 11.356565
54.245 12.233375
54.250 12.844191
54.255 13.455577
54.260 13.445488
54.265 12.743454
54.270 12.558052
54.275 12.369861
54.280 11.947858
54.285 12.110301
54.290 12.375344
54.295 12.459406
54.300 13.414784
54.305 13.735589
54.310 13.408146
54.315 13.301818
54.320 12.552829
54.325 12.390993
54.330 12.589527
54.335 11.896639
54.340 11.558652
54.345 11.390721
54.350 11.359052
54.355 11.186842
54.360 11.156089
54.365 10.977071
54.370 11.231975
54.375 11.130056
54.380 11.204229
54.385 11.398962
54.390 11.826679
54.395 11.562339
54.400 11.084146
54.405 11.026772
54.410 11.672428
54.415 11.617002
54.420 11.220675
54.425 10.591565
54.430 10.508805
54.435 10.745101
54.440 10.81571
54.445 10.94982
54.450 11.01644
54.455 10.859238
54.460 11.093483
54.465 11.079494
54.470 11.394383
54.475 11.239012
54.480 11.164915
54.485 11.193499
54.490 11.16345
54.495 10.927582
54.500 10.985682
54.505 10.310144
54.510 9.805299
54.515 10.031989
54.520 10.308839
54.525 11.152267
54.530 11.929689
54.535 12.179249
54.540 12.611457
54.545 12.618671
54.550 12.02596
54.555 11.444642
54.560 10.941789
54.565 10.412659
54.570 9.865371
54.575 10.127402
54.580 10.588696
54.585 11.518848
54.590 11.91742
54.595 11.815416
54.600 12.278378
54.605 12.835255
54.610 12.349587
54.615 12.069968
54.620 11.93789
54.625 11.576549
54.630 11.496267
54.635 11.402613
54.640 11.167579
54.645 11.35632
54.650 11.245831
54.655 10.838965
54.660 10.665245
54.665 10.574867
54.670 10.958935
54.675 11.780965
54.680 11.703592
54.685 11.704775
54.690 12.213654
54.695 12.326068
54.700 12.283252
54.705 11.409085
54.710 10.730913
54.715 10.967319
54.720 11.29727
54.725 11.133435
54.730 11.492191
54.735 11.620723
54.740 11.961267
54.745 12.483535
54.750 12.258901
54.755 11.886727
54.760 12.368865
54.765 12.272468
54.770 12.214484
54.775 11.672554
54.780 10.963293
54.785 10.862284
54.790 10.81912
54.795 10.800027
54.800 11.118077
54.805 11.401531
54.810 11.524268
54.815 11.569611
54.820 12.231473
54.825 12.091343
54.830 11.702003
54.835 11.675806
54.840 11.408744
54.845 11.222569
54.850 11.779637
54.855 11.366216
54.860 11.347099
54.865 11.508053
54.870 11.679348
54.875 12.09939
54.880 12.255217
54.885 12.051246
54.890 13.016526
54.895 13.610499
54.900 13.047815
54.905 12.832992
54.910 12.842798
54.915 13.233409
54.920 12.978519
54.925 11.91402
54.930 11.40293
54.935 11.244043
54.940 10.821115
54.945 10.94082
54.950 10.902421
54.955 10.784739
54.960 10.936702
54.965 10.77248
54.970 11.121855
54.975 11.538204
54.980 11.602267
54.985 11.40201
54.990 11.915133
54.995 12.033632
55.000 12.574609
55.005 12.684861
55.010 12.762974
55.015 12.441136
55.020 12.675586
55.025 12.514961
55.030 12.469184
55.035 12.033904
55.040 11.593884
55.045 11.188432
55.050 10.835181
55.055 10.886731
55.060 11.23339
55.065 11.26846
55.070 11.374951
55.075 11.611119
55.080 11.996286
55.085 11.955874
55.090 11.852472
55.095 11.434925
55.100 11.294177
55.105 11.461165
55.110 11.220867
55.115 11.378074
55.120 11.485404
55.125 11.089114
55.130 10.808293
55.135 11.535531
55.140 11.861676
55.145 11.972462
55.150 11.724471
55.155 12.041639
55.160 12.545931
55.165 12.780169
55.170 12.30941
55.175 12.341046
55.180 12.770501
55.185 12.814397
55.190 13.094342
55.195 13.157941
55.200 13.251143
55.205 12.909908
55.210 12.436193
55.215 12.840731
55.220 12.382601
55.225 11.90712
55.230 11.864357
55.235 11.68453
55.240 11.720863
55.245 11.54251
55.250 11.465963
55.255 11.922244
55.260 11.931842
55.265 12.132022
55.270 12.314741
55.275 12.415172
55.280 12.563912
55.285 11.766894
55.290 11.876707
55.295 12.063093
55.300 11.475715
55.305 11.023199
55.310 11.100684
55.315 11.049222
55.320 11.017078
55.325 11.251016
55.330 11.210345
55.335 11.440835
55.340 11.145323
55.345 11.510618
55.350 11.925603
55.355 12.231202
55.360 11.812468
55.365 11.740464
55.370 12.076712
55.375 12.481029
55.380 12.552041
55.385 12.656433
55.390 12.343103
55.395 12.082935
55.400 12.094707
55.405 12.269813
55.410 12.070254
55.415 11.680712
55.420 11.261431
55.425 11.211686
55.430 11.479281
55.435 11.238487
55.440 11.249773
55.445 11.013726
55.450 11.090921
55.455 11.111512
55.460 11.272344
55.465 11.394169
55.470 11.665109
55.475 11.875801
55.480 11.565007
55.485 11.778738
55.490 12.155478
55.495 13.138093
55.500 13.348571
55.505 13.338322
55.510 13.371932
55.515 13.522174
55.520 13.344204
55.525 12.859368
55.530 12.427398
55.535 12.979156
55.540 12.744485
55.545 12.471813
55.550 12.654036
55.555 12.642095
55.560 12.398047
55.565 12.456972
55.570 11.792888
55.575 11.964347
55.580 12.306418
55.585 12.641516
55.590 13.231236
55.595 13.841895
55.600 13.62513
55.605 13.742993
55.610 13.992361
55.615 14.028846
55.620 13.730038
55.625 13.212097
55.630 12.805583
55.635 12.9193
55.640 12.939901
55.645 12.771183
55.650 12.587591
55.655 12.708456
55.660 13.003961
55.665 12.568009
55.670 12.151493
55.675 12.301618
55.680 12.318337
55.685 12.219331
55.690 12.330788
55.695 12.086915
55.700 12.33672
55.705 12.865867
55.710 12.872231
55.715 12.930756
55.720 13.28546
55.725 13.562186
55.730 13.638767
55.735 13.463095
55.740 13.715577
55.745 13.986144
55.750 14.367532
55.755 13.909743
55.760 13.701266
55.765 13.800678
55.770 13.769514
55.775 13.454165
55.780 12.854985
55.785 12.439892
55.790 12.101793
55.795 11.948297
55.800 11.867407
55.805 11.659809
55.810 11.730185
55.815 11.925402
55.820 12.154044
55.825 12.592104
55.830 13.353982
55.835 13.707903
55.840 14.144907
55.845 14.275472
55.850 14.170402
55.855 14.441612
55.860 14.261394
55.865 13.63741
55.870 13.912394
55.875 13.61358
55.880 12.988759
55.885 12.797057
55.890 12.267699
55.895 12.334064
55.900 12.22578
55.905 11.761422
55.910 11.862976
55.915 12.313789
55.920 12.684522
55.925 13.101512
55.930 13.503372
55.935 13.724092
55.940 13.680839
55.945 13.872379
55.950 14.223248
55.955 14.549473
55.960 14.657168
55.965 14.664622
55.970 14.996284
55.975 14.926535
55.980 15.477874
55.985 15.590294
55.990 15.942105
55.995 16.215082
56.000 15.926894
56.005 15.641345
56.010 15.194168
56.015 14.299814
56.020 13.820755
56.025 13.282314
56.030 12.750869
56.035 12.331771
56.040 12.384446
56.045 12.686213
56.050 12.599579
56.055 12.260258
56.060 12.190398
56.065 12.561989
56.070 12.828331
56.075 12.882519
56.080 13.314308
56.085 13.700981
56.090 13.479817
56.095 13.152214
56.100 12.886302
56.105 12.752567
56.110 12.329276
56.115 11.747137
56.120 11.900784
56.125 11.792533
56.130 11.557423
56.135 11.611273
56.140 11.892248
56.145 12.591944
56.150 12.986464
56.155 13.324434
56.160 13.574148
56.165 13.680275
56.170 13.573664
56.175 13.322227
56.180 12.952606
56.185 12.670406
56.190 12.182247
56.195 12.182274
56.200 12.867152
56.205 13.148421
56.210 13.126163
56.215 13.464832
56.220 13.548383
56.225 13.852753
56.230 14.114199
56.235 13.730785
56.240 13.512151
56.245 13.524787
56.250 13.111952
56.255 13.072259
56.260 13.397473
56.265 13.505336
56.270 13.740346
56.275 14.021458
56.280 13.855752
56.285 14.293859
56.290 14.381069
56.295 14.166367
56.300 13.857038
56.305 13.881516
56.310 13.622054
56.315 14.304872
56.320 14.604359
56.325 14.250472
56.330 14.341997
56.335 14.085117
56.340 14.114743
56.345 14.092852
56.350 13.812104
56.355 13.283933
56.360 13.569347
56.365 13.581684
56.370 13.884541
56.375 14.00522
56.380 13.889525
56.385 13.314887
56.390 13.335953
56.395 13.292113
56.400 13.356017
56.405 13.637418
56.410 13.583112
56.415 13.267497
56.420 13.643809
56.425 13.540599
56.430 13.554221
56.435 13.312201
56.440 12.777857
56.445 12.93272
56.450 13.345446
56.455 13.210176
56.460 13.176417
56.465 13.14055
56.470 13.245032
56.475 13.795092
56.480 13.724215
56.485 13.820881
56.490 14.297708
56.495 14.283298
56.500 14.087944
56.505 13.407749
56.510 13.067041
56.515 12.708158
56.520 12.426554
56.525 12.042656
56.530 12.112841
56.535 12.216153
56.540 12.493269
56.545 12.547264
56.550 12.823788
56.555 13.063021
56.560 13.523916
56.565 13.534024
56.570 13.766299
56.575 13.58172
56.580 13.273858
56.585 13.747199
56.590 13.684583
56.595 14.117779
56.600 14.418038
56.605 14.576052
56.610 15.242991
56.615 15.65694
56.620 15.438004
56.625 15.59178
56.630 15.24437
56.635 14.821342
56.640 14.427838
56.645 13.788047
56.650 13.078235
56.655 13.025417
56.660 12.795282
56.665 12.711697
56.670 12.432672
56.675 13.117611
56.680 13.418618
56.685 13.48306
56.690 13.325368
56.695 13.266933
56.700 13.182307
56.705 13.477234
56.710 13.302275
56.715 13.656564
56.720 13.869159
56.725 14.070762
56.730 14.354115
56.735 14.540009
56.740 15.027777
56.745 14.810804
56.750 15.152589
56.755 15.211551
56.760 15.586067
56.765 15.397027
56.770 15.276818
56.775 14.983253
56.780 15.08067
56.785 14.720543
56.790 14.08739
56.795 13.500524
56.800 13.381075
56.805 13.667921
56.810 13.599611
56.815 13.319553
56.820 13.137151
56.825 13.507481
56.830 13.874336
56.835 14.348969
56.840 14.367063
56.845 15.047254
56.850 15.400138
56.855 15.853004
56.860 16.043325
56.865 15.941904
56.870 15.35449
56.875 14.448651
56.880 14.067237
56.885 13.999833
56.890 13.532339
56.895 13.424489
56.900 13.416276
56.905 13.264894
56.910 13.128229
56.915 13.245314
56.920 13.052858
56.925 13.234576
56.930 13.71696
56.935 13.921926
56.940 14.292649
56.945 14.47178
56.950 13.913665
56.955 14.219171
56.960 13.986453
56.965 13.605398
56.970 13.110875
56.975 13.410516
56.980 13.665156
56.985 14.093733
56.990 14.08954
56.995 14.1092
57.000 13.893383
57.005 14.466161
57.010 15.112316
57.015 15.392027
57.020 15.353173
57.025 15.436275
57.030 15.642084
57.035 15.834348
57.040 16.182472
57.045 15.363211
57.050 15.239552
57.055 14.812303
57.060 14.435281
57.065 14.27781
57.070 14.069551
57.075 13.999611
57.080 13.83486
57.085 13.685646
57.090 14.087542
57.095 14.172124
57.100 14.332375
57.105 14.097118
57.110 13.968378
57.115 14.029679
57.120 13.638961
57.125 13.476113
57.130 14.000525
57.135 14.259227
57.140 14.131886
57.145 13.497927
57.150 14.206182
57.155 14.296953
57.160 13.569493
57.165 13.001473
57.170 12.582187
57.175 12.76629
57.180 13.184201
57.185 12.503758
57.190 12.809796
57.195 13.449778
57.200 13.849485
57.205 13.838215
57.210 13.895631
57.215 13.581982
57.220 13.918209
57.225 14.423747
57.230 14.218201
57.235 14.585898
57.240 14.716445
57.245 14.397699
57.250 14.694217
57.255 14.879224
57.260 15.16048
57.265 15.363002
57.270 15.118623
57.275 15.596775
57.280 16.26264
57.285 16.133917
57.290 15.473501
57.295 15.147146
57.300 14.713248
57.305 14.646351
57.310 14.55549
57.315 14.007683
57.320 14.038953
57.325 14.012651
57.330 14.071136
57.335 14.41439
57.340 14.57606
57.345 14.462472
57.350 14.57314
57.355 15.093364
57.360 15.072047
57.365 15.079007
57.370 15.202207
57.375 14.74835
57.380 15.056552
57.385 14.876269
57.390 14.769305
57.395 15.045635
57.400 15.082662
57.405 14.679955
57.410 14.296364
57.415 14.468125
57.420 14.520863
57.425 14.51823
57.430 14.821708
57.435 14.955689
57.440 15.251172
57.445 15.510236
57.450 15.374853
57.455 15.925806
57.460 16.044678
57.465 15.689734
57.470 15.647789
57.475 15.54891
57.480 14.948235
57.485 14.79729
57.490 14.709571
57.495 14.77967
57.500 14.626904
57.505 14.554264
57.510 14.78681
57.515 15.462401
57.520 15.732696
57.525 15.816829
57.530 15.688228
57.535 16.162544
57.540 16.265074
57.545 16.202711
57.550 15.841807
57.555 15.616942
57.560 15.572574
57.565 15.946187
57.570 15.91017
57.575 15.972756
57.580 15.974467
57.585 16.313496
57.590 16.397095
57.595 15.939564
57.600 15.603928
57.605 15.685246
57.610 15.664236
57.615 16.052406
57.620 16.052946
57.625 16.253525
57.630 17.171522
57.635 17.107241
57.640 16.957558
57.645 16.966282
57.650 17.001556
57.655 17.849728
57.660 17.734306
57.665 17.422766
57.670 17.214165
57.675 17.327345
57.680 17.230154
57.685 16.80941
57.690 15.960133
57.695 15.665777
57.700 15.801734
57.705 15.850427
57.710 16.06646
57.715 15.95784
57.720 15.798547
57.725 16.107262
57.730 15.728785
57.735 14.894141
57.740 14.833275
57.745 14.693203
57.750 14.707982
57.755 15.006902
57.760 14.785679
57.765 15.061666
57.770 15.407306
57.775 15.44662
57.780 16.11801
57.785 16.196732
57.790 16.274576
57.795 16.777122
57.800 16.539463
57.805 16.767332
57.810 17.078625
57.815 17.364954
57.820 18.078032
57.825 17.502594
57.830 16.963476
57.835 17.404779
57.840 17.496752
57.845 16.693295
57.850 15.576587
57.855 15.173602
57.860 15.403051
57.865 15.610279
57.870 15.59171
57.875 15.380882
57.880 15.283293
57.885 15.976708
57.890 16.166895
57.895 15.57671
57.900 15.868782
57.905 15.947156
57.910 15.836217
57.915 15.849853
57.920 15.263186
57.925 15.737683
57.930 16.208885
57.935 15.714952
57.940 15.008946
57.945 15.105353
57.950 15.09156
57.955 14.837379
57.960 14.287795
57.965 13.837894
57.970 14.301143
57.975 14.489177
57.980 14.16231
57.985 14.793811
57.990 15.23557
57.995 15.348611
58.000 15.399234
58.005 16.246445
58.010 16.751852
58.015 17.423744
58.020 17.284857
58.025 17.536476
58.030 18.127035
58.035 17.99655
58.040 17.526651
58.045 17.773237
58.050 17.703726
58.055 17.388544
58.060 16.873884
58.065 16.36063
58.070 16.436235
58.075 16.024269
58.080 15.821166
58.085 15.691319
58.090 15.785638
58.095 16.190622
58.100 16.906206
58.105 17.105858
58.110 17.728874
58.115 18.079359
58.120 18.489746
58.125 18.291716
58.130 18.196806
58.135 18.439976
58.140 19.314739
58.145 19.081944
58.150 18.700401
58.155 18.526474
58.160 18.546741
58.165 18.513597
58.170 18.418947
58.175 17.634027
58.180 17.486355
58.185 17.893986
58.190 18.350952
58.195 18.472416
58.200 18.040461
58.205 17.448769
58.210 17.68939
58.215 17.648787
58.220 17.229372
58.225 17.342428
58.230 17.909637
58.235 18.29361
58.240 18.393753
58.245 18.513756
58.250 18.618113
58.255 18.793993
58.260 18.506958
58.265 18.200085
58.270 18.276691
58.275 18.566181
58.280 18.612465
58.285 18.284868
58.290 18.265951
58.295 18.450159
58.300 18.935974
58.305 19.028032
58.310 18.72451
58.315 18.955524
58.320 19.895796
58.325 20.295126
58.330 20.289675
58.335 21.108467
58.340 21.811981
58.345 21.952703
58.350 22.108587
58.355 21.813595
58.360 22.115908
58.365 22.21521
58.370 21.422499
58.375 21.558279
58.380 21.620811
58.385 22.163877
58.390 22.579458
58.395 22.779835
58.400 23.448877
58.405 23.888832
58.410 24.354895
58.415 24.789242
58.420 25.503727
58.425 26.304787
58.430 26.850843
58.435 27.186279
58.440 26.894886
58.445 26.753174
58.450 27.513395
58.455 27.638229
58.460 27.313856
58.465 27.508327
