!@!!GADDS PLOTSO FILE: Chi integration type
!@!!Title/SampleName: map-d9
!@!!Comment: ?
!@!!User: Bruker Instrument Administrator
!@!!Site: University of Illinois Chicago
!@!!Frame: map-d9_01_000.gfrm
!@!!Wavelengths    1.54184   1.54056   1.54439
!@!!Frame angles: 2Theta: 63.000 Omega: 50.000 Phi: 0.000 Chi: 90.000
!@!!Integration range: 2Theta: 53.000 to 73.000  Gamma: -105.000 to -75.000
!@!!Integration method: bin normalized
!@!N
!@!SS
!@!M
!@!L 0.0 0.0 0.0 0.0
!@!XDegrees
!@!YCounts
53.000 6.740259
53.005 6.499778
53.010 6.778028
53.015 7.016432
53.020 6.938465
53.025 7.030673
53.030 7.252214
53.035 7.22001
53.040 7.529195
53.045 7.402557
53.050 7.068927
53.055 7.008057
53.060 6.873758
53.065 7.086308
53.070 7.065273
53.075 6.671505
53.080 6.789162
53.085 7.424139
53.090 7.404688
53.095 7.151466
53.100 7.282069
53.105 7.644907
53.110 8.092613
53.115 8.386776
53.120 8.307819
53.125 8.688417
53.130 8.877507
53.135 8.677413
53.140 8.706179
53.145 8.755073
53.150 8.594497
53.155 8.364579
53.160 8.025362
53.165 7.901016
53.170 7.953921
53.175 8.226142
53.180 8.263129
53.185 8.05433
53.190 8.934073
53.195 9.478625
53.200 9.555101
53.205 9.174177
53.210 8.717528
53.215 8.810005
53.220 9.406476
53.225 8.856962
53.230 8.786058
53.235 8.865294
53.240 9.035549
53.245 8.88363
53.250 8.34898
53.255 7.781688
53.260 7.916097
53.265 7.744425
53.270 7.520096
53.275 7.620811
53.280 7.851518
53.285 8.129124
53.290 8.408757
53.295 8.36551
53.300 8.956243
53.305 9.055
53.310 9.339827
53.315 9.880962
53.320 9.773916
53.325 9.569061
53.330 9.50151
53.335 8.989217
53.340 8.825725
53.345 8.548192
53.350 8.131305
53.355 7.873255
53.360 8.001849
53.365 8.162993
53.370 8.159665
53.375 8.289003
53.380 8.300238
53.385 8.357237
53.390 8.688451
53.395 8.626519
53.400 8.758225
53.405 9.173699
53.410 9.166607
53.415 8.751518
53.420 8.867132
53.425 8.683443
53.430 8.387226
53.435 8.295916
53.440 8.137613
53.445 8.501835
53.450 9.284731
53.455 9.54133
53.460 9.700801
53.465 10.036139
53.470 10.170061
53.475 10.254161
53.480 9.785282
53.485 8.706322
53.490 7.888651
53.495 7.777581
53.500 7.88816
53.505 8.071115
53.510 7.791399
53.515 7.863329
53.520 8.587442
53.525 8.651557
53.530 8.360436
53.535 8.014186
53.540 7.689375
53.545 8.106614
53.550 8.151193
53.555 7.92418
53.560 8.348933
53.565 8.606201
53.570 8.403369
53.575 8.836166
53.580 8.471225
53.585 8.973978
53.590 9.318267
53.595 9.05799
53.600 9.097104
53.605 9.261351
53.610 9.196507
53.615 9.496679
53.620 9.405662
53.625 9.737638
53.630 9.689104
53.635 9.191787
53.640 8.996012
53.645 9.089975
53.650 8.983297
53.655 8.231997
53.660 7.828859
53.665 8.128579
53.670 8.822289
53.675 8.84931
53.680 8.557297
53.685 8.827822
53.690 9.78142
53.695 10.212228
53.700 10.229707
53.705 10.359147
53.710 10.587854
53.715 10.834826
53.720 10.713418
53.725 9.914518
53.730 9.617575
53.735 9.181437
53.740 8.937618
53.745 8.759022
53.750 8.251814
53.755 8.490915
53.760 9.016718
53.765 9.169443
53.770 9.16523
53.775 9.027771
53.780 9.054008
53.785 9.009458
53.790 8.991835
53.795 8.665057
53.800 8.730083
53.805 8.71887
53.810 8.860997
53.815 9.208731
53.820 9.453805
53.825 9.939341
53.830 9.978029
53.835 10.28294
53.840 10.698251
53.845 10.326162
53.850 9.810947
53.855 9.293841
53.860 9.187078
53.865 9.63334
53.870 9.292607
53.875 8.917266
53.880 9.344084
53.885 9.551706
53.890 9.736943
53.895 9.113995
53.900 8.409893
53.905 8.468216
53.910 8.852043
53.915 8.644254
53.920 8.480271
53.925 8.396802
53.930 8.916496
53.935 8.905557
53.940 8.610056
53.945 8.487633
53.950 8.727821
53.955 9.088546
53.960 9.099353
53.965 8.857581
53.970 8.766765
53.975 8.654266
53.980 8.70563
53.985 9.17947
53.990 9.619177
53.995 9.227266
54.000 9.36053
54.005 9.880525
54.010 9.910275
54.015 9.834783
54.020 9.103914
54.025 8.716453
54.030 9.056797
54.035 9.076364
54.040 8.837543
54.045 8.948844
54.050 9.037566
54.055 8.939336
54.060 9.741895
54.065 10.424035
54.070 10.530305
54.075 10.518497
54.080 10.519361
54.085 10.647986
54.090 10.825164
54.095 10.331042
54.100 10.052161
54.105 10.111459
54.110 10.194989
54.115 10.228344
54.120 10.372232
54.125 9.954746
54.130 9.56291
54.135 9.226998
54.140 9.546875
54.145 9.579771
54.150 9.385871
54.155 9.087849
54.160 9.260891
54.165 9.914975
54.170 10.014894
54.175 9.689035
54.180 9.628438
54.185 9.593026
54.190 9.960443
54.195 10.14131
54.200 10.533123
54.205 10.498973
54.210 10.639955
54.215 10.815681
54.220 10.622865
54.225 10.423196
54.230 9.934568
54.235 9.718195
54.240 9.765078
54.245 9.503305
54.250 9.440835
54.255 9.50007
54.260 9.687957
54.265 9.607624
54.270 9.353455
54.275 9.595847
54.280 9.969218
54.285 10.074878
54.290 10.687929
54.295 10.942469
54.300 10.963572
54.305 11.361284
54.310 11.001641
54.315 10.554638
54.320 10.41826
54.325 9.804053
54.330 9.699702
54.335 9.28833
54.340 9.106163
54.345 9.3405
54.350 9.826033
54.355 9.738598
54.360 9.827419
54.365 10.0206
54.370 10.478833
54.375 10.465266
54.380 10.317227
54.385 9.997629
54.390 10.07781
54.395 9.991302
54.400 10.080416
54.405 10.587033
54.410 10.530685
54.415 10.524208
54.420 10.670877
54.425 10.877133
54.430 11.543807
54.435 11.016275
54.440 10.112564
54.445 9.973074
54.450 10.363857
54.455 10.418352
54.460 10.270571
54.465 9.69392
54.470 9.971885
54.475 10.508828
54.480 10.489047
54.485 10.642162
54.490 10.924882
54.495 10.298102
54.500 10.143107
54.505 10.553532
54.510 10.488135
54.515 10.090885
54.520 9.625364
54.525 9.786854
54.530 9.898305
54.535 9.852779
54.540 9.626307
54.545 10.175975
54.550 10.49861
54.555 10.713101
54.560 10.789162
54.565 10.782975
54.570 10.683999
54.575 10.390693
54.580 9.652032
54.585 9.542233
54.590 9.291998
54.595 9.059868
54.600 9.180921
54.605 9.233494
54.610 9.319039
54.615 9.634424
54.620 9.684307
54.625 9.379273
54.630 9.318005
54.635 9.100288
54.640 9.42407
54.645 9.676529
54.650 9.544932
54.655 9.641305
54.660 9.879643
54.665 10.291392
54.670 10.379388
54.675 10.219569
54.680 9.987422
54.685 9.929443
54.690 10.086672
54.695 10.068952
54.700 10.045063
54.705 9.95123
54.710 9.633193
54.715 9.728815
54.720 9.638824
54.725 9.788143
54.730 9.647458
54.735 9.626038
54.740 9.946766
54.745 10.178572
54.750 10.186763
54.755 9.778278
54.760 9.502405
54.765 9.387419
54.770 9.207594
54.775 9.479261
54.780 9.347337
54.785 9.979426
54.790 10.217517
54.795 10.209214
54.800 10.306007
54.805 10.104333
54.810 9.536302
54.815 9.439577
54.820 9.453352
54.825 9.558738
54.830 9.896861
54.835 10.273314
54.840 10.531932
54.845 11.124052
54.850 11.367824
54.855 11.555134
54.860 11.627333
54.865 11.312846
54.870 11.558401
54.875 11.796348
54.880 11.875638
54.885 11.619554
54.890 11.346277
54.895 11.634432
54.900 11.699963
54.905 11.039768
54.910 10.908723
54.915 10.263556
54.920 10.398403
54.925 10.580284
54.930 10.495196
54.935 10.284181
54.940 10.448572
54.945 10.681163
54.950 11.257977
54.955 11.374728
54.960 11.378668
54.965 11.096569
54.970 11.094136
54.975 11.048854
54.980 11.317879
54.985 11.118168
54.990 10.468655
54.995 10.707651
55.000 11.149265
55.005 11.32353
55.010 11.155087
55.015 10.817973
55.020 11.276928
55.025 11.600487
55.030 10.842394
55.035 10.886869
55.040 10.876892
55.045 10.997441
55.050 10.605082
55.055 10.122562
55.060 10.063106
55.065 10.417627
55.070 10.529194
55.075 10.376492
55.080 10.243669
55.085 10.448831
55.090 10.876903
55.095 11.158782
55.100 11.15357
55.105 11.166288
55.110 11.293689
55.115 11.2697
55.120 11.094929
55.125 10.853136
55.130 10.873646
55.135 10.999803
55.140 11.004198
55.145 10.994777
55.150 10.419971
55.155 9.995245
55.160 9.715473
55.165 9.260834
55.170 9.105096
55.175 8.894023
55.180 9.130919
55.185 9.931999
55.190 10.481024
55.195 10.468204
55.200 10.671796
55.205 10.690151
55.210 10.744986
55.215 10.841598
55.220 10.615677
55.225 10.322483
55.230 10.53346
55.235 10.439617
55.240 10.298432
55.245 10.583391
55.250 10.481278
55.255 10.208647
55.260 10.245527
55.265 9.957908
55.270 10.404742
55.275 10.78528
55.280 10.788407
55.285 10.963665
55.290 11.497376
55.295 11.789971
55.300 11.919561
55.305 11.18257
55.310 10.715459
55.315 10.143674
55.320 10.255579
55.325 10.496177
55.330 10.69733
55.335 11.147278
55.340 11.195444
55.345 11.429406
55.350 11.541097
55.355 11.498881
55.360 11.152669
55.365 10.942938
55.370 10.960565
55.375 11.053932
55.380 11.045824
55.385 11.272857
55.390 11.433586
55.395 11.723836
55.400 11.482942
55.405 11.148545
55.410 11.310863
55.415 11.766156
55.420 11.66258
55.425 11.634214
55.430 11.959496
55.435 12.253361
55.440 12.244406
55.445 12.494588
55.450 12.583681
55.455 12.621719
55.460 12.268118
55.465 12.063308
55.470 12.423469
55.475 12.332783
55.480 11.80739
55.485 11.266935
55.490 10.961876
55.495 11.093143
55.500 11.181923
55.505 11.827126
55.510 12.088474
55.515 12.186289
55.520 12.581086
55.525 12.748007
55.530 12.647869
55.535 11.959103
55.540 10.805802
55.545 10.71368
55.550 10.900382
55.555 11.142682
55.560 11.179191
55.565 11.237504
55.570 11.105026
55.575 11.481758
55.580 11.549235
55.585 11.48654
55.590 10.975842
55.595 10.571378
55.600 10.392768
55.605 10.408179
55.610 10.221741
55.615 10.393038
55.620 10.41655
55.625 10.360516
55.630 10.513939
55.635 11.295962
55.640 12.256023
55.645 12.231714
55.650 11.705966
55.655 11.412644
55.660 11.594383
55.665 11.544678
55.670 11.141448
55.675 10.854102
55.680 11.106339
55.685 11.494222
55.690 11.722375
55.695 11.981066
55.700 11.845098
55.705 11.94545
55.710 11.973413
55.715 12.063693
55.720 12.233122
55.725 12.553862
55.730 12.719912
55.735 12.954897
55.740 12.465031
55.745 12.064365
55.750 11.859071
55.755 11.819145
55.760 11.246045
55.765 11.191912
55.770 11.429425
55.775 11.991688
55.780 12.500238
55.785 12.777966
55.790 13.09773
55.795 12.961716
55.800 12.845851
55.805 12.56995
55.810 12.381104
55.815 12.389782
55.820 12.60901
55.825 12.7118
55.830 12.876873
55.835 13.083267
55.840 13.097555
55.845 13.071746
55.850 12.34313
55.855 11.832747
55.860 12.03252
55.865 12.221421
55.870 12.012476
55.875 12.165551
55.880 12.505551
55.885 13.129346
55.890 13.392408
55.895 13.142168
55.900 13.298565
55.905 13.361265
55.910 12.853777
55.915 12.379215
55.920 12.156592
55.925 12.319944
55.930 12.232576
55.935 12.223978
55.940 12.385201
55.945 12.919806
55.950 13.171737
55.955 12.665161
55.960 12.115597
55.965 12.31531
55.970 12.356033
55.975 12.295404
55.980 11.8628
55.985 11.753799
55.990 11.587507
55.995 11.524104
56.000 11.690336
56.005 11.358336
56.010 11.485801
56.015 11.939394
56.020 12.304116
56.025 12.370833
56.030 12.11666
56.035 12.090098
56.040 12.233477
56.045 12.659356
56.050 12.362737
56.055 12.30163
56.060 12.479404
56.065 12.447091
56.070 12.024173
56.075 12.062659
56.080 11.520142
56.085 11.225442
56.090 11.839136
56.095 12.122913
56.100 12.230444
56.105 12.623672
56.110 12.203679
56.115 12.201125
56.120 12.501566
56.125 12.435173
56.130 12.462943
56.135 12.611854
56.140 12.559107
56.145 12.510191
56.150 12.532109
56.155 12.248138
56.160 11.987073
56.165 11.449806
56.170 11.285189
56.175 11.180763
56.180 11.06479
56.185 11.181086
56.190 11.661114
56.195 11.822324
56.200 12.52164
56.205 12.715532
56.210 12.959367
56.215 13.448671
56.220 13.289114
56.225 13.251624
56.230 13.639976
56.235 13.308649
56.240 13.775066
56.245 14.347353
56.250 14.24105
56.255 14.222695
56.260 13.729899
56.265 13.485886
56.270 13.608384
56.275 13.150429
56.280 12.443651
56.285 12.32796
56.290 12.32772
56.295 12.529762
56.300 12.401468
56.305 12.292547
56.310 12.564217
56.315 12.829597
56.320 12.627031
56.325 13.08285
56.330 12.903049
56.335 12.505825
56.340 12.197512
56.345 12.18025
56.350 12.368931
56.355 12.144965
56.360 11.461805
56.365 11.957261
56.370 12.290751
56.375 11.730126
56.380 11.499613
56.385 11.373297
56.390 11.629999
56.395 11.57979
56.400 11.427243
56.405 11.666848
56.410 11.783408
56.415 11.809745
56.420 12.038003
56.425 12.415708
56.430 13.182507
56.435 12.89067
56.440 13.122923
56.445 13.856607
56.450 14.010377
56.455 13.982798
56.460 13.999323
56.465 13.687634
56.470 13.56768
56.475 13.529666
56.480 13.169471
56.485 13.289845
56.490 14.174461
56.495 14.225964
56.500 14.305821
56.505 14.635135
56.510 14.309101
56.515 14.651067
56.520 14.752448
56.525 14.544378
56.530 14.551799
56.535 14.518927
56.540 14.157548
56.545 14.078795
56.550 13.612697
56.555 13.043256
56.560 12.064982
56.565 11.680129
56.570 11.197743
56.575 12.246254
56.580 13.015041
56.585 13.661929
56.590 13.837441
56.595 14.209745
56.600 14.38707
56.605 14.384397
56.610 13.739069
56.615 13.0742
56.620 12.671223
56.625 12.167309
56.630 12.290659
56.635 12.626531
56.640 12.826431
56.645 12.223786
56.650 12.319178
56.655 12.428357
56.660 12.648697
56.665 12.250733
56.670 12.492209
56.675 12.947374
56.680 13.175041
56.685 13.413116
56.690 13.439072
56.695 13.724528
56.700 14.179363
56.705 13.906192
56.710 14.038609
56.715 14.236417
56.720 14.23581
56.725 14.162053
56.730 13.965956
56.735 13.630506
56.740 13.363718
56.745 13.018432
56.750 13.011386
56.755 12.744766
56.760 12.688808
56.765 12.349015
56.770 12.196299
56.775 12.29128
56.780 12.321776
56.785 12.130793
56.790 12.529725
56.795 12.876362
56.800 13.663115
56.805 13.8008
56.810 13.862795
56.815 13.819741
56.820 14.42498
56.825 14.634644
56.830 14.341558
56.835 13.956241
56.840 13.952682
56.845 13.857101
56.850 14.026974
56.855 13.564572
56.860 13.351027
56.865 13.475695
56.870 13.957018
56.875 13.78684
56.880 13.595516
56.885 13.528126
56.890 13.384802
56.895 13.333812
56.900 13.422861
56.905 13.248733
56.910 13.24386
56.915 13.005254
56.920 12.739712
56.925 12.938001
56.930 12.851913
56.935 12.568073
56.940 12.842568
56.945 13.063053
56.950 13.326825
56.955 13.256797
56.960 13.244021
56.965 13.269154
56.970 13.144717
56.975 12.867029
56.980 12.867534
56.985 13.244377
56.990 13.7727
56.995 13.579049
57.000 13.556195
57.005 13.593351
57.010 13.45171
57.015 13.138464
57.020 12.3017
57.025 11.952395
57.030 11.871449
57.035 11.880219
57.040 12.132137
57.045 12.638819
57.050 12.865169
57.055 13.316045
57.060 13.259399
57.065 13.512213
57.070 13.723956
57.075 13.601621
57.080 13.282402
57.085 13.430208
57.090 13.542903
57.095 13.608507
57.100 13.282139
57.105 13.187878
57.110 13.307601
57.115 14.095387
57.120 13.745998
57.125 13.558893
57.130 13.856733
57.135 13.802573
57.140 13.984779
57.145 14.220727
57.150 14.241527
57.155 14.604045
57.160 14.877976
57.165 14.737801
57.170 14.603973
57.175 14.200216
57.180 13.289362
57.185 12.522411
57.190 12.29475
57.195 12.299727
57.200 12.795592
57.205 13.307563
57.210 13.4688
57.215 13.720208
57.220 13.61887
57.225 13.612184
57.230 13.263745
57.235 13.133397
57.240 13.441096
57.245 13.77262
57.250 13.985373
57.255 14.39794
57.260 14.492034
57.265 14.958178
57.270 14.578785
57.275 14.178733
57.280 13.782243
57.285 13.721146
57.290 13.72716
57.295 13.907871
57.300 13.584978
57.305 13.489886
57.310 13.605346
57.315 14.036365
57.320 13.88947
57.325 13.614202
57.330 13.54257
57.335 13.781154
57.340 13.670437
57.345 13.328727
57.350 13.202303
57.355 13.212755
57.360 13.16929
57.365 12.824123
57.370 12.537451
57.375 13.239343
57.380 13.547626
57.385 13.621362
57.390 14.024031
57.395 14.112213
57.400 14.449732
57.405 14.594133
57.410 14.793232
57.415 14.366452
57.420 14.386211
57.425 14.61349
57.430 15.034012
57.435 15.153429
57.440 14.853418
57.445 14.657623
57.450 14.856717
57.455 14.532848
57.460 14.019074
57.465 13.889207
57.470 13.875002
57.475 14.260727
57.480 14.510969
57.485 14.903666
57.490 15.141287
57.495 15.18607
57.500 14.829594
57.505 14.900089
57.510 14.730908
57.515 14.222301
57.520 14.467547
57.525 14.737159
57.530 14.834216
57.535 14.994307
57.540 14.776977
57.545 14.681545
57.550 14.576178
57.555 14.4197
57.560 14.996041
57.565 14.920753
57.570 14.822453
57.575 14.929382
57.580 15.145773
57.585 15.258379
57.590 14.933396
57.595 14.631314
57.600 15.303717
57.605 15.764345
57.610 16.250942
57.615 16.556307
57.620 16.661432
57.625 17.033709
57.630 16.866459
57.635 16.567356
57.640 16.13652
57.645 15.075198
57.650 14.743666
57.655 14.352581
57.660 13.855289
57.665 13.885631
57.670 13.671836
57.675 14.241212
57.680 14.489382
57.685 15.013332
57.690 15.241808
57.695 15.151851
57.700 15.052247
57.705 15.122232
57.710 15.147578
57.715 15.237114
57.720 15.174943
57.725 14.648032
57.730 14.441473
57.735 14.631908
57.740 14.645151
57.745 14.243393
57.750 13.58378
57.755 13.279035
57.760 13.554291
57.765 13.575399
57.770 13.474576
57.775 13.415392
57.780 12.988281
57.785 13.078212
57.790 12.988889
57.795 13.30936
57.800 13.873268
57.805 13.609189
57.810 14.248643
57.815 15.032277
57.820 15.233953
57.825 15.372767
57.830 15.358725
57.835 14.98021
57.840 15.432033
57.845 15.757942
57.850 15.752448
57.855 15.563643
57.860 15.544445
57.865 15.505617
57.870 15.55665
57.875 14.41717
57.880 13.228854
57.885 12.820002
57.890 13.194162
57.895 13.56848
57.900 13.560744
57.905 13.586606
57.910 14.350964
57.915 14.770808
57.920 14.783721
57.925 14.145675
57.930 13.641858
57.935 13.888835
57.940 13.349783
57.945 13.367133
57.950 13.578519
57.955 13.874685
57.960 14.069424
57.965 13.740717
57.970 13.794913
57.975 14.672283
57.980 14.456144
57.985 14.17551
57.990 13.60877
57.995 13.847952
58.000 13.885521
58.005 13.999028
58.010 13.826488
58.015 14.459865
58.020 14.876301
58.025 15.48161
58.030 15.730913
58.035 16.012646
58.040 15.583999
58.045 15.337368
58.050 14.905173
58.055 15.057477
58.060 14.934809
58.065 14.871482
58.070 14.457839
58.075 14.293173
58.080 14.545552
58.085 14.467761
58.090 14.454419
58.095 14.656912
58.100 14.169877
58.105 14.095926
58.110 14.171043
58.115 13.185813
58.120 13.077801
58.125 12.755692
58.130 12.48931
58.135 12.620677
58.140 12.797318
58.145 12.855032
58.150 12.999861
58.155 13.215214
58.160 13.477668
58.165 13.796412
58.170 14.397122
58.175 14.40087
58.180 14.404418
58.185 15.075377
58.190 15.094296
58.195 14.837047
58.200 14.751773
58.205 14.584253
58.210 14.13007
58.215 13.891824
58.220 14.195581
58.225 14.360785
58.230 14.775571
58.235 14.592618
58.240 14.938199
58.245 15.112744
58.250 15.063446
58.255 14.963775
58.260 14.669673
58.265 14.867818
58.270 14.818563
58.275 14.30127
58.280 14.58077
58.285 14.843138
58.290 14.915728
58.295 14.999443
58.300 14.796434
58.305 15.318466
58.310 15.408958
58.315 15.454671
58.320 15.571239
58.325 15.615149
58.330 15.140857
58.335 15.048281
58.340 14.544307
58.345 14.766138
58.350 14.725417
58.355 14.364247
58.360 13.807991
58.365 14.383539
58.370 14.363536
58.375 14.215614
58.380 14.494259
58.385 14.857571
58.390 15.363231
58.395 15.457298
58.400 15.044605
58.405 14.804029
58.410 15.056279
58.415 15.182457
58.420 14.850126
58.425 14.403021
58.430 14.871895
58.435 15.313894
58.440 15.681628
58.445 16.00864
58.450 16.101862
58.455 16.522129
58.460 16.820807
58.465 16.332094
58.470 16.23057
58.475 15.704762
58.480 15.361795
58.485 14.826205
58.490 14.921392
58.495 15.512574
58.500 15.593999
58.505 15.873727
58.510 16.506199
58.515 16.362576
58.520 16.48201
