!@!!GADDS PLOTSO FILE: Chi integration type
!@!!Title/SampleName: map-e6
!@!!Comment: ?
!@!!User: Bruker Instrument Administrator
!@!!Site: University of Illinois Chicago
!@!!Frame: map-e6_01_000.gfrm
!@!!Wavelengths    1.54184   1.54056   1.54439
!@!!Frame angles: 2Theta: 63.000 Omega: 50.000 Phi: 0.000 Chi: 90.000
!@!!Integration range: 2Theta: 53.000 to 73.000  Gamma: -105.000 to -75.000
!@!!Integration method: bin normalized
!@!N
!@!SS
!@!M
!@!L 0.0 0.0 0.0 0.0
!@!XDegrees
!@!YCounts
53.000 8.630322
53.005 8.543345
53.010 8.615221
53.015 8.298725
53.020 8.414061
53.025 8.863935
53.030 8.796487
53.035 9.010679
53.040 9.475391
53.045 10.15389
53.050 10.369016
53.055 10.022806
53.060 9.774879
53.065 9.97502
53.070 9.830564
53.075 9.515647
53.080 9.351395
53.085 9.587348
53.090 9.856229
53.095 10.284378
53.100 9.852126
53.105 9.719189
53.110 9.399518
53.115 9.115929
53.120 9.208183
53.125 8.958922
53.130 8.828629
53.135 8.737701
53.140 9.312741
53.145 9.552472
53.150 9.520643
53.155 9.362823
53.160 9.138966
53.165 9.391438
53.170 9.551942
53.175 9.213398
53.180 9.202968
53.185 9.587768
53.190 9.595911
53.195 9.64486
53.200 9.386044
53.205 9.269905
53.210 9.226857
53.215 8.940346
53.220 8.120142
53.225 8.12254
53.230 8.377384
53.235 8.371398
53.240 8.557438
53.245 8.880427
53.250 9.452054
53.255 10.510941
53.260 10.712273
53.265 10.438866
53.270 10.62587
53.275 10.495246
53.280 10.098966
53.285 9.29401
53.290 9.048227
53.295 8.732922
53.300 8.928866
53.305 8.878077
53.310 8.887328
53.315 8.9911
53.320 9.209114
53.325 9.092697
53.330 9.28712
53.335 9.188156
53.340 9.323913
53.345 9.522184
53.350 9.793505
53.355 9.859586
53.360 9.930021
53.365 10.124858
53.370 10.26032
53.375 10.31491
53.380 10.129967
53.385 9.693358
53.390 9.316534
53.395 9.394193
53.400 9.154989
53.405 8.895176
53.410 8.803142
53.415 8.733082
53.420 8.935992
53.425 8.782982
53.430 8.949345
53.435 9.178891
53.440 9.423484
53.445 9.287233
53.450 9.808859
53.455 10.597942
53.460 10.958584
53.465 10.892742
53.470 10.634728
53.475 10.757891
53.480 10.800245
53.485 10.224468
53.490 10.078369
53.495 10.002389
53.500 10.088721
53.505 10.295353
53.510 10.331343
53.515 10.485977
53.520 10.628587
53.525 10.33807
53.530 10.250734
53.535 9.887332
53.540 9.494942
53.545 9.353148
53.550 9.071408
53.555 8.909474
53.560 9.112875
53.565 9.234277
53.570 9.797212
53.575 10.454556
53.580 10.93926
53.585 11.143203
53.590 11.365813
53.595 11.477633
53.600 11.406939
53.605 10.859324
53.610 10.259386
53.615 10.003846
53.620 9.87269
53.625 9.487103
53.630 9.131479
53.635 9.28945
53.640 9.519031
53.645 9.830831
53.650 10.24011
53.655 10.601829
53.660 10.415508
53.665 10.645231
53.670 10.715389
53.675 10.419788
53.680 10.344012
53.685 9.77632
53.690 10.087337
53.695 10.623043
53.700 10.493091
53.705 10.233637
53.710 10.215162
53.715 10.553761
53.720 10.870296
53.725 10.404229
53.730 10.29165
53.735 10.109862
53.740 10.522259
53.745 10.668009
53.750 10.336722
53.755 10.027302
53.760 10.014526
53.765 9.891938
53.770 10.185954
53.775 10.147598
53.780 10.233727
53.785 10.718363
53.790 10.733606
53.795 11.250645
53.800 11.32972
53.805 11.124598
53.810 10.833172
53.815 10.265584
53.820 10.273297
53.825 11.074367
53.830 10.92504
53.835 11.330247
53.840 11.546894
53.845 11.71734
53.850 11.533704
53.855 11.237492
53.860 10.788333
53.865 10.463913
53.870 10.12895
53.875 10.36238
53.880 10.425886
53.885 10.481739
53.890 10.410308
53.895 10.202275
53.900 10.49516
53.905 10.87883
53.910 10.468379
53.915 9.864597
53.920 9.735855
53.925 10.011696
53.930 10.183337
53.935 9.991609
53.940 9.838737
53.945 10.034278
53.950 10.533822
53.955 10.511952
53.960 10.233825
53.965 10.110047
53.970 9.789832
53.975 9.694084
53.980 10.09825
53.985 9.786325
53.990 9.46566
53.995 9.417416
54.000 9.493425
54.005 9.738003
54.010 9.800967
54.015 10.0918
54.020 10.56837
54.025 11.028753
54.030 11.499958
54.035 11.523767
54.040 11.640704
54.045 11.474894
54.050 10.928362
54.055 10.938368
54.060 10.519711
54.065 10.151001
54.070 10.134662
54.075 10.237699
54.080 10.318556
54.085 10.674179
54.090 10.674521
54.095 10.827601
54.100 10.872912
54.105 10.922277
54.110 10.829504
54.115 11.023387
54.120 11.117119
54.125 11.276937
54.130 10.875775
54.135 10.672392
54.140 10.249933
54.145 10.216969
54.150 10.141822
54.155 10.279639
54.160 10.689915
54.165 11.044766
54.170 10.559979
54.175 11.024063
54.180 11.068361
54.185 10.96339
54.190 10.834934
54.195 10.868931
54.200 11.109252
54.205 11.29466
54.210 11.345846
54.215 11.335093
54.220 11.089664
54.225 11.064309
54.230 10.927197
54.235 11.441966
54.240 11.622629
54.245 11.46512
54.250 11.511634
54.255 11.502712
54.260 11.702687
54.265 11.711912
54.270 11.795116
54.275 11.787617
54.280 11.850412
54.285 11.918134
54.290 11.646886
54.295 11.574295
54.300 11.371439
54.305 11.139947
54.310 10.629068
54.315 10.241139
54.320 10.383284
54.325 10.452681
54.330 10.378841
54.335 10.103208
54.340 10.077311
54.345 10.52481
54.350 10.839018
54.355 10.962934
54.360 11.061442
54.365 11.316227
54.370 11.571293
54.375 11.699679
54.380 11.368107
54.385 11.133493
54.390 11.154434
54.395 11.10496
54.400 10.678453
54.405 10.626413
54.410 10.842448
54.415 11.138762
54.420 11.211556
54.425 10.599725
54.430 10.781872
54.435 10.928369
54.440 11.072186
54.445 11.022432
54.450 10.81072
54.455 11.073434
54.460 11.550886
54.465 11.700171
54.470 11.588236
54.475 11.339313
54.480 11.602653
54.485 11.620324
54.490 11.647207
54.495 11.756923
54.500 11.917562
54.505 12.09844
54.510 12.329298
54.515 12.335576
54.520 12.468659
54.525 12.136624
54.530 11.792605
54.535 11.665843
54.540 11.840643
54.545 11.589156
54.550 11.79252
54.555 12.188776
54.560 12.184563
54.565 12.393335
54.570 11.986403
54.575 11.913815
54.580 11.844301
54.585 12.00919
54.590 11.81545
54.595 11.597903
54.600 11.445333
54.605 11.911125
54.610 12.176721
54.615 12.104176
54.620 11.960846
54.625 11.868649
54.630 12.10389
54.635 11.54875
54.640 11.512996
54.645 11.312271
54.650 10.967781
54.655 10.485164
54.660 10.830994
54.665 11.033154
54.670 11.240539
54.675 10.836279
54.680 10.788524
54.685 10.892561
54.690 11.458544
54.695 11.577502
54.700 11.368134
54.705 11.188111
54.710 11.240182
54.715 11.101547
54.720 11.323252
54.725 10.557231
54.730 10.251906
54.735 10.553333
54.740 10.609393
54.745 10.623705
54.750 11.011229
54.755 11.120311
54.760 11.769274
54.765 12.000863
54.770 12.155497
54.775 12.343744
54.780 12.074407
54.785 11.850998
54.790 11.311616
54.795 10.781713
54.800 10.776665
54.805 10.758123
54.810 10.943812
54.815 11.296527
54.820 11.026543
54.825 11.200744
54.830 11.245214
54.835 11.053151
54.840 11.199094
54.845 10.986046
54.850 11.676965
54.855 11.92381
54.860 11.68181
54.865 11.703881
54.870 11.984817
54.875 11.853506
54.880 11.751661
54.885 11.244476
54.890 10.995689
54.895 11.332514
54.900 11.408239
54.905 11.107838
54.910 11.555655
54.915 12.076145
54.920 12.289568
54.925 12.783961
54.930 12.953362
54.935 12.996723
54.940 12.955119
54.945 12.396201
54.950 11.998899
54.955 11.716238
54.960 11.518258
54.965 11.321219
54.970 11.296755
54.975 11.291493
54.980 10.692734
54.985 10.786643
54.990 10.555639
54.995 10.280049
55.000 10.715575
55.005 10.268781
55.010 10.463596
55.015 10.640438
55.020 10.780304
55.025 11.21283
55.030 11.08239
55.035 10.783004
55.040 11.096555
55.045 11.231336
55.050 11.439198
55.055 11.205479
55.060 11.338249
55.065 11.692589
55.070 11.821692
55.075 11.81916
55.080 12.113301
55.085 12.171467
55.090 12.194461
55.095 12.393343
55.100 12.082317
55.105 12.073671
55.110 12.328156
55.115 12.490876
55.120 12.59601
55.125 12.160401
55.130 12.311082
55.135 12.798745
55.140 12.878036
55.145 12.359321
55.150 12.081333
55.155 12.48485
55.160 12.71225
55.165 12.306492
55.170 12.06107
55.175 11.927846
55.180 12.429791
55.185 12.527017
55.190 12.509286
55.195 12.91503
55.200 13.114165
55.205 13.391162
55.210 13.754853
55.215 13.670536
55.220 13.069079
55.225 12.630638
55.230 12.183477
55.235 12.552079
55.240 12.249242
55.245 11.714016
55.250 11.62827
55.255 11.472554
55.260 11.406594
55.265 11.598528
55.270 11.357305
55.275 11.478778
55.280 11.565681
55.285 11.933772
55.290 12.564217
55.295 12.688533
55.300 12.225831
55.305 12.27788
55.310 12.154214
55.315 12.654098
55.320 12.361792
55.325 12.338021
55.330 12.461209
55.335 12.396069
55.340 12.475933
55.345 12.501499
55.350 12.272757
55.355 12.2515
55.360 12.168962
55.365 11.966621
55.370 12.266582
55.375 12.109656
55.380 12.245425
55.385 12.484156
55.390 13.071931
55.395 13.115626
55.400 13.398047
55.405 12.811626
55.410 12.761214
55.415 12.671843
55.420 12.340573
55.425 12.307527
55.430 12.278358
55.435 12.008625
55.440 11.971719
55.445 11.824019
55.450 11.769757
55.455 11.34599
55.460 10.841952
55.465 10.78226
55.470 10.818925
55.475 11.091645
55.480 10.959442
55.485 11.003817
55.490 11.799662
55.495 11.948659
55.500 12.187094
55.505 12.320362
55.510 12.409874
55.515 12.761183
55.520 12.671206
55.525 12.299001
55.530 12.475824
55.535 12.599679
55.540 12.590426
55.545 12.591195
55.550 12.555584
55.555 12.705467
55.560 12.696554
55.565 12.273274
55.570 12.198867
55.575 12.332896
55.580 12.384339
55.585 12.399232
55.590 12.468417
55.595 12.162651
55.600 12.399678
55.605 12.206186
55.610 12.074082
55.615 12.279569
55.620 12.193539
55.625 11.902531
55.630 11.848165
55.635 11.941414
55.640 12.036393
55.645 12.136561
55.650 11.940822
55.655 11.701468
55.660 12.075591
55.665 12.718755
55.670 12.889264
55.675 13.041873
55.680 13.385286
55.685 13.394479
55.690 13.332261
55.695 13.614006
55.700 12.658914
55.705 12.689448
55.710 12.929819
55.715 12.342566
55.720 12.514206
55.725 12.333922
55.730 12.404572
55.735 13.308685
55.740 13.114335
55.745 12.689913
55.750 12.909362
55.755 12.763795
55.760 12.531343
55.765 11.920245
55.770 11.601651
55.775 12.026288
55.780 12.027282
55.785 11.926032
55.790 11.838672
55.795 12.17094
55.800 12.296933
55.805 11.189473
55.810 10.797306
55.815 11.414577
55.820 11.835263
55.825 12.433812
55.830 12.374598
55.835 12.627689
55.840 13.739609
55.845 13.87985
55.850 13.559506
55.855 13.548622
55.860 13.358561
55.865 13.09272
55.870 12.950607
55.875 13.440557
55.880 13.89865
55.885 13.866681
55.890 14.102057
55.895 14.643064
55.900 15.349646
55.905 15.16738
55.910 14.51599
55.915 14.188884
55.920 14.235551
55.925 14.224871
55.930 13.899435
55.935 13.716767
55.940 13.219054
55.945 13.670843
55.950 14.222919
55.955 14.240784
55.960 14.251103
55.965 14.391428
55.970 14.282608
55.975 14.44739
55.980 13.058718
55.985 12.052758
55.990 11.969177
55.995 11.628903
56.000 11.538356
56.005 11.824483
56.010 11.92217
56.015 12.407786
56.020 12.684068
56.025 12.450398
56.030 12.315363
56.035 12.274209
56.040 12.242584
56.045 12.436406
56.050 12.656749
56.055 12.873778
56.060 13.164175
56.065 13.724294
56.070 13.967155
56.075 14.164992
56.080 13.987834
56.085 13.978651
56.090 13.460061
56.095 13.004852
56.100 12.68133
56.105 12.780991
56.110 12.631761
56.115 13.582926
56.120 13.828529
56.125 14.150939
56.130 14.850493
56.135 14.71866
56.140 14.406035
56.145 14.772351
56.150 14.115126
56.155 14.338114
56.160 13.826271
56.165 13.130639
56.170 12.69058
56.175 12.703684
56.180 12.140623
56.185 11.82299
56.190 11.889062
56.195 12.515934
56.200 12.721506
56.205 13.290964
56.210 13.451962
56.215 13.547728
56.220 13.543365
56.225 13.81741
56.230 13.770581
56.235 14.243373
56.240 14.068692
56.245 14.889301
56.250 15.120938
56.255 15.275611
56.260 14.848689
56.265 14.766215
56.270 14.479215
56.275 13.897322
56.280 12.71722
56.285 12.480217
56.290 12.402199
56.295 12.791553
56.300 12.883965
56.305 12.97813
56.310 13.415785
56.315 13.465617
56.320 13.547114
56.325 13.654733
56.330 13.265725
56.335 13.051437
56.340 13.073076
56.345 13.417494
56.350 14.330451
56.355 13.918566
56.360 13.585066
56.365 13.677388
56.370 14.053747
56.375 13.836965
56.380 13.512008
56.385 12.951172
56.390 13.171515
56.395 13.288116
56.400 13.028992
56.405 13.276516
56.410 12.886742
56.415 12.591442
56.420 13.072892
56.425 12.759073
56.430 12.443399
56.435 12.375559
56.440 12.21701
56.445 12.326412
56.450 12.563314
56.455 12.170787
56.460 12.180353
56.465 12.651073
56.470 12.613003
56.475 12.660522
56.480 13.141803
56.485 13.12499
56.490 14.023225
56.495 14.303279
56.500 13.845887
56.505 13.947153
56.510 13.847424
56.515 13.775504
56.520 13.619345
56.525 12.734825
56.530 12.82899
56.535 12.89429
56.540 13.059106
56.545 12.788067
56.550 12.323246
56.555 12.665318
56.560 13.518643
56.565 13.924909
56.570 13.88016
56.575 13.758306
56.580 14.126216
56.585 14.241563
56.590 13.717031
56.595 13.183413
56.600 12.669614
56.605 12.75554
56.610 12.273758
56.615 12.157677
56.620 12.369421
56.625 12.531957
56.630 12.449889
56.635 12.509345
56.640 12.697676
56.645 13.03593
56.650 13.086124
56.655 13.061539
56.660 12.884264
56.665 12.815607
56.670 12.380557
56.675 12.121424
56.680 12.295007
56.685 12.096735
56.690 12.631492
56.695 12.564124
56.700 12.676639
56.705 13.191543
56.710 13.362871
56.715 13.357183
56.720 13.52203
56.725 13.347345
56.730 14.324322
56.735 14.597824
56.740 14.654663
56.745 14.418239
56.750 14.417546
56.755 14.361866
56.760 14.302654
56.765 13.817712
56.770 13.099015
56.775 13.014874
56.780 13.590839
56.785 13.463316
56.790 12.982821
56.795 12.997888
56.800 13.262384
56.805 13.198362
56.810 12.904318
56.815 12.630797
56.820 12.794915
56.825 13.181615
56.830 13.027534
56.835 12.998619
56.840 13.456222
56.845 13.555325
56.850 13.027534
56.855 12.678324
56.860 12.419986
56.865 12.49466
56.870 12.979499
56.875 13.63258
56.880 14.013825
56.885 14.218575
56.890 14.852332
56.895 14.841456
56.900 14.847491
56.905 14.87496
56.910 14.269531
56.915 14.688969
56.920 14.828144
56.925 14.579597
56.930 14.716469
56.935 14.5147
56.940 14.938724
56.945 14.430082
56.950 14.023967
56.955 13.938717
56.960 13.704062
56.965 13.758462
56.970 13.405045
56.975 13.580001
56.980 14.785555
56.985 14.458456
56.990 14.387364
56.995 14.62941
57.000 14.807079
57.005 15.260896
57.010 14.669587
57.015 14.736942
57.020 15.718519
57.025 16.155912
57.030 16.484407
57.035 16.022219
57.040 15.686026
57.045 15.488791
57.050 14.97029
57.055 14.611948
57.060 14.268729
57.065 14.159078
57.070 14.833141
57.075 15.01355
57.080 15.10013
57.085 14.695911
57.090 14.646427
57.095 14.759406
57.100 14.854319
57.105 14.468728
57.110 14.214964
57.115 14.444258
57.120 14.825873
57.125 14.495323
57.130 14.260659
57.135 14.150364
57.140 14.424084
57.145 14.594669
57.150 14.580886
57.155 14.318792
57.160 15.049097
57.165 15.88074
57.170 15.779066
57.175 15.624841
57.180 15.518542
57.185 15.255517
57.190 15.436098
57.195 14.658979
57.200 13.890058
57.205 13.899018
57.210 14.009647
57.215 14.083817
57.220 14.080973
57.225 14.041068
57.230 14.655825
57.235 14.870539
57.240 14.929653
57.245 14.650434
57.250 14.599892
57.255 14.499666
57.260 14.497505
57.265 14.082798
57.270 14.008224
57.275 14.356032
57.280 14.449354
57.285 14.517677
57.290 14.646891
57.295 15.040734
57.300 15.479992
57.305 15.574111
57.310 15.070569
57.315 15.274224
57.320 15.628221
57.325 15.641384
57.330 15.571702
57.335 15.789143
57.340 15.850754
57.345 15.97851
57.350 16.111309
57.355 16.077856
57.360 16.096714
57.365 15.854131
57.370 15.490655
57.375 15.562114
57.380 15.875689
57.385 15.989242
57.390 16.184189
57.395 16.102495
57.400 16.278091
57.405 16.274296
57.410 16.049461
57.415 15.558618
57.420 15.603343
57.425 15.699039
57.430 16.175617
57.435 16.095974
57.440 16.270548
57.445 16.670584
57.450 17.063345
57.455 16.914333
57.460 16.697418
57.465 16.349195
57.470 16.382053
57.475 16.159498
57.480 16.218575
57.485 16.389921
57.490 16.211
57.495 16.2673
57.500 16.551262
57.505 16.338322
57.510 16.381578
57.515 16.566336
57.520 16.20192
57.525 16.184246
57.530 16.392416
57.535 16.74827
57.540 17.394526
57.545 17.401779
57.550 17.117428
57.555 16.659481
57.560 16.955746
57.565 16.381439
57.570 15.511368
57.575 14.857575
57.580 14.581009
57.585 14.231418
57.590 14.453138
57.595 14.474667
57.600 15.022823
57.605 15.425076
57.610 15.614621
57.615 15.471734
57.620 15.782578
57.625 15.887137
57.630 15.744823
57.635 14.813077
57.640 14.691598
57.645 15.047701
57.650 15.874641
57.655 16.422445
57.660 16.547871
57.665 15.876954
57.670 16.274801
57.675 16.565613
57.680 16.177057
57.685 15.501652
57.690 14.877246
57.695 14.999987
57.700 15.558592
57.705 15.542964
57.710 14.987153
57.715 14.918055
57.720 14.994959
57.725 15.261009
57.730 14.847259
57.735 14.299407
57.740 14.020989
57.745 14.397807
57.750 14.629071
57.755 14.841683
57.760 14.94898
57.765 15.729241
57.770 16.720726
57.775 17.066376
57.780 17.355249
57.785 17.579121
57.790 17.628279
57.795 17.455545
57.800 16.907795
57.805 16.072054
57.810 15.826952
57.815 15.547328
57.820 15.298446
57.825 14.832298
57.830 14.86121
57.835 14.987675
57.840 15.278708
57.845 15.603557
57.850 15.392322
57.855 15.348279
57.860 15.663794
57.865 15.656615
57.870 16.165873
57.875 16.627386
57.880 16.869316
57.885 17.407448
57.890 17.696865
57.895 17.99477
57.900 18.501549
57.905 17.83547
57.910 17.472837
57.915 17.40649
57.920 17.269651
57.925 16.983389
57.930 16.706852
57.935 16.565149
57.940 16.674753
57.945 16.213734
57.950 16.101198
57.955 16.020647
57.960 15.988575
57.965 15.994178
57.970 15.428529
57.975 15.707684
57.980 16.112558
57.985 16.162233
57.990 16.225252
57.995 16.497528
58.000 16.943996
58.005 17.556644
58.010 18.284622
58.015 18.454189
58.020 18.12328
58.025 17.815466
58.030 17.5126
58.035 17.316229
58.040 17.209833
58.045 17.094353
58.050 17.153542
58.055 17.55839
58.060 17.483625
58.065 17.912704
58.070 18.283848
58.075 18.125031
58.080 17.529444
58.085 17.73699
58.090 18.133757
58.095 18.70295
58.100 18.649878
58.105 18.43651
58.110 18.414371
58.115 18.545437
58.120 18.354959
58.125 18.012671
58.130 17.927309
58.135 18.158127
58.140 18.135651
58.145 19.135714
58.150 20.152838
58.155 20.657988
58.160 20.383415
58.165 20.616585
58.170 20.95682
58.175 21.450228
58.180 21.078753
58.185 20.319145
58.190 20.371332
58.195 21.062504
58.200 21.258871
58.205 21.001705
58.210 20.858179
58.215 21.197428
58.220 21.158327
58.225 20.973503
58.230 20.744032
58.235 20.453285
58.240 20.87697
58.245 20.878311
58.250 20.608908
58.255 21.375999
58.260 21.232098
58.265 21.588081
58.270 22.0562
58.275 22.219776
58.280 22.651979
58.285 22.972826
58.290 23.627497
58.295 24.697067
58.300 25.50135
58.305 25.465576
58.310 25.767904
58.315 25.601515
58.320 25.583246
58.325 25.108059
58.330 23.957235
58.335 23.063789
58.340 22.799112
58.345 22.945629
58.350 22.985788
58.355 23.116526
58.360 23.66577
58.365 24.702984
58.370 25.216881
58.375 25.581953
58.380 25.697937
58.385 26.032949
58.390 26.260653
58.395 26.909742
58.400 26.806955
58.405 26.67131
58.410 26.845362
58.415 26.660931
58.420 26.452532
58.425 26.903906
58.430 27.696239
58.435 28.496977
58.440 28.782915
58.445 28.491405
58.450 28.546503
58.455 28.647903
58.460 28.347912
58.465 27.625198
58.470 27.34927
