!@!!GADDS PLOTSO FILE: Chi integration type
!@!!Title/SampleName: map-8a
!@!!Comment: ?
!@!!User: Bruker Instrument Administrator
!@!!Site: University of Illinois Chicago
!@!!Frame: map-8a_01_000.gfrm
!@!!Wavelengths    1.54184   1.54056   1.54439
!@!!Frame angles: 2Theta: 63.000 Omega: 50.000 Phi: 0.000 Chi: 90.000
!@!!Integration range: 2Theta: 53.000 to 73.000  Gamma: -105.000 to -75.000
!@!!Integration method: bin normalized
!@!N
!@!SS
!@!M
!@!L 0.0 0.0 0.0 0.0
!@!XDegrees
!@!YCounts
53.000 9.159007
53.005 9.197711
53.010 9.04489
53.015 8.774254
53.020 8.759784
53.025 8.981893
53.030 8.878812
53.035 8.893683
53.040 9.217852
53.045 9.865244
53.050 10.512337
53.055 10.266128
53.060 10.593367
53.065 10.999087
53.070 10.886843
53.075 10.436614
53.080 10.043353
53.085 10.329776
53.090 10.622526
53.095 10.61147
53.100 10.729968
53.105 10.88984
53.110 11.034497
53.115 10.806889
53.120 10.243422
53.125 9.85016
53.130 9.414476
53.135 9.345635
53.140 9.038392
53.145 8.770537
53.150 9.311232
53.155 9.605857
53.160 9.535874
53.165 9.636544
53.170 9.815848
53.175 10.144878
53.180 10.245728
53.185 10.368629
53.190 10.640532
53.195 11.417797
53.200 11.810318
53.205 11.789623
53.210 11.754748
53.215 11.193918
53.220 10.920105
53.225 10.888988
53.230 10.527392
53.235 10.236808
53.240 10.243594
53.245 10.400031
53.250 10.389822
53.255 10.573714
53.260 10.594932
53.265 10.128887
53.270 10.163415
53.275 10.002061
53.280 10.268466
53.285 10.734063
53.290 10.663669
53.295 11.041296
53.300 11.287089
53.305 11.180744
53.310 11.085222
53.315 10.894973
53.320 11.238007
53.325 10.999543
53.330 10.755983
53.335 11.265331
53.340 11.217554
53.345 11.503595
53.350 11.750835
53.355 10.816102
53.360 10.741385
53.365 10.611306
53.370 10.010691
53.375 10.05862
53.380 9.922394
53.385 10.322298
53.390 10.718258
53.395 10.797372
53.400 11.408665
53.405 11.959811
53.410 11.985845
53.415 12.138055
53.420 11.801885
53.425 11.239859
53.430 11.205135
53.435 10.844417
53.440 10.653506
53.445 10.380244
53.450 10.239617
53.455 10.768122
53.460 10.908613
53.465 10.826167
53.470 11.076771
53.475 11.460251
53.480 11.627765
53.485 11.33263
53.490 11.472547
53.495 11.363446
53.500 11.200498
53.505 10.892941
53.510 10.140422
53.515 10.279595
53.520 10.817247
53.525 11.28291
53.530 11.731919
53.535 11.392611
53.540 11.073499
53.545 11.262924
53.550 10.831184
53.555 9.868791
53.560 9.686666
53.565 9.601869
53.570 10.469916
53.575 11.392875
53.580 11.871728
53.585 11.94785
53.590 12.036693
53.595 11.841772
53.600 11.570708
53.605 11.089906
53.610 10.636416
53.615 10.774601
53.620 11.142294
53.625 11.418252
53.630 11.752451
53.635 11.999962
53.640 11.852587
53.645 11.520866
53.650 10.872199
53.655 10.385568
53.660 10.103369
53.665 9.831064
53.670 9.560285
53.675 9.525313
53.680 9.685047
53.685 10.368144
53.690 10.497046
53.695 10.42775
53.700 10.551491
53.705 10.953462
53.710 11.300198
53.715 11.383317
53.720 11.165928
53.725 11.633598
53.730 11.940152
53.735 11.805717
53.740 11.830295
53.745 11.831388
53.750 11.883861
53.755 11.900176
53.760 11.361929
53.765 10.71265
53.770 10.684576
53.775 10.843482
53.780 10.712603
53.785 10.233991
53.790 10.12073
53.795 10.497782
53.800 10.917429
53.805 10.773533
53.810 10.232264
53.815 10.042534
53.820 10.690227
53.825 10.913982
53.830 10.804356
53.835 10.81366
53.840 11.011383
53.845 11.342221
53.850 11.600077
53.855 11.660792
53.860 11.560515
53.865 11.396538
53.870 11.009851
53.875 10.757078
53.880 10.832273
53.885 10.449035
53.890 10.236352
53.895 9.885447
53.900 9.879845
53.905 9.649579
53.910 10.100274
53.915 10.455434
53.920 10.337564
53.925 10.400106
53.930 11.070654
53.935 11.222788
53.940 11.519344
53.945 11.429371
53.950 11.986703
53.955 12.398134
53.960 12.171179
53.965 12.250832
53.970 12.378654
53.975 11.89821
53.980 11.874381
53.985 11.690826
53.990 11.638825
53.995 11.84997
54.000 12.073733
54.005 12.288609
54.010 12.745378
54.015 12.407721
54.020 11.992989
54.025 11.718952
54.030 11.698992
54.035 11.432156
54.040 11.601482
54.045 11.730648
54.050 12.148458
54.055 12.577811
54.060 12.685353
54.065 12.958087
54.070 13.463333
54.075 12.93511
54.080 12.765141
54.085 12.219123
54.090 12.162051
54.095 11.803056
54.100 11.38136
54.105 11.007342
54.110 11.147245
54.115 11.024075
54.120 11.245349
54.125 11.576996
54.130 11.504742
54.135 11.586065
54.140 11.997104
54.145 12.191843
54.150 12.369494
54.155 12.195635
54.160 12.082664
54.165 12.440802
54.170 11.744057
54.175 11.906067
54.180 11.782814
54.185 11.598202
54.190 11.4167
54.195 11.083415
54.200 11.081053
54.205 11.705019
54.210 11.242555
54.215 11.465598
54.220 11.229683
54.225 11.4037
54.230 12.036016
54.235 12.414656
54.240 12.482852
54.245 12.707942
54.250 12.838041
54.255 12.937743
54.260 12.724003
54.265 12.279109
54.270 12.373182
54.275 12.577394
54.280 12.761549
54.285 12.77724
54.290 13.010558
54.295 12.990041
54.300 13.191257
54.305 12.493623
54.310 12.24286
54.315 11.897001
54.320 11.965338
54.325 12.341637
54.330 12.089211
54.335 12.295833
54.340 12.132521
54.345 11.715028
54.350 11.791015
54.355 11.930629
54.360 11.716566
54.365 11.834185
54.370 11.780131
54.375 12.082396
54.380 12.136972
54.385 11.774585
54.390 11.604962
54.395 11.929314
54.400 12.167708
54.405 12.55089
54.410 13.172002
54.415 13.628738
54.420 13.893548
54.425 13.584683
54.430 13.171986
54.435 12.388609
54.440 11.473001
54.445 11.03537
54.450 10.494778
54.455 10.564173
54.460 10.608321
54.465 10.538806
54.470 11.322573
54.475 12.040289
54.480 12.099993
54.485 12.342601
54.490 12.297633
54.495 12.805198
54.500 12.799038
54.505 12.470277
54.510 12.056565
54.515 12.2593
54.520 12.022571
54.525 12.225466
54.530 12.340338
54.535 12.176521
54.540 11.672774
54.545 11.710669
54.550 11.652788
54.555 11.336372
54.560 10.942782
54.565 10.788751
54.570 11.211417
54.575 11.751126
54.580 11.749787
54.585 11.92507
54.590 12.390505
54.595 11.981722
54.600 11.648126
54.605 11.861629
54.610 11.631101
54.615 11.810159
54.620 11.77391
54.625 11.592638
54.630 11.976306
54.635 11.903016
54.640 11.57424
54.645 11.477806
54.650 11.37053
54.655 11.942098
54.660 12.273142
54.665 12.374674
54.670 12.474202
54.675 12.69722
54.680 12.887919
54.685 12.884619
54.690 12.453806
54.695 12.325444
54.700 12.398153
54.705 11.960813
54.710 11.355356
54.715 11.002831
54.720 10.446182
54.725 10.174622
54.730 10.135598
54.735 9.751534
54.740 10.095201
54.745 10.374797
54.750 10.299665
54.755 11.156775
54.760 11.134749
54.765 11.254922
54.770 11.540351
54.775 11.402047
54.780 11.704288
54.785 11.384759
54.790 11.211234
54.795 11.288244
54.800 11.427155
54.805 11.788359
54.810 11.992956
54.815 11.979937
54.820 11.847622
54.825 11.900313
54.830 11.554688
54.835 11.274145
54.840 11.057485
54.845 11.099841
54.850 11.578447
54.855 12.102625
54.860 11.966479
54.865 12.623164
54.870 13.067615
54.875 13.09979
54.880 12.757695
54.885 12.667193
54.890 12.129735
54.895 12.188634
54.900 11.808364
54.905 11.322858
54.910 11.618572
54.915 11.897267
54.920 11.751245
54.925 12.020988
54.930 11.565819
54.935 11.581045
54.940 11.608683
54.945 11.877043
54.950 11.958867
54.955 12.250553
54.960 12.456193
54.965 12.644189
54.970 12.350263
54.975 12.47436
54.980 12.001241
54.985 11.682139
54.990 11.73069
54.995 11.118982
55.000 10.913656
55.005 10.569497
55.010 10.550995
55.015 10.866046
55.020 10.831356
55.025 10.695772
55.030 11.879157
55.035 12.877769
55.040 13.294108
55.045 13.393674
55.050 13.315047
55.055 13.117688
55.060 13.376075
55.065 12.991146
55.070 12.856093
55.075 13.088583
55.080 13.095371
55.085 13.091105
55.090 13.385509
55.095 12.893127
55.100 12.700364
55.105 12.835697
55.110 12.89918
55.115 12.75979
55.120 12.450898
55.125 13.062504
55.130 13.328067
55.135 13.469036
55.140 13.46242
55.145 13.388493
55.150 14.226609
55.155 14.502131
55.160 14.120488
55.165 13.945621
55.170 13.755671
55.175 13.591033
55.180 13.342733
55.185 12.783246
55.190 12.824817
55.195 12.624468
55.200 12.417043
55.205 12.088873
55.210 12.192805
55.215 12.235267
55.220 12.5046
55.225 12.642844
55.230 12.847425
55.235 13.326338
55.240 13.376873
55.245 13.166828
55.250 12.362101
55.255 11.670574
55.260 11.26819
55.265 11.09163
55.270 11.109736
55.275 11.663425
55.280 11.949191
55.285 12.652802
55.290 13.337225
55.295 13.668283
55.300 13.573921
55.305 13.372563
55.310 12.615541
55.315 12.460982
55.320 12.312594
55.325 11.804419
55.330 11.580438
55.335 11.768254
55.340 11.969762
55.345 12.214625
55.350 12.54667
55.355 12.498907
55.360 13.042949
55.365 13.692534
55.370 13.340366
55.375 13.193515
55.380 13.135724
55.385 13.374187
55.390 13.894971
55.395 13.868813
55.400 13.782655
55.405 14.278743
55.410 14.683999
55.415 15.190057
55.420 14.944557
55.425 14.535814
55.430 14.150161
55.435 13.437464
55.440 13.220573
55.445 13.210507
55.450 13.032163
55.455 12.736465
55.460 12.77339
55.465 12.843364
55.470 13.433809
55.475 13.116735
55.480 12.631213
55.485 12.275108
55.490 12.281404
55.495 12.225829
55.500 12.433138
55.505 12.152663
55.510 12.67041
55.515 13.32184
55.520 13.600348
55.525 13.523696
55.530 13.088594
55.535 12.934678
55.540 12.589539
55.545 11.727738
55.550 11.775935
55.555 11.577294
55.560 11.442391
55.565 11.423057
55.570 11.356058
55.575 11.572057
55.580 11.790104
55.585 11.653651
55.590 11.803036
55.595 12.600013
55.600 12.162232
55.605 12.328155
55.610 12.566422
55.615 12.211313
55.620 12.115482
55.625 12.123203
55.630 12.243661
55.635 12.897224
55.640 12.914357
55.645 12.813794
55.650 13.368773
55.655 14.041363
55.660 14.383031
55.665 14.388894
55.670 14.824154
55.675 14.940026
55.680 14.95641
55.685 14.634399
55.690 14.099838
55.695 13.654276
55.700 13.350164
55.705 12.976403
55.710 13.054082
55.715 13.203588
55.720 13.070791
55.725 13.082514
55.730 13.252195
55.735 13.01958
55.740 12.884175
55.745 12.609349
55.750 12.662137
55.755 12.643785
55.760 12.573191
55.765 12.598557
55.770 12.094721
55.775 12.326391
55.780 12.649757
55.785 12.772946
55.790 12.656914
55.795 12.714677
55.800 12.604427
55.805 13.1765
55.810 13.137659
55.815 12.873201
55.820 13.433261
55.825 13.920065
55.830 14.062543
55.835 14.76147
55.840 15.189425
55.845 15.271234
55.850 15.143668
55.855 14.666857
55.860 14.297444
55.865 13.478189
55.870 12.720703
55.875 12.746253
55.880 12.996215
55.885 13.214077
55.890 13.36856
55.895 13.330825
55.900 14.253279
55.905 14.595469
55.910 14.095332
55.915 13.166245
55.920 12.429298
55.925 12.008848
55.930 12.14144
55.935 12.142817
55.940 12.061061
55.945 12.388281
55.950 13.27616
55.955 13.933179
55.960 13.851257
55.965 13.565801
55.970 13.386668
55.975 13.274857
55.980 13.65049
55.985 13.286041
55.990 13.247954
55.995 13.554379
56.000 13.781634
56.005 13.694482
56.010 13.880161
56.015 13.716146
56.020 13.435308
56.025 13.729392
56.030 13.903226
56.035 14.09152
56.040 14.052816
56.045 14.076353
56.050 14.299996
56.055 14.472577
56.060 13.781932
56.065 13.578366
56.070 13.443055
56.075 13.589998
56.080 13.28756
56.085 13.233535
56.090 13.472458
56.095 13.447582
56.100 13.300361
56.105 12.955225
56.110 13.00056
56.115 13.213582
56.120 12.67047
56.125 12.493503
56.130 12.801763
56.135 12.658463
56.140 12.792442
56.145 12.703118
56.150 12.907625
56.155 13.474785
56.160 13.46973
56.165 13.558976
56.170 13.651163
56.175 13.5538
56.180 13.483281
56.185 13.070168
56.190 12.724136
56.195 12.897268
56.200 13.083843
56.205 13.301174
56.210 13.197917
56.215 13.019106
56.220 12.989971
56.225 13.556243
56.230 13.622109
56.235 13.507711
56.240 13.780965
56.245 14.426629
56.250 15.04407
56.255 14.748315
56.260 14.289089
56.265 14.708285
56.270 14.959369
56.275 14.422271
56.280 13.822632
56.285 13.585348
56.290 14.045886
56.295 14.082157
56.300 13.646597
56.305 13.789868
56.310 14.274138
56.315 14.282787
56.320 14.208259
56.325 14.599584
56.330 14.514729
56.335 14.776114
56.340 14.606049
56.345 14.326109
56.350 14.146896
56.355 13.929408
56.360 13.078301
56.365 12.754145
56.370 12.348679
56.375 12.479275
56.380 12.217668
56.385 12.158939
56.390 11.910174
56.395 12.387467
56.400 12.764584
56.405 12.704494
56.410 12.667171
56.415 12.913666
56.420 13.4604
56.425 13.753808
56.430 14.261912
56.435 14.311447
56.440 14.019035
56.445 14.036079
56.450 13.880477
56.455 13.601938
56.460 13.611324
56.465 13.007779
56.470 12.887266
56.475 13.112016
56.480 12.957675
56.485 13.198603
56.490 13.523189
56.495 13.799637
56.500 14.270478
56.505 14.338569
56.510 14.153966
56.515 14.264814
56.520 14.082039
56.525 14.023849
56.530 13.957039
56.535 14.021063
56.540 14.213377
56.545 14.306831
56.550 14.225768
56.555 14.334636
56.560 14.38278
56.565 14.159365
56.570 14.159557
56.575 14.005747
56.580 13.841184
56.585 14.106556
56.590 13.91746
56.595 14.05991
56.600 13.780397
56.605 13.426246
56.610 13.471984
56.615 13.714103
56.620 13.653042
56.625 13.742399
56.630 12.927595
56.635 12.670409
56.640 12.49237
56.645 12.657892
56.650 12.688422
56.655 12.948912
56.660 13.260987
56.665 13.968152
56.670 14.420052
56.675 14.574499
56.680 14.128836
56.685 14.042592
56.690 13.905113
56.695 13.980944
56.700 13.623251
56.705 13.699564
56.710 14.089677
56.715 14.463306
56.720 14.9661
56.725 15.216785
56.730 14.933764
56.735 15.375051
56.740 15.263647
56.745 15.263988
56.750 15.130317
56.755 14.579468
56.760 14.443447
56.765 14.192557
56.770 14.25788
56.775 14.335443
56.780 14.129495
56.785 14.184616
56.790 14.571172
56.795 15.467193
56.800 16.284451
56.805 15.941385
56.810 15.859547
56.815 16.128077
56.820 16.108862
56.825 15.265936
56.830 14.58748
56.835 14.717756
56.840 14.676389
56.845 14.305532
56.850 13.653128
56.855 13.809244
56.860 14.364812
56.865 14.605471
56.870 14.658199
56.875 14.487928
56.880 15.077213
56.885 14.925657
56.890 14.444931
56.895 13.903752
56.900 13.361866
56.905 12.729086
56.910 12.618393
56.915 12.523827
56.920 13.132983
56.925 13.409967
56.930 13.541208
56.935 13.748786
56.940 14.13103
56.945 14.694566
56.950 14.869756
56.955 14.56326
56.960 14.613546
56.965 14.161922
56.970 14.140537
56.975 14.446366
56.980 13.986081
56.985 14.14534
56.990 14.115803
56.995 14.487977
57.000 14.871824
57.005 14.39149
57.010 13.934649
57.015 14.102861
57.020 13.974898
57.025 14.134125
57.030 13.92949
57.035 13.730572
57.040 14.457386
57.045 14.649257
57.050 14.65492
57.055 14.860386
57.060 14.444257
57.065 14.675046
57.070 15.116532
57.075 14.64091
57.080 14.754717
57.085 14.906212
57.090 15.104832
57.095 15.313818
57.100 15.211079
57.105 14.997808
57.110 15.183101
57.115 15.205447
57.120 14.696451
57.125 14.587076
57.130 14.192871
57.135 13.9353
57.140 13.767786
57.145 13.420922
57.150 12.724004
57.155 12.812797
57.160 13.247525
57.165 13.767204
57.170 14.205573
57.175 14.818601
57.180 15.2529
57.185 15.798705
57.190 15.731636
57.195 15.505688
57.200 15.469769
57.205 15.254899
57.210 14.695865
57.215 14.142588
57.220 13.912085
57.225 13.631319
57.230 13.49913
57.235 13.797848
57.240 13.595623
57.245 13.994226
57.250 14.449924
57.255 14.832684
57.260 15.245593
57.265 14.94033
57.270 14.556202
57.275 14.665619
57.280 14.562987
57.285 14.279021
57.290 13.606853
57.295 13.583046
57.300 13.873448
57.305 13.800363
57.310 13.732893
57.315 13.908663
57.320 14.369205
57.325 14.929585
57.330 14.72001
57.335 14.843632
57.340 15.064583
57.345 15.095393
57.350 15.629459
57.355 15.390317
57.360 15.433108
57.365 15.792229
57.370 16.513065
57.375 16.914948
57.380 17.20326
57.385 16.672434
57.390 17.180756
57.395 16.885784
57.400 16.417997
57.405 15.659432
57.410 15.372143
57.415 15.181187
57.420 15.516814
57.425 16.080751
57.430 16.573303
57.435 16.537643
57.440 16.446001
57.445 16.541677
57.450 16.396687
57.455 16.138533
57.460 15.050088
57.465 15.052463
57.470 15.227251
57.475 15.236216
57.480 14.592826
57.485 14.932437
57.490 15.300183
57.495 15.473308
57.500 15.544609
57.505 16.14328
57.510 16.465277
57.515 16.719154
57.520 16.504986
57.525 16.187895
57.530 16.239164
57.535 15.689838
57.540 15.433139
57.545 15.561943
57.550 15.821717
57.555 15.504643
57.560 14.976015
57.565 15.5179
57.570 16.15523
57.575 15.771961
57.580 15.676875
57.585 15.562346
57.590 16.342743
57.595 17.268496
57.600 17.245302
57.605 17.003704
57.610 17.486294
57.615 17.612017
57.620 17.841688
57.625 17.80464
57.630 17.297716
57.635 16.553617
57.640 16.190596
57.645 15.795497
57.650 16.019241
57.655 15.6105
57.660 15.180979
57.665 15.033969
57.670 15.784225
57.675 16.498404
57.680 16.324202
57.685 16.479826
57.690 17.187702
57.695 17.385115
57.700 16.900951
57.705 16.665218
57.710 16.461491
57.715 16.764599
57.720 16.45175
57.725 16.11562
57.730 16.515224
57.735 17.359575
57.740 17.271065
57.745 17.776495
57.750 17.466505
57.755 17.029219
57.760 17.316639
57.765 17.124022
57.770 16.743315
57.775 16.720816
57.780 15.866371
57.785 15.796746
57.790 15.782534
57.795 15.772918
57.800 15.338743
57.805 15.735407
57.810 15.381938
57.815 16.096661
57.820 16.759434
57.825 16.780308
57.830 16.845427
57.835 17.268526
57.840 16.961012
57.845 17.427378
57.850 17.20059
57.855 16.870173
57.860 16.475943
57.865 15.749502
57.870 15.689796
57.875 15.224841
57.880 14.491734
57.885 13.979779
57.890 13.993813
57.895 14.144328
57.900 14.234066
57.905 14.974514
57.910 15.45577
57.915 16.056705
57.920 16.973749
57.925 17.113497
57.930 17.040823
57.935 17.262344
57.940 16.841818
57.945 17.475821
57.950 17.918121
57.955 17.220274
57.960 17.394764
57.965 17.845924
57.970 17.886492
57.975 17.889116
57.980 17.266186
57.985 16.921541
57.990 17.702497
57.995 17.879137
58.000 18.251289
58.005 18.788891
58.010 18.853617
58.015 18.878418
58.020 18.266417
58.025 17.856266
58.030 17.151579
58.035 16.64395
58.040 16.343321
58.045 15.871557
58.050 16.033798
58.055 16.870384
58.060 17.0091
58.065 17.378187
58.070 17.265205
58.075 16.865751
58.080 16.885473
58.085 16.555025
58.090 16.29845
58.095 16.311207
58.100 16.539719
58.105 16.625463
58.110 17.194101
58.115 17.581362
58.120 17.955236
58.125 18.205265
58.130 18.201452
58.135 18.292662
58.140 18.469549
58.145 19.042856
58.150 19.40703
58.155 19.263599
58.160 19.258465
58.165 19.842308
58.170 20.044949
58.175 20.141771
58.180 19.773026
58.185 19.567389
58.190 19.542068
58.195 19.97979
58.200 19.765455
58.205 19.634779
58.210 19.030539
58.215 18.747345
58.220 18.592192
58.225 18.518351
58.230 18.210346
58.235 18.110056
58.240 17.825222
58.245 18.532969
58.250 18.497261
58.255 18.625988
58.260 18.750944
58.265 19.228378
58.270 20.258356
58.275 21.690342
58.280 22.146824
58.285 23.202662
58.290 24.062614
58.295 24.461189
58.300 24.211061
58.305 23.965082
58.310 23.155416
58.315 23.308945
58.320 23.533812
58.325 23.503105
58.330 23.422489
58.335 23.139587
58.340 22.9
58.345 23.17816
58.350 22.745691
58.355 22.172617
58.360 22.247807
58.365 22.269474
58.370 22.981621
58.375 23.417837
58.380 23.60146
58.385 24.305676
58.390 24.690725
58.395 24.674952
58.400 25.39826
58.405 25.561607
58.410 25.702707
58.415 25.456476
58.420 25.594673
58.425 25.445177
58.430 25.956942
58.435 26.375732
58.440 26.515841
58.445 26.955036
