!@!!GADDS PLOTSO FILE: Chi integration type
!@!!Title/SampleName: map-14d
!@!!Comment: ?
!@!!User: Bruker Instrument Administrator
!@!!Site: University of Illinois Chicago
!@!!Frame: map-14d_01_000.gfrm
!@!!Wavelengths    1.54184   1.54056   1.54439
!@!!Frame angles: 2Theta: 63.000 Omega: 50.000 Phi: 0.000 Chi: 90.000
!@!!Integration range: 2Theta: 53.000 to 73.000  Gamma: -105.000 to -75.000
!@!!Integration method: bin normalized
!@!N
!@!SS
!@!M
!@!L 0.0 0.0 0.0 0.0
!@!XDegrees
!@!YCounts
53.000 7.510744
53.005 7.260495
53.010 7.399789
53.015 7.128629
53.020 7.314771
53.025 7.688097
53.030 7.97992
53.035 8.085996
53.040 7.995301
53.045 8.23886
53.050 9.024749
53.055 8.944764
53.060 8.769651
53.065 8.526038
53.070 8.9203
53.075 9.234957
53.080 8.927047
53.085 8.872141
53.090 8.863455
53.095 9.259187
53.100 9.055988
53.105 8.923745
53.110 8.730618
53.115 8.487196
53.120 8.793637
53.125 8.5656
53.130 8.252595
53.135 8.317174
53.140 8.248486
53.145 8.507883
53.150 8.452148
53.155 8.425768
53.160 8.538587
53.165 8.284174
53.170 8.094955
53.175 8.008685
53.180 7.663688
53.185 7.36845
53.190 7.232237
53.195 7.995432
53.200 8.198452
53.205 8.446542
53.210 8.591179
53.215 8.668094
53.220 8.798942
53.225 8.861216
53.230 8.629896
53.235 8.80589
53.240 8.753107
53.245 8.490679
53.250 8.750835
53.255 8.555071
53.260 8.415389
53.265 8.294128
53.270 8.010887
53.275 8.454771
53.280 8.265101
53.285 7.627278
53.290 7.250708
53.295 6.992436
53.300 6.899861
53.305 7.04069
53.310 6.73118
53.315 7.170321
53.320 7.989988
53.325 8.759734
53.330 9.31483
53.335 9.582179
53.340 9.524149
53.345 10.002715
53.350 10.231414
53.355 10.115813
53.360 10.327349
53.365 10.166555
53.370 9.941229
53.375 9.870196
53.380 9.510536
53.385 9.183975
53.390 8.616302
53.395 8.214449
53.400 8.019341
53.405 7.648046
53.410 7.613888
53.415 7.925691
53.420 8.251697
53.425 7.968111
53.430 7.851787
53.435 7.981774
53.440 7.935945
53.445 7.65932
53.450 7.224735
53.455 7.46949
53.460 7.925952
53.465 8.023819
53.470 8.423593
53.475 8.338552
53.480 8.465427
53.485 8.676823
53.490 8.387315
53.495 8.241917
53.500 8.277788
53.505 7.976953
53.510 8.164005
53.515 8.111519
53.520 8.051491
53.525 8.34818
53.530 8.131636
53.535 7.999725
53.540 8.460958
53.545 8.615662
53.550 8.309276
53.555 8.314939
53.560 8.214032
53.565 8.524934
53.570 8.850366
53.575 8.863039
53.580 8.989038
53.585 8.760904
53.590 8.469363
53.595 8.564517
53.600 8.588586
53.605 8.819148
53.610 8.689245
53.615 8.736831
53.620 9.288697
53.625 9.450481
53.630 9.066978
53.635 9.181325
53.640 9.165201
53.645 8.965138
53.650 9.001501
53.655 8.723346
53.660 9.0191
53.665 9.402078
53.670 9.338022
53.675 9.261812
53.680 9.336946
53.685 9.142343
53.690 8.976044
53.695 8.704569
53.700 8.271691
53.705 8.624221
53.710 8.730832
53.715 9.276732
53.720 9.424361
53.725 9.34608
53.730 9.404625
53.735 8.992973
53.740 8.47976
53.745 8.28097
53.750 8.074955
53.755 8.391372
53.760 8.880154
53.765 9.362716
53.770 9.714997
53.775 9.393169
53.780 9.511226
53.785 9.770608
53.790 9.790447
53.795 9.55687
53.800 9.039373
53.805 9.077969
53.810 9.239235
53.815 9.068326
53.820 8.644841
53.825 8.42872
53.830 8.497589
53.835 8.995477
53.840 9.178553
53.845 9.414282
53.850 9.613791
53.855 9.568216
53.860 9.030517
53.865 8.805637
53.870 8.201946
53.875 7.989097
53.880 7.930925
53.885 7.866402
53.890 8.34026
53.895 8.837662
53.900 8.799861
53.905 9.18942
53.910 9.304649
53.915 9.333888
53.920 9.134665
53.925 8.756743
53.930 8.916283
53.935 9.059421
53.940 8.890135
53.945 8.4744
53.950 8.876184
53.955 8.907702
53.960 8.97533
53.965 8.915781
53.970 8.826889
53.975 9.255792
53.980 9.240677
53.985 8.829143
53.990 8.89049
53.995 8.609363
54.000 8.710383
54.005 8.328718
54.010 7.741536
54.015 7.792367
54.020 7.817657
54.025 7.786645
54.030 7.995633
54.035 8.007234
54.040 8.452808
54.045 8.771708
54.050 8.502789
54.055 8.197555
54.060 8.043882
54.065 7.918697
54.070 7.859902
54.075 7.630186
54.080 7.762379
54.085 8.355192
54.090 8.902719
54.095 8.674276
54.100 8.838623
54.105 9.105797
54.110 9.484885
54.115 9.599608
54.120 9.332655
54.125 9.571134
54.130 9.803921
54.135 9.511143
54.140 9.629457
54.145 9.397877
54.150 9.400923
54.155 9.390128
54.160 9.5398
54.165 9.698688
54.170 9.780866
54.175 9.694428
54.180 9.346224
54.185 9.078214
54.190 8.869502
54.195 8.638024
54.200 9.118035
54.205 8.290989
54.210 8.126844
54.215 8.62828
54.220 8.893546
54.225 9.217785
54.230 8.917547
54.235 9.281597
54.240 10.142828
54.245 10.363286
54.250 10.117449
54.255 10.020974
54.260 9.77596
54.265 9.698315
54.270 9.010837
54.275 8.598232
54.280 8.346871
54.285 8.639098
54.290 9.1394
54.295 9.415611
54.300 9.361362
54.305 9.361894
54.310 9.486769
54.315 9.564748
54.320 9.090803
54.325 8.567828
54.330 8.140256
54.335 8.06202
54.340 7.961753
54.345 7.91688
54.350 8.27005
54.355 8.507882
54.360 8.935285
54.365 9.472867
54.370 9.685931
54.375 10.165807
54.380 9.623414
54.385 9.329726
54.390 8.97144
54.395 8.874845
54.400 8.812314
54.405 8.48617
54.410 8.147124
54.415 8.24181
54.420 8.053214
54.425 8.08547
54.430 7.901069
54.435 7.723307
54.440 7.882672
54.445 8.106605
54.450 8.465637
54.455 8.183646
54.460 8.079622
54.465 8.001313
54.470 8.063941
54.475 7.932947
54.480 7.888607
54.485 8.026011
54.490 8.406808
54.495 8.550767
54.500 8.516685
54.505 8.259405
54.510 8.562151
54.515 8.681437
54.520 8.739233
54.525 8.646806
54.530 8.614989
54.535 8.690765
54.540 8.654705
54.545 8.404579
54.550 8.479724
54.555 8.588706
54.560 8.669764
54.565 8.776859
54.570 8.926912
54.575 8.798032
54.580 9.039413
54.585 8.781339
54.590 8.724277
54.595 8.905226
54.600 8.873436
54.605 9.041717
54.610 8.649405
54.615 8.333702
54.620 8.339148
54.625 8.064094
54.630 7.921157
54.635 7.692692
54.640 7.829801
54.645 7.778199
54.650 7.794814
54.655 7.859687
54.660 7.795018
54.665 7.573996
54.670 7.947688
54.675 8.087642
54.680 8.306451
54.685 7.996624
54.690 7.9393
54.695 7.837084
54.700 7.842235
54.705 7.804341
54.710 7.633215
54.715 7.868788
54.720 7.770995
54.725 7.789229
54.730 8.561722
54.735 8.423289
54.740 8.419238
54.745 8.703461
54.750 8.794102
54.755 8.992993
54.760 8.957873
54.765 8.843901
54.770 9.246037
54.775 8.83273
54.780 8.391436
54.785 8.532029
54.790 8.789651
54.795 8.940902
54.800 8.769388
54.805 9.063487
54.810 9.625225
54.815 9.729245
54.820 9.575506
54.825 9.580186
54.830 9.506134
54.835 9.33498
54.840 8.850623
54.845 8.536057
54.850 8.713761
54.855 8.648075
54.860 8.21314
54.865 8.09675
54.870 8.150535
54.875 8.26719
54.880 8.795424
54.885 8.423265
54.890 8.608314
54.895 8.795439
54.900 8.824677
54.905 9.00238
54.910 8.981274
54.915 8.670121
54.920 8.593656
54.925 8.815537
54.930 8.9551
54.935 9.105787
54.940 8.810354
54.945 8.876053
54.950 9.672657
54.955 10.093276
54.960 9.862451
54.965 9.759996
54.970 9.893029
54.975 10.117319
54.980 9.938068
54.985 10.012191
54.990 9.697243
54.995 9.614163
55.000 9.438076
55.005 9.108276
55.010 9.064804
55.015 9.15178
55.020 9.202678
55.025 9.731218
55.030 9.602521
55.035 9.620284
55.040 9.854281
55.045 9.852219
55.050 9.619036
55.055 9.327003
55.060 8.790865
55.065 8.733871
55.070 8.667004
55.075 8.461701
55.080 8.447466
55.085 8.653948
55.090 8.675133
55.095 9.128141
55.100 9.801607
55.105 10.069253
55.110 9.872556
55.115 9.602889
55.120 9.369013
55.125 9.055068
55.130 9.01399
55.135 8.910498
55.140 9.053641
55.145 9.583962
55.150 9.429842
55.155 9.195748
55.160 9.296984
55.165 8.56087
55.170 8.315082
55.175 8.103778
55.180 7.923035
55.185 8.138079
55.190 9.097948
55.195 9.719912
55.200 10.011279
55.205 9.787489
55.210 9.38343
55.215 9.610513
55.220 9.298956
55.225 8.512674
55.230 8.553929
55.235 8.540607
55.240 8.644979
55.245 8.778888
55.250 8.928596
55.255 9.058884
55.260 9.224679
55.265 8.858035
55.270 9.094678
55.275 9.021266
55.280 9.113153
55.285 8.92081
55.290 8.91922
55.295 8.329579
55.300 8.640199
55.305 8.691223
55.310 8.762754
55.315 8.362255
55.320 8.811916
55.325 8.939534
55.330 9.105764
55.335 8.712308
55.340 8.652717
55.345 8.819817
55.350 9.062314
55.355 8.910467
55.360 9.292092
55.365 9.335261
55.370 9.796749
55.375 9.878925
55.380 9.780766
55.385 9.676121
55.390 9.73097
55.395 9.536813
55.400 9.06985
55.405 8.598666
55.410 8.429101
55.415 8.066289
55.420 7.684537
55.425 6.974931
55.430 6.94523
55.435 7.614089
55.440 7.800931
55.445 8.140372
55.450 8.537937
55.455 8.771244
55.460 9.052629
55.465 9.413533
55.470 9.461943
55.475 9.203272
55.480 8.802752
55.485 8.810094
55.490 8.782662
55.495 9.026894
55.500 8.979522
55.505 9.130328
55.510 9.483669
55.515 9.967615
55.520 9.842155
55.525 9.526925
55.530 8.889844
55.535 8.670329
55.540 8.414357
55.545 8.255008
55.550 8.277711
55.555 8.58684
55.560 8.784165
55.565 9.265651
55.570 9.086952
55.575 9.371376
55.580 9.526294
55.585 9.592376
55.590 9.769906
55.595 9.885885
55.600 9.511143
55.605 9.310072
55.610 9.143176
55.615 8.944056
55.620 8.49213
55.625 8.10972
55.630 8.33353
55.635 8.556993
55.640 8.679167
55.645 8.288948
55.650 8.759151
55.655 8.929096
55.660 9.242085
55.665 8.851034
55.670 8.756658
55.675 8.374541
55.680 8.456946
55.685 8.341676
55.690 8.048783
55.695 7.872546
55.700 7.974962
55.705 8.345307
55.710 8.948507
55.715 8.932629
55.720 9.128444
55.725 9.541769
55.730 9.649857
55.735 9.904715
55.740 9.451954
55.745 8.777403
55.750 8.570768
55.755 8.158981
55.760 7.87184
55.765 7.448728
55.770 7.498031
55.775 8.07731
55.780 8.838034
55.785 8.877294
55.790 9.130724
55.795 9.459698
55.800 9.52117
55.805 9.237614
55.810 9.254629
55.815 9.658249
55.820 10.267112
55.825 10.015274
55.830 10.420622
55.835 10.546911
55.840 10.461457
55.845 10.430117
55.850 9.599294
55.855 9.097386
55.860 8.762698
55.865 8.374262
55.870 7.867045
55.875 7.923678
55.880 7.807328
55.885 7.955232
55.890 8.00169
55.895 8.419956
55.900 8.707829
55.905 9.360674
55.910 9.668161
55.915 10.079881
55.920 10.162326
55.925 9.961586
55.930 9.475182
55.935 9.301884
55.940 9.247593
55.945 8.953295
55.950 8.767312
55.955 8.792617
55.960 9.216352
55.965 9.490806
55.970 9.328591
55.975 8.814929
55.980 8.77064
55.985 8.733323
55.990 8.672192
55.995 8.122035
56.000 8.227817
56.005 8.494484
56.010 8.895095
56.015 8.523293
56.020 8.145226
56.025 8.28088
56.030 8.421622
56.035 8.174883
56.040 8.034861
56.045 7.695425
56.050 8.015179
56.055 8.423315
56.060 8.413026
56.065 8.480253
56.070 8.724084
56.075 8.849509
56.080 9.334232
56.085 9.437877
56.090 9.294804
56.095 9.224358
56.100 9.186905
56.105 9.049183
56.110 8.665942
56.115 8.198163
56.120 8.246823
56.125 8.445526
56.130 8.474373
56.135 8.314144
56.140 8.316137
56.145 9.072999
56.150 9.57604
56.155 9.574258
56.160 9.527909
56.165 9.592994
56.170 9.976122
56.175 10.107239
56.180 9.982086
56.185 9.66629
56.190 9.923142
56.195 10.030224
56.200 10.065754
56.205 9.634303
56.210 9.665963
56.215 9.359362
56.220 9.599369
56.225 9.59366
56.230 9.280004
56.235 9.623828
56.240 9.509541
56.245 9.29006
56.250 9.336937
56.255 8.536688
56.260 8.337266
56.265 8.681873
56.270 8.405199
56.275 8.304309
56.280 8.373755
56.285 8.302523
56.290 8.710538
56.295 8.742999
56.300 8.543131
56.305 8.632403
56.310 8.535143
56.315 8.461269
56.320 8.359863
56.325 8.263923
56.330 8.013616
56.335 7.664712
56.340 7.891728
56.345 8.018359
56.350 8.148378
56.355 8.23547
56.360 8.060363
56.365 8.331232
56.370 8.871572
56.375 8.959126
56.380 8.740491
56.385 9.091813
56.390 9.63433
56.395 9.945086
56.400 9.89044
56.405 9.625868
56.410 9.995964
56.415 10.227787
56.420 9.639727
56.425 9.06488
56.430 8.952544
56.435 8.661602
56.440 8.259096
56.445 7.769808
56.450 7.463219
56.455 8.021749
56.460 8.877584
56.465 9.011572
56.470 9.444092
56.475 9.851549
56.480 10.033579
56.485 9.880152
56.490 9.952518
56.495 10.325314
56.500 10.343758
56.505 10.334123
56.510 10.683955
56.515 10.993474
56.520 11.271556
56.525 10.607104
56.530 9.859826
56.535 9.592916
56.540 9.362095
56.545 9.12166
56.550 8.978974
56.555 9.19381
56.560 9.516174
56.565 9.509515
56.570 9.7675
56.575 9.990774
56.580 10.107115
56.585 10.041838
56.590 9.897296
56.595 9.65477
56.600 9.533085
56.605 9.728194
56.610 9.202502
56.615 9.176066
56.620 9.204741
56.625 9.335991
56.630 9.633293
56.635 9.934534
56.640 9.537927
56.645 9.546818
56.650 9.152182
56.655 8.706464
56.660 8.233674
56.665 7.626861
56.670 7.133043
56.675 7.335218
56.680 7.475457
56.685 8.114961
56.690 8.61851
56.695 9.046439
56.700 9.506289
56.705 9.604947
56.710 9.637327
56.715 9.924014
56.720 9.957697
56.725 9.997644
56.730 9.933305
56.735 10.186732
56.740 10.448158
56.745 10.672068
56.750 10.826794
56.755 10.802957
56.760 10.816488
56.765 10.773605
56.770 10.684681
56.775 10.536709
56.780 10.111362
56.785 9.890455
56.790 9.536274
56.795 9.386136
56.800 9.000978
56.805 9.24457
56.810 9.44983
56.815 9.374635
56.820 9.099981
56.825 8.900838
56.830 9.031009
56.835 9.319377
56.840 8.7076
56.845 8.960618
56.850 9.099121
56.855 9.172882
56.860 9.461743
56.865 9.268862
56.870 9.676808
56.875 9.915221
56.880 9.786184
56.885 9.676975
56.890 9.822005
56.895 9.59038
56.900 10.002372
56.905 9.596707
56.910 9.434553
56.915 9.238716
56.920 9.150097
56.925 9.380366
56.930 9.629838
56.935 8.894621
56.940 8.847788
56.945 8.979158
56.950 8.79788
56.955 8.710957
56.960 8.792841
56.965 8.797541
56.970 8.845332
56.975 8.415648
56.980 8.183948
56.985 8.374431
56.990 8.118831
56.995 8.013303
57.000 8.548498
57.005 8.722253
57.010 9.10105
57.015 9.504065
57.020 9.529961
57.025 9.914891
57.030 9.690564
57.035 9.094599
57.040 8.863605
57.045 8.770183
57.050 8.759234
57.055 8.898666
57.060 8.898074
57.065 8.775617
57.070 9.22453
57.075 9.219651
57.080 9.145846
57.085 9.321864
57.090 9.337837
57.095 8.863696
57.100 8.944232
57.105 8.568475
57.110 8.931219
57.115 9.049991
57.120 8.580635
57.125 8.608583
57.130 8.600779
57.135 8.745325
57.140 8.904708
57.145 8.883927
57.150 8.979899
57.155 8.978661
57.160 8.986439
57.165 9.296352
57.170 9.296951
57.175 8.556052
57.180 8.146969
57.185 8.10803
57.190 8.195842
57.195 8.839151
57.200 8.770469
57.205 8.667216
57.210 9.065134
57.215 9.267677
57.220 9.511
57.225 9.836807
57.230 9.414207
57.235 9.130863
57.240 9.209123
57.245 9.194831
57.250 9.166595
57.255 8.836009
57.260 8.223973
57.265 8.427706
57.270 8.870673
57.275 8.739207
57.280 8.766561
57.285 8.710634
57.290 8.986477
57.295 8.964792
57.300 9.078095
57.305 9.028332
57.310 9.085838
57.315 9.305099
57.320 9.476741
57.325 9.255369
57.330 9.196859
57.335 9.018052
57.340 9.332612
57.345 9.144316
57.350 9.255159
57.355 9.781923
57.360 10.003709
57.365 10.048416
57.370 9.956832
57.375 10.044755
57.380 10.277496
57.385 9.741817
57.390 9.035736
57.395 9.401865
57.400 9.584297
57.405 9.517588
57.410 9.347051
57.415 9.339663
57.420 9.908107
57.425 10.154505
57.430 9.753959
57.435 9.92052
57.440 9.98893
57.445 10.048897
57.450 10.043996
57.455 9.924336
57.460 9.961143
57.465 10.148522
57.470 9.7348
57.475 9.626038
57.480 10.020082
57.485 10.226114
57.490 9.775985
57.495 9.444625
57.500 9.519036
57.505 9.841511
57.510 10.040151
57.515 9.872667
57.520 9.738614
57.525 10.169193
57.530 10.15894
57.535 9.823377
57.540 9.410927
57.545 8.713382
57.550 8.32971
57.555 8.348317
57.560 8.283099
57.565 8.64384
57.570 8.763757
57.575 9.03443
57.580 9.382528
57.585 9.365799
57.590 9.733875
57.595 9.723742
57.600 9.289288
57.605 9.478626
57.610 9.332178
57.615 9.180439
57.620 9.295411
57.625 9.290839
57.630 9.52607
57.635 9.74437
57.640 9.788548
57.645 10.002522
57.650 10.231721
57.655 10.579808
57.660 10.053277
57.665 9.883508
57.670 9.935003
57.675 9.616175
57.680 9.344653
57.685 9.36105
57.690 9.319235
57.695 9.55807
57.700 9.754655
57.705 9.993268
57.710 10.141511
57.715 10.088625
57.720 9.871426
57.725 9.630388
57.730 9.365835
57.735 8.881438
57.740 8.583202
57.745 8.80015
57.750 9.214595
57.755 9.027305
57.760 9.291576
57.765 9.832689
57.770 10.126529
57.775 10.059599
57.780 9.969653
57.785 9.842202
57.790 9.885459
57.795 9.645476
57.800 8.847726
57.805 8.447728
57.810 7.990587
57.815 7.912638
57.820 7.575858
57.825 7.663139
57.830 7.734504
57.835 8.334039
57.840 8.821086
57.845 8.722382
57.850 8.910931
57.855 8.903749
57.860 9.006097
57.865 8.871582
57.870 8.740576
57.875 9.294018
57.880 9.944333
57.885 10.142563
57.890 10.212839
57.895 9.977013
57.900 9.5558
57.905 9.46896
57.910 8.773161
57.915 8.600084
57.920 8.713799
57.925 8.867386
57.930 9.162783
57.935 9.876723
57.940 10.125155
57.945 10.29175
57.950 9.941893
57.955 9.537182
57.960 9.593975
57.965 9.563709
57.970 9.103547
57.975 8.707624
57.980 8.396689
57.985 8.281719
57.990 8.723516
57.995 8.791301
58.000 8.671452
58.005 8.817883
58.010 9.159047
58.015 9.545896
58.020 9.985031
58.025 10.114229
58.030 10.036936
58.035 10.597684
58.040 10.541596
58.045 10.424897
58.050 11.009028
58.055 10.861492
58.060 10.516223
58.065 10.390294
58.070 9.753102
58.075 9.697863
58.080 9.705956
58.085 9.301912
58.090 9.483225
58.095 9.181814
58.100 9.277446
58.105 9.383585
58.110 9.198068
58.115 8.871825
58.120 8.828885
58.125 8.733583
58.130 9.005818
58.135 9.263851
58.140 9.452324
58.145 9.805745
58.150 9.962814
58.155 9.898596
58.160 9.493232
58.165 9.50281
58.170 9.259652
58.175 9.010776
58.180 8.72578
58.185 8.837366
58.190 8.780043
58.195 9.314623
58.200 9.223071
58.205 9.7315
58.210 10.000024
58.215 10.118023
58.220 9.716508
58.225 9.346538
58.230 8.966869
58.235 9.276497
58.240 8.834792
58.245 8.961052
58.250 9.072581
58.255 9.342571
58.260 9.52928
58.265 9.762479
58.270 9.723942
58.275 9.980418
58.280 9.917108
58.285 10.391356
58.290 10.584841
58.295 11.021352
58.300 10.901325
58.305 10.633561
58.310 10.051578
58.315 9.611367
58.320 9.124158
58.325 8.78381
58.330 8.509387
58.335 8.850113
58.340 8.842693
58.345 8.982623
58.350 9.068391
58.355 9.294446
58.360 9.584011
58.365 9.522415
58.370 9.261313
58.375 9.361003
58.380 9.601116
58.385 9.462318
58.390 9.603886
58.395 9.769176
58.400 9.869039
58.405 10.01544
58.410 10.439532
58.415 10.448667
58.420 10.505028
58.425 10.296889
58.430 9.751917
58.435 9.444753
58.440 9.42773
58.445 9.131631
58.450 9.590057
58.455 10.275178
58.460 10.545888
58.465 10.768693
58.470 10.821424
58.475 10.234247
58.480 10.072507
58.485 9.9505
58.490 9.637926
58.495 9.579169
58.500 9.675375
58.505 9.638757
58.510 9.848868
58.515 10.139581
58.520 10.463879
58.525 10.517106
58.530 10.602439
58.535 10.902981
58.540 11.19926
58.545 11.24573
58.550 10.802652
58.555 10.165302
58.560 10.168675
58.565 9.81738
58.570 9.331748
58.575 9.579311
58.580 9.628235
58.585 9.750557
58.590 9.578333
58.595 9.423392
58.600 9.85006
58.605 9.845175
58.610 9.58809
58.615 9.549812
58.620 9.403044
58.625 9.577812
58.630 9.334658
58.635 9.267532
58.640 9.319774
58.645 9.411239
58.650 9.396939
58.655 9.673172
58.660 9.908233
58.665 9.944697
58.670 9.790809
58.675 10.137096
58.680 10.225442
58.685 9.865999
58.690 9.813481
58.695 10.070888
58.700 10.373043
58.705 10.76445
58.710 10.77113
58.715 11.025759
58.720 11.499825
58.725 11.28955
58.730 10.91902
