!@!!GADDS PLOTSO FILE: Chi integration type
!@!!Title/SampleName: map-49
!@!!Comment: ?
!@!!User: Bruker Instrument Administrator
!@!!Site: University of Illinois Chicago
!@!!Frame: map-49_01_000.gfrm
!@!!Wavelengths    1.54184   1.54056   1.54439
!@!!Frame angles: 2Theta: 63.000 Omega: 50.000 Phi: 0.000 Chi: 90.000
!@!!Integration range: 2Theta: 53.000 to 73.000  Gamma: -105.000 to -75.000
!@!!Integration method: bin normalized
!@!N
!@!SS
!@!M
!@!L 0.0 0.0 0.0 0.0
!@!XDegrees
!@!YCounts
53.000 9.159964
53.005 9.404252
53.010 9.383491
53.015 9.805059
53.020 9.96903
53.025 9.852961
53.030 10.270559
53.035 10.402369
53.040 10.14828
53.045 10.018068
53.050 9.675401
53.055 9.649096
53.060 9.658535
53.065 9.25548
53.070 9.171702
53.075 8.978109
53.080 8.809538
53.085 8.990234
53.090 8.692411
53.095 8.587369
53.100 8.811697
53.105 9.101096
53.110 9.327902
53.115 9.758944
53.120 9.860424
53.125 10.226474
53.130 10.809918
53.135 10.339871
53.140 10.178549
53.145 9.97531
53.150 9.869444
53.155 9.946154
53.160 9.571413
53.165 9.703266
53.170 9.79409
53.175 9.501514
53.180 9.103194
53.185 9.533297
53.190 9.794746
53.195 9.700361
53.200 9.207989
53.205 9.299099
53.210 9.510792
53.215 9.766675
53.220 9.245382
53.225 9.456882
53.230 9.75606
53.235 10.21326
53.240 10.646174
53.245 10.870001
53.250 10.398775
53.255 10.609918
53.260 10.33923
53.265 10.223328
53.270 10.228683
53.275 9.983762
53.280 9.949414
53.285 10.595356
53.290 10.625498
53.295 10.96168
53.300 10.85595
53.305 11.010861
53.310 11.438365
53.315 11.898835
53.320 11.623261
53.325 11.309606
53.330 10.909944
53.335 11.080752
53.340 11.003325
53.345 10.836555
53.350 10.447783
53.355 10.744231
53.360 10.771151
53.365 10.753121
53.370 10.852769
53.375 10.50475
53.380 10.266195
53.385 10.014804
53.390 9.514012
53.395 9.771308
53.400 9.949372
53.405 10.173256
53.410 10.480401
53.415 10.753301
53.420 10.98123
53.425 11.255703
53.430 11.078941
53.435 10.916818
53.440 11.110396
53.445 10.756673
53.450 10.32851
53.455 10.218228
53.460 9.688415
53.465 9.604918
53.470 9.035837
53.475 8.470323
53.480 8.537881
53.485 8.470175
53.490 8.904924
53.495 8.978096
53.500 9.000741
53.505 9.372331
53.510 9.623219
53.515 9.560975
53.520 9.69222
53.525 9.669923
53.530 10.410425
53.535 10.686084
53.540 10.846481
53.545 11.496752
53.550 11.986306
53.555 11.969842
53.560 11.594247
53.565 11.032238
53.570 11.121993
53.575 10.681963
53.580 10.215683
53.585 9.576881
53.590 9.146768
53.595 9.478219
53.600 9.583525
53.605 9.63695
53.610 9.500356
53.615 9.21348
53.620 9.330719
53.625 9.477462
53.630 9.337361
53.635 9.040548
53.640 9.247109
53.645 9.297688
53.650 9.586713
53.655 9.64765
53.660 9.569653
53.665 9.3841
53.670 9.359075
53.675 8.864932
53.680 8.782003
53.685 8.961328
53.690 9.363945
53.695 9.735589
53.700 9.754816
53.705 9.816905
53.710 10.363039
53.715 10.47169
53.720 10.24067
53.725 9.969514
53.730 9.90568
53.735 10.300494
53.740 10.641674
53.745 10.880503
53.750 11.405238
53.755 11.740096
53.760 12.033298
53.765 11.787628
53.770 11.444452
53.775 11.044733
53.780 11.097986
53.785 10.60453
53.790 10.501547
53.795 10.280176
53.800 10.634756
53.805 10.63852
53.810 10.139374
53.815 10.075068
53.820 10.701783
53.825 10.954383
53.830 11.439093
53.835 11.290232
53.840 11.426552
53.845 11.810409
53.850 11.844744
53.855 11.434651
53.860 11.481301
53.865 11.378208
53.870 11.888861
53.875 12.233142
53.880 12.007345
53.885 11.44906
53.890 11.467277
53.895 11.300316
53.900 11.190106
53.905 10.759318
53.910 10.219098
53.915 10.192945
53.920 10.342076
53.925 10.213282
53.930 10.009381
53.935 9.860721
53.940 10.393592
53.945 10.612327
53.950 10.562237
53.955 10.537251
53.960 10.951379
53.965 11.177632
53.970 11.002932
53.975 10.491909
53.980 10.798088
53.985 10.785384
53.990 10.931519
53.995 10.778275
54.000 10.9426
54.005 10.972343
54.010 10.699034
54.015 10.08835
54.020 10.180608
54.025 9.431973
54.030 9.472775
54.035 9.706112
54.040 9.70823
54.045 9.829736
54.050 9.973845
54.055 10.195178
54.060 10.771889
54.065 11.15882
54.070 11.304699
54.075 11.606335
54.080 11.768411
54.085 11.93881
54.090 12.126302
54.095 11.640684
54.100 10.834805
54.105 10.668787
54.110 10.315449
54.115 10.279337
54.120 9.95614
54.125 9.985591
54.130 10.005526
54.135 10.021528
54.140 10.004778
54.145 10.296895
54.150 10.296891
54.155 10.362853
54.160 10.573546
54.165 10.534236
54.170 10.79344
54.175 10.528569
54.180 10.845665
54.185 11.067369
54.190 11.011779
54.195 10.77531
54.200 10.740184
54.205 10.877414
54.210 11.133542
54.215 10.772943
54.220 10.60944
54.225 10.380563
54.230 10.488843
54.235 11.058615
54.240 11.211547
54.245 11.22671
54.250 11.130849
54.255 11.057619
54.260 11.305742
54.265 11.170515
54.270 10.931107
54.275 10.513768
54.280 10.930257
54.285 11.203953
54.290 11.301987
54.295 11.282024
54.300 11.210337
54.305 10.968563
54.310 10.637072
54.315 10.019997
54.320 10.295331
54.325 10.301366
54.330 10.677808
54.335 11.0825
54.340 11.835017
54.345 12.5581
54.350 12.734762
54.355 12.678894
54.360 12.910522
54.365 12.746515
54.370 12.264925
54.375 12.016132
54.380 11.751469
54.385 11.593717
54.390 11.398138
54.395 11.212308
54.400 11.390207
54.405 11.517843
54.410 11.612289
54.415 11.639132
54.420 11.838909
54.425 11.826635
54.430 11.500917
54.435 11.236412
54.440 11.282305
54.445 11.377433
54.450 11.39871
54.455 11.330791
54.460 11.11741
54.465 11.098783
54.470 10.863869
54.475 10.29384
54.480 10.649313
54.485 10.646662
54.490 10.70213
54.495 10.713288
54.500 10.841179
54.505 11.184313
54.510 10.834702
54.515 10.963603
54.520 11.122497
54.525 11.209499
54.530 11.560038
54.535 11.64915
54.540 11.511622
54.545 11.351254
54.550 10.883879
54.555 10.87442
54.560 10.646199
54.565 10.509958
54.570 10.319125
54.575 10.013764
54.580 10.172708
54.585 10.312078
54.590 10.149298
54.595 10.370563
54.600 10.226995
54.605 10.35193
54.610 10.518586
54.615 10.216029
54.620 10.038462
54.625 10.002892
54.630 9.862951
54.635 10.214455
54.640 10.563309
54.645 11.217092
54.650 11.657181
54.655 11.452414
54.660 11.362872
54.665 11.113916
54.670 10.735182
54.675 10.670406
54.680 10.280556
54.685 10.072301
54.690 10.311911
54.695 10.585509
54.700 10.947875
54.705 11.171019
54.710 10.872943
54.715 11.235773
54.720 11.274424
54.725 11.310307
54.730 11.050576
54.735 10.645144
54.740 10.500885
54.745 10.924949
54.750 11.040583
54.755 11.172111
54.760 11.357342
54.765 11.568609
54.770 11.925972
54.775 11.912641
54.780 11.786754
54.785 11.717985
54.790 11.325656
54.795 11.526402
54.800 11.882369
54.805 12.131701
54.810 12.510093
54.815 12.360953
54.820 12.821196
54.825 13.680946
54.830 13.051051
54.835 12.780059
54.840 12.520668
54.845 12.641513
54.850 12.800723
54.855 12.330056
54.860 12.14955
54.865 12.658288
54.870 12.587102
54.875 12.708863
54.880 12.613847
54.885 12.337094
54.890 12.121725
54.895 11.735317
54.900 11.192128
54.905 10.916276
54.910 10.827837
54.915 10.491702
54.920 10.641499
54.925 10.86751
54.930 11.105468
54.935 11.64891
54.940 11.993038
54.945 12.450729
54.950 12.939785
54.955 12.808701
54.960 12.868855
54.965 12.54552
54.970 12.179632
54.975 11.726019
54.980 11.077472
54.985 10.812182
54.990 11.028706
54.995 10.835715
55.000 11.003238
55.005 11.1563
55.010 11.289355
55.015 11.744283
55.020 11.856003
55.025 11.690006
55.030 11.576377
55.035 11.956944
55.040 11.873178
55.045 11.855887
55.050 11.747801
55.055 11.929136
55.060 11.81733
55.065 11.788501
55.070 11.490774
55.075 11.661077
55.080 11.271207
55.085 11.096865
55.090 10.901138
55.095 11.567439
55.100 11.953455
55.105 12.180434
55.110 12.117048
55.115 12.220326
55.120 11.854443
55.125 11.927002
55.130 11.869105
55.135 11.722259
55.140 11.321733
55.145 11.48592
55.150 11.479239
55.155 11.47213
55.160 11.298314
55.165 11.3591
55.170 11.656889
55.175 11.617283
55.180 11.830615
55.185 12.458741
55.190 13.10215
55.195 13.323214
55.200 12.88998
55.205 12.609835
55.210 13.197442
55.215 13.364801
55.220 13.036562
55.225 12.649357
55.230 12.273538
55.235 12.51321
55.240 12.926381
55.245 12.386258
55.250 11.973766
55.255 12.007918
55.260 11.962625
55.265 12.238605
55.270 12.233661
55.275 12.431674
55.280 12.763565
55.285 12.734398
55.290 12.194818
55.295 11.899832
55.300 11.882246
55.305 11.741622
55.310 11.028961
55.315 10.487941
55.320 10.862649
55.325 11.824727
55.330 11.316637
55.335 11.233987
55.340 11.441867
55.345 11.316658
55.350 11.490661
55.355 11.191429
55.360 11.326886
55.365 11.878202
55.370 11.510618
55.375 11.361761
55.380 11.765347
55.385 11.965811
55.390 11.695862
55.395 12.123331
55.400 12.220797
55.405 12.295863
55.410 12.516119
55.415 13.021729
55.420 13.432142
55.425 13.954288
55.430 13.753151
55.435 13.917002
55.440 14.210416
55.445 13.649463
55.450 13.050333
55.455 12.426085
55.460 12.046473
55.465 12.492199
55.470 12.223388
55.475 12.20478
55.480 12.656597
55.485 12.649681
55.490 12.770157
55.495 12.661269
55.500 12.679402
55.505 12.582289
55.510 12.203523
55.515 12.274734
55.520 11.978785
55.525 11.866927
55.530 11.610899
55.535 10.959391
55.540 11.373744
55.545 11.654717
55.550 11.722085
55.555 12.215516
55.560 12.417092
55.565 12.765999
55.570 12.867103
55.575 12.857262
55.580 12.47746
55.585 12.119343
55.590 11.915419
55.595 12.241166
55.600 11.786707
55.605 11.397783
55.610 11.143087
55.615 11.096344
55.620 11.270589
55.625 11.258193
55.630 11.187016
55.635 11.956838
55.640 12.800897
55.645 12.910038
55.650 13.28631
55.655 13.079246
55.660 12.662082
55.665 12.279072
55.670 11.722746
55.675 11.140842
55.680 11.045724
55.685 11.218637
55.690 11.330218
55.695 11.760116
55.700 12.318537
55.705 12.01917
55.710 11.974937
55.715 11.616519
55.720 11.944302
55.725 11.793681
55.730 11.738928
55.735 11.196283
55.740 11.019917
55.745 11.087878
55.750 11.600092
55.755 11.421199
55.760 11.623471
55.765 11.719568
55.770 12.088592
55.775 12.649194
55.780 12.706906
55.785 12.278514
55.790 12.023864
55.795 11.318128
55.800 11.232704
55.805 11.16538
55.810 10.995632
55.815 11.434738
55.820 11.912461
55.825 12.3231
55.830 12.690018
55.835 12.445275
55.840 12.469806
55.845 13.10283
55.850 13.090405
55.855 13.526128
55.860 13.595268
55.865 13.96342
55.870 13.929043
55.875 13.914535
55.880 12.863444
55.885 12.244699
55.890 11.417206
55.895 10.950869
55.900 10.709063
55.905 10.813746
55.910 11.188099
55.915 11.575737
55.920 11.532839
55.925 11.57691
55.930 11.959461
55.935 11.837005
55.940 11.552362
55.945 11.373778
55.950 11.585836
55.955 11.557203
55.960 11.44373
55.965 11.493088
55.970 12.067748
55.975 12.832391
55.980 13.001464
55.985 12.909538
55.990 12.940005
55.995 13.219111
56.000 12.817446
56.005 12.563132
56.010 12.301283
56.015 12.848845
56.020 12.840708
56.025 12.972046
56.030 13.013713
56.035 13.136534
56.040 13.32192
56.045 13.372914
56.050 13.232633
56.055 13.54013
56.060 13.507822
56.065 13.509154
56.070 13.331562
56.075 13.56492
56.080 13.747231
56.085 13.922298
56.090 13.590138
56.095 13.54655
56.100 13.846416
56.105 13.82733
56.110 13.747626
56.115 13.415936
56.120 13.282175
56.125 13.031479
56.130 12.619313
56.135 12.766828
56.140 12.830669
56.145 12.395829
56.150 12.21812
56.155 12.679976
56.160 12.956856
56.165 12.956598
56.170 12.588349
56.175 12.819937
56.180 12.532226
56.185 12.346627
56.190 11.70986
56.195 12.001752
56.200 12.433259
56.205 12.621881
56.210 12.386755
56.215 13.339151
56.220 13.32434
56.225 13.879318
56.230 14.161222
56.235 14.488414
56.240 14.400842
56.245 14.763561
56.250 14.061926
56.255 14.412814
56.260 14.067706
56.265 13.895453
56.270 13.626983
56.275 13.127281
56.280 13.412019
56.285 13.951157
56.290 13.913461
56.295 14.07433
56.300 13.458211
56.305 13.537399
56.310 14.042889
56.315 13.564015
56.320 12.916956
56.325 12.619927
56.330 12.533694
56.335 12.798264
56.340 12.834362
56.345 12.281746
56.350 12.231046
56.355 12.584822
56.360 12.209928
56.365 12.325097
56.370 12.128615
56.375 12.120798
56.380 12.052155
56.385 12.423945
56.390 12.479305
56.395 12.737276
56.400 12.296244
56.405 12.314622
56.410 12.298543
56.415 12.415783
56.420 12.0439
56.425 12.571878
56.430 13.000269
56.435 13.428116
56.440 13.304555
56.445 13.075224
56.450 12.916278
56.455 12.67183
56.460 12.626131
56.465 12.394786
56.470 12.553088
56.475 13.07234
56.480 13.546542
56.485 14.00656
56.490 14.36879
56.495 14.689928
56.500 14.930938
56.505 14.842237
56.510 14.923944
56.515 14.264866
56.520 14.129595
56.525 13.901055
56.530 13.04427
56.535 13.239604
56.540 12.86634
56.545 12.523873
56.550 12.476877
56.555 12.395675
56.560 12.482996
56.565 12.389663
56.570 11.949029
56.575 12.078403
56.580 12.603367
56.585 12.80104
56.590 12.996427
56.595 12.830489
56.600 13.036126
56.605 13.047016
56.610 12.875389
56.615 12.831919
56.620 13.33565
56.625 13.462817
56.630 13.637259
56.635 13.436016
56.640 13.625631
56.645 13.340464
56.650 13.114829
56.655 12.271533
56.660 12.303254
56.665 12.604274
56.670 13.098243
56.675 13.23451
56.680 13.36848
56.685 13.210249
56.690 13.454786
56.695 13.235844
56.700 13.137698
56.705 12.93045
56.710 12.927808
56.715 13.20638
56.720 13.796249
56.725 13.971398
56.730 14.234308
56.735 14.479468
56.740 14.948333
56.745 15.245601
56.750 14.960578
56.755 14.662242
56.760 14.597318
56.765 13.980692
56.770 13.933334
56.775 13.612993
56.780 13.778024
56.785 13.793826
56.790 14.0558
56.795 14.126117
56.800 14.195807
56.805 14.229665
56.810 14.435831
56.815 14.487997
56.820 14.739067
56.825 14.365379
56.830 14.208164
56.835 14.266022
56.840 13.725941
56.845 13.360469
56.850 13.163835
56.855 13.103513
56.860 13.207592
56.865 13.165241
56.870 13.279538
56.875 13.481095
56.880 13.348518
56.885 13.50925
56.890 13.736865
56.895 13.995877
56.900 14.308013
56.905 14.41598
56.910 14.455596
56.915 14.374701
56.920 14.279156
56.925 14.157149
56.930 14.019171
56.935 13.94785
56.940 13.714928
56.945 13.420259
56.950 13.08745
56.955 12.832778
56.960 12.454015
56.965 12.30988
56.970 11.670936
56.975 11.767747
56.980 12.237113
56.985 12.825089
56.990 12.951845
56.995 13.456852
57.000 13.552803
57.005 13.947415
57.010 14.155674
57.015 14.578812
57.020 14.292765
57.025 14.021809
57.030 13.753493
57.035 14.256209
57.040 14.205252
57.045 13.628758
57.050 12.778784
57.055 13.135579
57.060 13.769858
57.065 13.662101
57.070 13.291085
57.075 13.812837
57.080 14.229739
57.085 14.147049
57.090 13.377336
57.095 12.910804
57.100 13.378513
57.105 13.247934
57.110 12.770851
57.115 13.070299
57.120 13.188039
57.125 13.903883
57.130 14.270391
57.135 14.189496
57.140 14.398245
57.145 14.389996
57.150 14.331957
57.155 14.412136
57.160 13.756518
57.165 13.175732
57.170 13.004524
57.175 12.836849
57.180 12.972677
57.185 12.998308
57.190 12.985743
57.195 13.552881
57.200 13.969441
57.205 13.914808
57.210 14.099851
57.215 13.790197
57.220 13.704124
57.225 13.771053
57.230 13.295781
57.235 13.081624
57.240 13.376643
57.245 13.659418
57.250 14.097697
57.255 14.290429
57.260 14.252828
57.265 14.274695
57.270 14.267876
57.275 14.433868
57.280 14.853488
57.285 14.797874
57.290 14.731199
57.295 14.923218
57.300 14.823524
57.305 14.805606
57.310 14.20283
57.315 13.875134
57.320 13.648311
57.325 13.776741
57.330 14.22518
57.335 14.290446
57.340 13.986812
57.345 14.517025
57.350 14.282399
57.355 14.109069
57.360 14.154945
57.365 13.288312
57.370 13.255249
57.375 13.791626
57.380 14.038648
57.385 14.241195
57.390 14.010697
57.395 14.253703
57.400 15.11669
57.405 15.216917
57.410 14.954034
57.415 14.350557
57.420 13.883987
57.425 13.800646
57.430 13.866403
57.435 13.939299
57.440 14.152864
57.445 14.176959
57.450 14.714469
57.455 15.621377
57.460 15.839802
57.465 15.73136
57.470 15.524969
57.475 15.312348
57.480 15.177913
57.485 14.735369
57.490 14.136085
57.495 13.880766
57.500 14.073055
57.505 14.133704
57.510 14.489305
57.515 14.712472
57.520 14.497458
57.525 14.769805
57.530 14.454309
57.535 13.650183
57.540 13.474633
57.545 13.27447
57.550 12.995525
57.555 13.553705
57.560 13.857274
57.565 14.062029
57.570 14.740742
57.575 14.63238
57.580 14.784334
57.585 14.996531
57.590 14.751147
57.595 14.598386
57.600 14.732623
57.605 14.658804
57.610 15.139788
57.615 15.096067
57.620 14.965218
57.625 15.358939
57.630 15.547234
57.635 15.219038
57.640 14.833184
57.645 14.801147
57.650 14.454935
57.655 14.998556
57.660 14.683492
57.665 14.285718
57.670 14.596286
57.675 15.258872
57.680 15.907701
57.685 15.985417
57.690 15.785441
57.695 16.367254
57.700 16.811272
57.705 17.080828
57.710 17.198929
57.715 16.894985
57.720 16.917503
57.725 17.062521
57.730 16.994081
57.735 16.536228
57.740 16.088722
57.745 15.475855
57.750 15.224199
57.755 15.418818
57.760 15.376225
57.765 15.442018
57.770 15.98284
57.775 15.667105
57.780 15.432997
57.785 15.473047
57.790 15.124043
57.795 14.857537
57.800 14.23266
57.805 14.309079
57.810 14.87454
57.815 15.009855
57.820 15.103036
57.825 15.630508
57.830 15.735137
57.835 15.929769
57.840 15.86708
57.845 15.493362
57.850 15.430142
57.855 15.185685
57.860 14.714936
57.865 15.25526
57.870 15.472515
57.875 15.388286
57.880 15.693195
57.885 15.475204
57.890 15.498822
57.895 15.713001
57.900 15.561072
57.905 15.301318
57.910 15.796554
57.915 16.064863
57.920 16.1052
57.925 16.474493
57.930 16.467859
57.935 17.200462
57.940 18.088488
57.945 17.500906
57.950 17.262877
57.955 17.36776
57.960 17.279423
57.965 17.601274
57.970 16.663757
57.975 16.371033
57.980 16.433773
57.985 16.524628
57.990 16.626642
57.995 16.93425
58.000 16.680504
58.005 16.511484
58.010 16.68243
58.015 17.295427
58.020 17.255569
58.025 17.09721
58.030 16.596966
58.035 16.712992
58.040 17.128662
58.045 17.140905
58.050 17.397533
58.055 17.832529
58.060 17.566772
58.065 17.372658
58.070 17.391027
58.075 16.998606
58.080 16.316343
58.085 15.600242
58.090 15.912057
58.095 15.849913
58.100 15.531921
58.105 15.5365
58.110 15.874279
58.115 16.204771
58.120 16.183598
58.125 15.750242
58.130 16.28212
58.135 16.699055
58.140 16.550058
58.145 16.887524
58.150 17.029989
58.155 17.008917
58.160 16.80657
58.165 16.444878
58.170 16.929224
58.175 17.980307
58.180 17.773941
58.185 17.812599
58.190 17.638147
58.195 17.402054
58.200 17.502867
58.205 17.163567
58.210 16.346325
58.215 16.380432
58.220 16.444029
58.225 17.049753
58.230 18.239361
58.235 18.784496
58.240 18.60103
58.245 18.538519
58.250 19.051674
58.255 19.426985
58.260 19.773613
58.265 19.692522
58.270 19.53618
58.275 19.468407
58.280 20.439379
58.285 20.48213
58.290 20.246796
58.295 19.968225
58.300 20.148939
58.305 20.385166
58.310 21.181349
58.315 20.663136
58.320 21.021879
58.325 21.423151
58.330 21.930145
58.335 22.724688
58.340 23.416647
58.345 23.338934
58.350 23.715219
58.355 23.708492
58.360 23.751116
58.365 22.972315
58.370 22.384012
58.375 22.262722
58.380 22.144558
58.385 21.984926
58.390 21.83021
58.395 22.386051
58.400 23.83279
58.405 24.062113
58.410 24.179869
58.415 24.732492
58.420 25.924314
58.425 26.094803
58.430 25.495386
58.435 25.136391
58.440 25.353535
58.445 24.844715
58.450 24.225103
58.455 23.989786
58.460 24.386189
58.465 25.115536
58.470 25.494881
