!@!!GADDS PLOTSO FILE: Chi integration type
!@!!Title/SampleName: map-114
!@!!Comment: ?
!@!!User: Bruker Instrument Administrator
!@!!Site: University of Illinois Chicago
!@!!Frame: map-114_01_000.gfrm
!@!!Wavelengths    1.54184   1.54056   1.54439
!@!!Frame angles: 2Theta: 63.000 Omega: 50.000 Phi: 0.000 Chi: 90.000
!@!!Integration range: 2Theta: 53.000 to 73.000  Gamma: -105.000 to -75.000
!@!!Integration method: bin normalized
!@!N
!@!SS
!@!M
!@!L 0.0 0.0 0.0 0.0
!@!XDegrees
!@!YCounts
53.000 9.327132
53.005 9.706152
53.010 9.666298
53.015 9.293038
53.020 9.260399
53.025 9.361715
53.030 9.313346
53.035 9.085626
53.040 8.447981
53.045 8.554869
53.050 8.263514
53.055 8.379141
53.060 8.257503
53.065 8.677097
53.070 8.735812
53.075 9.2162
53.080 9.085241
53.085 8.735102
53.090 8.251863
53.095 8.685982
53.100 8.469207
53.105 8.502069
53.110 8.161729
53.115 8.443388
53.120 8.992168
53.125 8.79756
53.130 8.309245
53.135 8.26298
53.140 8.364411
53.145 8.274768
53.150 7.850494
53.155 7.877403
53.160 7.937496
53.165 7.979017
53.170 7.83808
53.175 8.1763
53.180 8.606573
53.185 8.945468
53.190 8.819924
53.195 8.66523
53.200 8.764109
53.205 8.594558
53.210 7.96076
53.215 7.770653
53.220 7.893108
53.225 8.181258
53.230 8.261679
53.235 7.786137
53.240 7.95308
53.245 8.449644
53.250 8.310662
53.255 8.266851
53.260 8.36696
53.265 8.79842
53.270 9.170958
53.275 9.17864
53.280 8.772509
53.285 8.926132
53.290 9.4957
53.295 9.470667
53.300 9.145673
53.305 8.661436
53.310 8.472087
53.315 9.095489
53.320 9.213965
53.325 9.091842
53.330 9.342341
53.335 9.673751
53.340 9.937932
53.345 9.817045
53.350 9.489079
53.355 9.36726
53.360 8.763905
53.365 8.701767
53.370 8.841669
53.375 8.910974
53.380 9.055417
53.385 9.286662
53.390 9.71744
53.395 10.406395
53.400 10.447368
53.405 10.390504
53.410 9.918574
53.415 9.812428
53.420 9.593463
53.425 9.100359
53.430 8.757827
53.435 8.515826
53.440 8.85483
53.445 9.370112
53.450 8.970624
53.455 9.007419
53.460 9.246698
53.465 9.039179
53.470 9.1393
53.475 9.112839
53.480 8.914411
53.485 8.794033
53.490 8.820446
53.495 8.555542
53.500 8.726935
53.505 8.535239
53.510 8.334832
53.515 8.334851
53.520 8.806141
53.525 8.913342
53.530 9.041731
53.535 9.325865
53.540 9.722951
53.545 10.029334
53.550 9.824015
53.555 9.577635
53.560 9.578475
53.565 9.61755
53.570 9.213614
53.575 8.881321
53.580 8.832638
53.585 9.088222
53.590 8.821357
53.595 8.665094
53.600 8.578867
53.605 8.899476
53.610 9.265473
53.615 9.39677
53.620 9.112041
53.625 8.786341
53.630 8.645069
53.635 9.174281
53.640 8.870759
53.645 8.341009
53.650 8.182457
53.655 8.649469
53.660 9.021196
53.665 9.090367
53.670 8.616857
53.675 8.503539
53.680 8.647292
53.685 8.389144
53.690 8.261836
53.695 8.033828
53.700 7.84132
53.705 8.015673
53.710 8.007979
53.715 8.031825
53.720 7.937883
53.725 8.008596
53.730 8.253781
53.735 8.668553
53.740 8.869006
53.745 8.917637
53.750 9.337246
53.755 9.763888
53.760 10.182745
53.765 10.095466
53.770 9.559714
53.775 9.736302
53.780 9.698358
53.785 9.418724
53.790 9.383324
53.795 8.835647
53.800 8.92312
53.805 9.282327
53.810 8.909655
53.815 8.945662
53.820 9.154828
53.825 9.230488
53.830 9.098249
53.835 8.922848
53.840 8.881336
53.845 9.354478
53.850 9.748177
53.855 9.561872
53.860 9.394967
53.865 9.917753
53.870 9.526035
53.875 8.897354
53.880 8.760944
53.885 8.378148
53.890 8.255101
53.895 8.504264
53.900 8.306353
53.905 8.958475
53.910 9.099423
53.915 8.537722
53.920 8.216501
53.925 8.015708
53.930 7.667196
53.935 7.992908
53.940 7.924015
53.945 8.125603
53.950 8.520065
53.955 8.656931
53.960 9.189131
53.965 9.434024
53.970 8.91888
53.975 8.845745
53.980 8.771836
53.985 8.992946
53.990 9.093331
53.995 8.770789
54.000 8.829533
54.005 9.343254
54.010 9.363151
54.015 9.498965
54.020 9.461724
54.025 9.595299
54.030 9.378168
54.035 9.319648
54.040 9.156385
54.045 9.384223
54.050 9.533065
54.055 9.1858
54.060 8.782156
54.065 8.439488
54.070 8.324933
54.075 8.063627
54.080 7.934214
54.085 7.919347
54.090 8.230144
54.095 8.988295
54.100 9.422341
54.105 9.948466
54.110 10.532467
54.115 10.570564
54.120 10.117607
54.125 9.55486
54.130 9.177605
54.135 9.227573
54.140 8.924953
54.145 8.608116
54.150 8.612272
54.155 9.317778
54.160 9.845757
54.165 10.123153
54.170 9.693705
54.175 9.482851
54.180 9.232296
54.185 9.033276
54.190 8.593211
54.195 8.36536
54.200 8.31357
54.205 8.961876
54.210 9.219623
54.215 9.636341
54.220 9.850974
54.225 10.122006
54.230 10.092393
54.235 9.914617
54.240 9.574327
54.245 9.063503
54.250 9.012709
54.255 9.116224
54.260 9.122664
54.265 8.954897
54.270 8.845944
54.275 8.73322
54.280 9.311625
54.285 9.436086
54.290 9.331029
54.295 9.426127
54.300 9.751804
54.305 10.039729
54.310 10.311345
54.315 10.150287
54.320 10.203591
54.325 9.874057
54.330 9.529135
54.335 9.575442
54.340 9.470606
54.345 9.528067
54.350 9.367316
54.355 9.456758
54.360 9.954228
54.365 9.930386
54.370 9.734127
54.375 9.785016
54.380 10.153707
54.385 10.164365
54.390 9.999823
54.395 10.024946
54.400 10.457351
54.405 10.339964
54.410 9.961246
54.415 9.561083
54.420 9.377954
54.425 9.576973
54.430 9.540569
54.435 8.955976
54.440 8.73659
54.445 9.104428
54.450 8.994617
54.455 9.119794
54.460 9.047793
54.465 9.239855
54.470 9.730658
54.475 9.936944
54.480 10.209603
54.485 10.542917
54.490 10.223787
54.495 9.965759
54.500 9.739791
54.505 9.549976
54.510 9.207848
54.515 8.326438
54.520 8.202116
54.525 8.393811
54.530 8.301331
54.535 8.262619
54.540 8.189511
54.545 8.336159
54.550 8.686597
54.555 8.855071
54.560 9.16576
54.565 9.213684
54.570 9.397035
54.575 9.52274
54.580 9.891216
54.585 10.678571
54.590 11.103278
54.595 11.047534
54.600 10.921391
54.605 10.840251
54.610 10.877604
54.615 10.723019
54.620 10.20647
54.625 9.791101
54.630 9.938759
54.635 9.934199
54.640 9.76259
54.645 9.980277
54.650 9.857623
54.655 10.172952
54.660 10.359214
54.665 10.647396
54.670 10.906715
54.675 11.391352
54.680 11.633527
54.685 11.638348
54.690 11.287725
54.695 11.08406
54.700 10.942513
54.705 11.050817
54.710 10.837202
54.715 10.843369
54.720 10.646139
54.725 10.755024
54.730 11.035382
54.735 11.104744
54.740 11.143144
54.745 11.514753
54.750 11.207917
54.755 10.80656
54.760 10.574781
54.765 10.451965
54.770 10.438913
54.775 10.276781
54.780 9.673598
54.785 9.699481
54.790 10.011373
54.795 10.058921
54.800 9.623306
54.805 9.440427
54.810 9.156885
54.815 8.99409
54.820 8.820286
54.825 8.929947
54.830 8.837101
54.835 9.066052
54.840 9.209565
54.845 9.097008
54.850 9.843524
54.855 10.025834
54.860 9.840921
54.865 10.227738
54.870 10.402682
54.875 10.431921
54.880 10.619333
54.885 9.988421
54.890 9.766798
54.895 9.89894
54.900 9.77687
54.905 9.357834
54.910 9.44303
54.915 9.593607
54.920 9.830939
54.925 10.091437
54.930 10.014804
54.935 9.991564
54.940 10.829946
54.945 11.156671
54.950 11.317052
54.955 10.975031
54.960 10.632537
54.965 10.446461
54.970 10.363999
54.975 9.910324
54.980 10.060003
54.985 10.328498
54.990 10.599071
54.995 11.015344
55.000 11.237354
55.005 11.36208
55.010 11.43697
55.015 10.743735
55.020 10.561249
55.025 10.961683
55.030 10.976934
55.035 10.961159
55.040 10.822516
55.045 10.765947
55.050 11.268314
55.055 11.14119
55.060 10.751971
55.065 10.539122
55.070 10.233786
55.075 10.222628
55.080 10.395853
55.085 9.987184
55.090 10.39889
55.095 10.725012
55.100 11.252856
55.105 11.883137
55.110 11.817831
55.115 11.570804
55.120 11.600641
55.125 11.366879
55.130 10.810935
55.135 10.08497
55.140 9.203984
55.145 9.15697
55.150 9.523986
55.155 9.704042
55.160 9.741295
55.165 9.974293
55.170 10.274639
55.175 10.811437
55.180 10.751773
55.185 10.462502
55.190 10.751881
55.195 10.863377
55.200 11.339221
55.205 11.178298
55.210 10.41158
55.215 9.653379
55.220 8.755723
55.225 7.516502
55.230 7.071346
55.235 6.869002
55.240 6.625042
55.245 7.344914
55.250 8.552443
55.255 9.44372
55.260 10.173873
55.265 10.418287
55.270 10.289735
55.275 10.626283
55.280 10.593356
55.285 10.34005
55.290 10.220579
55.295 9.880349
55.300 9.659294
55.305 9.904694
55.310 10.245893
55.315 10.510461
55.320 10.58939
55.325 10.982773
55.330 11.657532
55.335 12.022188
55.340 11.922117
55.345 11.691651
55.350 11.278534
55.355 11.249022
55.360 11.039346
55.365 10.465925
55.370 9.981978
55.375 9.986257
55.380 10.091424
55.385 9.63983
55.390 9.389376
55.395 9.500009
55.400 9.580626
55.405 10.007365
55.410 10.195798
55.415 10.379502
55.420 10.400087
55.425 10.432998
55.430 10.364929
55.435 10.452482
55.440 10.367551
55.445 10.252197
55.450 10.578774
55.455 10.486851
55.460 10.660184
55.465 11.070107
55.470 11.069552
55.475 10.703522
55.480 10.358153
55.485 10.129032
55.490 10.366405
55.495 10.324451
55.500 10.017331
55.505 10.287202
55.510 10.447689
55.515 10.594917
55.520 10.736371
55.525 10.362589
55.530 10.09708
55.535 9.89454
55.540 9.49231
55.545 9.205308
55.550 9.343379
55.555 9.343299
55.560 9.954034
55.565 10.121422
55.570 10.108646
55.575 10.398474
55.580 10.666418
55.585 10.317231
55.590 10.515141
55.595 10.406673
55.600 10.650506
55.605 10.699099
55.610 10.723022
55.615 11.15466
55.620 11.640025
55.625 11.692555
55.630 11.748824
55.635 11.665131
55.640 11.646136
55.645 11.702577
55.650 11.654463
55.655 11.337946
55.660 11.185346
55.665 11.402399
55.670 11.571304
55.675 11.595966
55.680 11.260179
55.685 11.034204
55.690 11.118602
55.695 10.680861
55.700 10.316712
55.705 10.544874
55.710 10.139191
55.715 10.160494
55.720 9.98624
55.725 10.246391
55.730 10.403392
55.735 10.036745
55.740 9.739634
55.745 10.003178
55.750 9.604062
55.755 9.358598
55.760 9.021023
55.765 9.262244
55.770 9.305072
55.775 9.118604
55.780 9.283348
55.785 9.579814
55.790 9.522058
55.795 9.918473
55.800 10.098372
55.805 10.001225
55.810 10.381458
55.815 10.29296
55.820 10.929317
55.825 11.003363
55.830 10.763493
55.835 10.958206
55.840 11.140468
55.845 10.661384
55.850 10.555664
55.855 10.160707
55.860 10.403322
55.865 10.608179
55.870 10.187832
55.875 10.103132
55.880 10.449884
55.885 10.757195
55.890 10.970517
55.895 10.598653
55.900 9.936505
55.905 10.306875
55.910 11.390014
55.915 11.72823
55.920 11.666224
55.925 11.743039
55.930 12.23171
55.935 12.673073
55.940 12.236297
55.945 12.092892
55.950 12.447599
55.955 12.378555
55.960 12.006301
55.965 11.60295
55.970 11.05103
55.975 10.93283
55.980 10.223806
55.985 9.916173
55.990 9.920762
55.995 10.352279
56.000 10.570175
56.005 10.586972
56.010 9.957771
56.015 10.207993
56.020 9.985406
56.025 9.789233
56.030 9.548372
56.035 9.591586
56.040 10.457881
56.045 11.002919
56.050 10.665035
56.055 10.695261
56.060 10.509949
56.065 10.358002
56.070 10.400985
56.075 10.388169
56.080 10.733097
56.085 10.999957
56.090 10.809633
56.095 11.05988
56.100 11.22964
56.105 10.972292
56.110 10.470859
56.115 10.315371
56.120 10.457421
56.125 10.443499
56.130 10.146149
56.135 10.26218
56.140 10.89479
56.145 10.950588
56.150 11.009962
56.155 11.205282
56.160 11.715201
56.165 11.575081
56.170 11.477186
56.175 11.461522
56.180 11.515371
56.185 10.953284
56.190 10.651022
56.195 10.458042
56.200 10.789368
56.205 10.606651
56.210 10.288689
56.215 10.095126
56.220 10.559045
56.225 10.68852
56.230 10.582914
56.235 10.903224
56.240 10.867185
56.245 11.293495
56.250 11.731919
56.255 11.506605
56.260 11.218619
56.265 11.18449
56.270 10.581474
56.275 10.640135
56.280 10.105821
56.285 9.759978
56.290 9.821533
56.295 9.964112
56.300 10.420078
56.305 10.677671
56.310 10.641866
56.315 10.64238
56.320 11.363421
56.325 12.410757
56.330 12.714741
56.335 12.422977
56.340 12.451142
56.345 12.472715
56.350 12.681446
56.355 12.238785
56.360 11.530554
56.365 11.393358
56.370 11.462196
56.375 11.628411
56.380 11.387294
56.385 11.187135
56.390 10.803479
56.395 10.752596
56.400 11.025843
56.405 10.878542
56.410 10.615561
56.415 11.088313
56.420 11.139401
56.425 11.334094
56.430 11.818239
56.435 11.937766
56.440 12.366486
56.445 12.472766
56.450 12.317027
56.455 12.089704
56.460 11.909426
56.465 11.84466
56.470 11.720403
56.475 11.680583
56.480 11.856631
56.485 11.91515
56.490 12.648191
56.495 13.2461
56.500 13.07729
56.505 12.913334
56.510 13.163775
56.515 13.215044
56.520 13.382236
56.525 13.250074
56.530 12.951735
56.535 12.807759
56.540 12.872512
56.545 12.693071
56.550 12.661701
56.555 12.400507
56.560 12.170418
56.565 11.613569
56.570 11.196255
56.575 11.435511
56.580 11.413286
56.585 11.866688
56.590 11.960118
56.595 12.106256
56.600 12.603308
56.605 12.665833
56.610 12.175568
56.615 12.199556
56.620 12.053364
56.625 12.037004
56.630 12.078826
56.635 12.506015
56.640 13.042064
56.645 13.196679
56.650 13.182208
56.655 12.869746
56.660 12.938603
56.665 12.66939
56.670 12.583099
56.675 12.563191
56.680 12.337936
56.685 12.180184
56.690 12.236201
56.695 12.11033
56.700 12.157802
56.705 11.963568
56.710 11.709459
56.715 11.842978
56.720 11.762041
56.725 11.949945
56.730 12.313138
56.735 12.001505
56.740 11.9418
56.745 12.176587
56.750 12.222627
56.755 12.034454
56.760 11.469463
56.765 11.173981
56.770 11.117477
56.775 11.392167
56.780 11.039316
56.785 10.847997
56.790 11.196421
56.795 11.461706
56.800 11.06566
56.805 10.833513
56.810 10.550567
56.815 10.916058
56.820 11.41402
56.825 11.051343
56.830 10.873508
56.835 11.191785
56.840 11.23744
56.845 11.17489
56.850 11.016459
56.855 11.119836
56.860 11.637269
56.865 12.367234
56.870 12.688266
56.875 12.657268
56.880 12.795497
56.885 12.376385
56.890 11.983975
56.895 12.060062
56.900 11.932136
56.905 11.81291
56.910 11.829886
56.915 11.808296
56.920 12.042735
56.925 11.704003
56.930 10.755755
56.935 10.094715
56.940 10.488225
56.945 10.505838
56.950 10.41962
56.955 10.851528
56.960 11.245206
56.965 11.537027
56.970 11.855528
56.975 11.763586
56.980 11.952847
56.985 12.32093
56.990 11.976396
56.995 12.392612
57.000 12.636358
57.005 12.942524
57.010 12.91894
57.015 13.001915
57.020 12.823922
57.025 12.839021
57.030 12.570292
57.035 12.686946
57.040 12.578671
57.045 12.698371
57.050 12.493086
57.055 12.604074
57.060 12.425516
57.065 12.558905
57.070 12.842773
57.075 12.924208
57.080 12.409375
57.085 12.497361
57.090 12.346014
57.095 12.397063
57.100 12.009725
57.105 11.188182
57.110 10.792204
57.115 11.177563
57.120 11.399799
57.125 11.259295
57.130 11.459086
57.135 11.526084
57.140 11.588274
57.145 11.305807
57.150 10.896429
57.155 10.561501
57.160 10.893268
57.165 10.960532
57.170 10.867233
57.175 10.621991
57.180 10.866076
57.185 10.952166
57.190 10.759031
57.195 9.990711
57.200 9.614851
57.205 10.16161
57.210 10.405496
57.215 10.000815
57.220 9.908033
57.225 9.906158
57.230 10.206925
57.235 10.405489
57.240 10.315823
57.245 10.697401
57.250 11.36918
57.255 11.618433
57.260 11.832864
57.265 12.211917
57.270 12.087667
57.275 12.049354
57.280 12.340366
57.285 12.372869
57.290 12.743242
57.295 13.322832
57.300 13.066931
57.305 13.171301
57.310 12.799014
57.315 12.407012
57.320 12.430485
57.325 12.157223
57.330 12.290435
57.335 12.507303
57.340 12.618628
57.345 13.252448
57.350 13.396633
57.355 13.233772
57.360 13.357249
57.365 13.186
57.370 13.030371
57.375 12.776509
57.380 12.527844
57.385 12.20534
57.390 12.154907
57.395 11.675497
57.400 11.486004
57.405 11.475921
57.410 11.804317
57.415 11.701146
57.420 12.34575
57.425 13.421706
57.430 13.647935
57.435 13.908699
57.440 14.105295
57.445 13.88853
57.450 13.778028
57.455 13.132032
57.460 12.426734
57.465 12.593419
57.470 12.428284
57.475 12.191838
57.480 12.579285
57.485 12.57572
57.490 12.613571
57.495 12.121881
57.500 11.634719
57.505 11.796622
57.510 11.895
57.515 11.485832
57.520 12.10222
57.525 12.365656
57.530 12.780632
57.535 13.186128
57.540 13.576126
57.545 13.765737
57.550 13.815342
57.555 13.289709
57.560 13.14901
57.565 12.945957
57.570 13.166675
57.575 13.572242
57.580 13.825063
57.585 14.069378
57.590 14.181027
57.595 14.12589
57.600 14.323453
57.605 14.125628
57.610 13.304864
57.615 12.992809
57.620 13.005211
57.625 13.10239
57.630 13.387515
57.635 13.259092
57.640 12.390709
57.645 12.171802
57.650 12.051099
57.655 11.863499
57.660 11.644377
57.665 11.166933
57.670 11.125634
57.675 11.517081
57.680 11.890786
57.685 11.918545
57.690 12.413884
57.695 12.707138
57.700 12.596687
57.705 12.663375
57.710 12.783388
57.715 13.034039
57.720 13.532725
57.725 13.365603
57.730 12.877158
57.735 13.218444
57.740 13.200948
57.745 12.819282
57.750 12.39236
57.755 12.084097
57.760 12.431623
57.765 13.122951
57.770 13.483432
57.775 13.850647
57.780 14.371576
57.785 14.526614
57.790 14.766613
57.795 14.204762
57.800 13.633276
57.805 12.669587
57.810 12.045313
57.815 11.811122
57.820 11.922835
57.825 11.765992
57.830 11.861513
57.835 12.031419
57.840 12.555691
57.845 13.040091
57.850 13.024627
57.855 12.573352
57.860 12.455769
57.865 12.857278
57.870 13.225686
57.875 13.302979
57.880 12.973663
57.885 13.010077
57.890 13.473011
57.895 13.478255
57.900 13.823452
57.905 14.105608
57.910 14.265995
57.915 14.460612
57.920 14.557883
57.925 14.193753
57.930 13.950331
57.935 13.247294
57.940 12.626761
57.945 12.191441
57.950 12.309893
57.955 12.173716
57.960 12.001757
57.965 12.081366
57.970 12.464775
57.975 12.548092
57.980 12.312443
57.985 12.655015
57.990 12.955395
57.995 13.392247
58.000 13.039296
58.005 12.685641
58.010 12.701636
58.015 12.923986
58.020 12.153701
58.025 12.045888
58.030 11.958906
58.035 12.317359
58.040 12.902426
58.045 13.894343
58.050 14.044102
58.055 14.423799
58.060 14.410578
58.065 14.459866
58.070 14.933051
58.075 14.825479
58.080 14.129641
58.085 14.100898
58.090 14.04367
58.095 14.103848
58.100 14.148812
58.105 13.535526
58.110 12.960626
58.115 13.091953
58.120 13.218547
58.125 12.91676
58.130 12.828608
58.135 13.05203
58.140 12.903765
58.145 12.924633
58.150 12.677032
58.155 12.726754
58.160 12.695673
58.165 12.714611
58.170 12.610499
58.175 13.12751
58.180 13.761507
58.185 13.673757
58.190 13.122723
58.195 13.319004
58.200 13.242286
58.205 13.116247
58.210 12.572074
58.215 12.297036
58.220 12.402143
58.225 12.872935
58.230 13.265428
58.235 13.409279
58.240 13.959955
58.245 14.415208
58.250 14.926519
58.255 14.827191
58.260 14.523248
58.265 14.734989
58.270 14.553962
58.275 14.274082
58.280 14.244451
58.285 14.225062
58.290 14.37855
58.295 14.700892
58.300 14.288971
58.305 14.460758
58.310 14.642382
58.315 14.376389
58.320 13.975057
58.325 14.344873
58.330 14.148117
58.335 14.227669
58.340 14.239087
58.345 13.777543
58.350 13.794057
58.355 14.51526
58.360 14.601388
58.365 14.788761
58.370 14.644224
58.375 14.793056
58.380 15.106677
58.385 14.671351
58.390 14.754924
58.395 14.899975
58.400 14.256763
58.405 14.074525
58.410 13.830966
58.415 13.73226
58.420 14.359603
58.425 14.008802
58.430 13.946904
58.435 14.547639
58.440 14.563183
58.445 14.741526
58.450 15.258529
58.455 14.901444
58.460 15.441651
58.465 15.688035
58.470 15.538568
58.475 15.428695
58.480 15.32198
58.485 14.873378
58.490 14.470162
58.495 14.127604
58.500 14.423658
58.505 15.245736
58.510 15.242656
58.515 15.741683
58.520 15.751795
58.525 15.860437
58.530 15.605158
58.535 15.217183
58.540 14.880394
58.545 15.226383
