!@!!GADDS PLOTSO FILE: Chi integration type
!@!!Title/SampleName: map-ad
!@!!Comment: ?
!@!!User: Bruker Instrument Administrator
!@!!Site: University of Illinois Chicago
!@!!Frame: map-ad_01_000.gfrm
!@!!Wavelengths    1.54184   1.54056   1.54439
!@!!Frame angles: 2Theta: 63.000 Omega: 50.000 Phi: 0.000 Chi: 90.000
!@!!Integration range: 2Theta: 53.000 to 73.000  Gamma: -105.000 to -75.000
!@!!Integration method: bin normalized
!@!N
!@!SS
!@!M
!@!L 0.0 0.0 0.0 0.0
!@!XDegrees
!@!YCounts
53.000 8.226424
53.005 7.968222
53.010 7.814985
53.015 7.824528
53.020 8.205482
53.025 8.669225
53.030 8.97193
53.035 8.860887
53.040 8.789297
53.045 8.915705
53.050 8.548156
53.055 8.45217
53.060 8.194417
53.065 8.208759
53.070 7.94734
53.075 8.136049
53.080 8.291735
53.085 8.789195
53.090 8.80293
53.095 8.805509
53.100 8.983755
53.105 8.734118
53.110 8.252846
53.115 8.074145
53.120 7.6213
53.125 7.281568
53.130 7.315564
53.135 7.561424
53.140 8.098413
53.145 8.291129
53.150 8.41836
53.155 8.981836
53.160 9.018804
53.165 8.964595
53.170 8.433259
53.175 8.431841
53.180 8.506742
53.185 8.614342
53.190 8.545965
53.195 8.405977
53.200 8.512454
53.205 8.606482
53.210 8.724976
53.215 8.645563
53.220 8.446372
53.225 8.41907
53.230 8.35245
53.235 8.415642
53.240 8.849532
53.245 8.762126
53.250 8.735298
53.255 8.557789
53.260 8.682781
53.265 8.746135
53.270 8.475031
53.275 7.935391
53.280 7.657623
53.285 8.056001
53.290 8.265807
53.295 8.250733
53.300 8.734253
53.305 9.189167
53.310 9.665475
53.315 10.020794
53.320 9.390758
53.325 9.3673
53.330 9.132736
53.335 8.587562
53.340 8.42379
53.345 8.310946
53.350 8.224864
53.355 8.39304
53.360 8.458344
53.365 8.63605
53.370 8.8096
53.375 8.971198
53.380 8.674492
53.385 9.277186
53.390 9.626858
53.395 9.716886
53.400 9.871376
53.405 9.814384
53.410 9.825116
53.415 9.940788
53.420 9.639551
53.425 9.574861
53.430 9.421718
53.435 9.490533
53.440 9.72203
53.445 9.842995
53.450 10.059956
53.455 10.214039
53.460 10.345922
53.465 10.689946
53.470 10.657641
53.475 10.488837
53.480 10.324904
53.485 10.089906
53.490 9.702194
53.495 9.315166
53.500 8.817925
53.505 8.477809
53.510 8.008984
53.515 7.62241
53.520 7.319654
53.525 8.001179
53.530 8.071301
53.535 8.332087
53.540 8.579479
53.545 8.816876
53.550 8.949188
53.555 8.97409
53.560 8.332044
53.565 8.220984
53.570 8.659548
53.575 9.272297
53.580 9.789957
53.585 10.056179
53.590 10.172184
53.595 10.184198
53.600 10.18888
53.605 9.557038
53.610 8.919934
53.615 8.396038
53.620 8.494095
53.625 8.651184
53.630 8.617404
53.635 8.568875
53.640 8.75545
53.645 9.335399
53.650 9.791364
53.655 9.484955
53.660 9.207813
53.665 9.701571
53.670 9.726603
53.675 9.665321
53.680 9.242094
53.685 9.054225
53.690 9.31913
53.695 9.507667
53.700 8.977631
53.705 8.709419
53.710 8.828332
53.715 9.007175
53.720 9.314476
53.725 8.908278
53.730 9.188898
53.735 9.365334
53.740 9.664602
53.745 9.837922
53.750 9.448071
53.755 9.473907
53.760 9.784499
53.765 9.853023
53.770 9.969734
53.775 9.279244
53.780 9.193299
53.785 9.331255
53.790 9.012405
53.795 9.221047
53.800 9.129004
53.805 9.300643
53.810 9.374263
53.815 9.158545
53.820 8.954651
53.825 9.174633
53.830 8.905387
53.835 8.973251
53.840 8.483329
53.845 8.844282
53.850 8.875299
53.855 9.034522
53.860 9.343469
53.865 9.293053
53.870 9.541074
53.875 10.074121
53.880 10.20711
53.885 10.664005
53.890 10.850518
53.895 10.566326
53.900 10.646586
53.905 10.917402
53.910 10.530569
53.915 10.555521
53.920 10.10022
53.925 9.649154
53.930 9.475801
53.935 9.412073
53.940 9.459029
53.945 9.277569
53.950 9.474425
53.955 9.682137
53.960 9.832069
53.965 10.297314
53.970 10.102169
53.975 10.371468
53.980 10.415528
53.985 10.258898
53.990 10.510135
53.995 9.957706
54.000 9.521229
54.005 9.391265
54.010 8.971745
54.015 8.921429
54.020 9.26305
54.025 9.255502
54.030 10.090464
54.035 10.480195
54.040 10.58449
54.045 10.732889
54.050 10.392197
54.055 9.714999
54.060 9.631563
54.065 9.416964
54.070 9.439746
54.075 9.408731
54.080 9.671384
54.085 9.721797
54.090 9.938484
54.095 10.171236
54.100 10.119144
54.105 10.0702
54.110 9.638205
54.115 9.573814
54.120 10.028556
54.125 9.711944
54.130 9.44706
54.135 9.602787
54.140 9.860485
54.145 9.934608
54.150 9.935748
54.155 9.80625
54.160 9.856455
54.165 9.522774
54.170 8.868624
54.175 8.814181
54.180 9.395219
54.185 9.24831
54.190 9.3438
54.195 9.637074
54.200 10.255325
54.205 10.639469
54.210 10.147342
54.215 9.815947
54.220 9.896959
54.225 9.811779
54.230 10.0391
54.235 10.070802
54.240 10.195563
54.245 10.733813
54.250 10.811285
54.255 10.650842
54.260 10.642354
54.265 10.59119
54.270 10.583084
54.275 10.681539
54.280 10.52869
54.285 10.868462
54.290 10.846391
54.295 10.657317
54.300 10.346023
54.305 9.907224
54.310 9.817244
54.315 9.879807
54.320 9.498046
54.325 9.755364
54.330 9.716642
54.335 9.961249
54.340 9.816784
54.345 9.962368
54.350 9.902308
54.355 9.925241
54.360 10.024199
54.365 9.881625
54.370 9.759163
54.375 10.054294
54.380 9.719409
54.385 9.780861
54.390 9.682721
54.395 9.745105
54.400 9.871539
54.405 9.891064
54.410 9.869917
54.415 9.895753
54.420 10.160089
54.425 10.057353
54.430 10.073115
54.435 10.472567
54.440 10.203626
54.445 9.922673
54.450 9.650236
54.455 9.359769
54.460 9.499376
54.465 9.417785
54.470 8.935105
54.475 9.040321
54.480 9.208625
54.485 9.401406
54.490 9.625098
54.495 9.23951
54.500 9.116287
54.505 9.767726
54.510 10.05311
54.515 10.059648
54.520 9.992701
54.525 9.868185
54.530 10.438954
54.535 10.605365
54.540 10.75532
54.545 10.93298
54.550 10.962909
54.555 11.000767
54.560 10.654119
54.565 10.096689
54.570 9.881257
54.575 9.933518
54.580 10.074319
54.585 10.004279
54.590 10.453321
54.595 11.000806
54.600 11.516748
54.605 11.109959
54.610 10.663174
54.615 10.634677
54.620 11.120482
54.625 10.862553
54.630 10.570941
54.635 10.51749
54.640 10.54598
54.645 10.225093
54.650 10.049444
54.655 10.157132
54.660 10.520244
54.665 10.527047
54.670 10.180145
54.675 10.234295
54.680 10.5941
54.685 10.816229
54.690 10.362467
54.695 10.169161
54.700 10.53472
54.705 10.797094
54.710 11.525231
54.715 11.837461
54.720 11.962084
54.725 12.280086
54.730 12.395218
54.735 12.648522
54.740 12.904452
54.745 12.260626
54.750 11.822896
54.755 11.546966
54.760 11.365042
54.765 11.072762
54.770 10.863573
54.775 10.358082
54.780 10.134017
54.785 9.638779
54.790 9.557405
54.795 9.218973
54.800 9.607926
54.805 9.893141
54.810 9.934966
54.815 9.980782
54.820 10.273837
54.825 10.3271
54.830 10.520267
54.835 10.501567
54.840 10.451515
54.845 10.773433
54.850 11.155598
54.855 11.403495
54.860 11.20391
54.865 10.870179
54.870 10.307048
54.875 10.379881
54.880 10.368869
54.885 10.17004
54.890 10.040501
54.895 10.38397
54.900 10.856665
54.905 11.172501
54.910 10.989539
54.915 11.296396
54.920 11.357031
54.925 11.62972
54.930 11.722024
54.935 11.349109
54.940 11.08064
54.945 10.969685
54.950 10.793115
54.955 10.80997
54.960 11.048943
54.965 10.852639
54.970 10.77432
54.975 11.493503
54.980 11.752451
54.985 11.473619
54.990 11.201873
54.995 10.5621
55.000 10.59103
55.005 10.64428
55.010 10.092638
55.015 10.078964
55.020 10.301749
55.025 10.432583
55.030 10.654958
55.035 10.929232
55.040 11.07092
55.045 11.050565
55.050 10.553778
55.055 10.844514
55.060 10.555232
55.065 10.505325
55.070 10.449583
55.075 10.713109
55.080 10.675653
55.085 10.79835
55.090 10.635051
55.095 11.09897
55.100 11.679755
55.105 11.586649
55.110 11.320883
55.115 11.614374
55.120 12.109663
55.125 12.206252
55.130 11.765468
55.135 11.29536
55.140 10.978156
55.145 10.842552
55.150 10.5996
55.155 9.84673
55.160 9.746533
55.165 10.092852
55.170 10.281283
55.175 10.687853
55.180 11.32556
55.185 11.878774
55.190 12.201064
55.195 11.871369
55.200 11.576696
55.205 11.191467
55.210 10.81906
55.215 10.566257
55.220 10.035756
55.225 10.272118
55.230 10.682015
55.235 10.905112
55.240 11.124117
55.245 10.511427
55.250 10.40142
55.255 10.174829
55.260 9.8976
55.265 10.312116
55.270 10.964635
55.275 11.756826
55.280 12.628407
55.285 12.791255
55.290 13.465823
55.295 13.677653
55.300 13.443304
55.305 13.630766
55.310 13.154979
55.315 13.217452
55.320 13.376253
55.325 13.775176
55.330 13.570395
55.335 13.040954
55.340 12.556367
55.345 12.724233
55.350 12.508596
55.355 11.941187
55.360 11.464005
55.365 11.944568
55.370 12.351879
55.375 12.476197
55.380 12.346237
55.385 12.094669
55.390 12.017082
55.395 12.199978
55.400 11.844069
55.405 11.982107
55.410 11.80448
55.415 11.929216
55.420 12.240049
55.425 12.619971
55.430 12.244653
55.435 12.4275
55.440 11.776298
55.445 11.730826
55.450 11.312939
55.455 11.454198
55.460 11.628268
55.465 11.830523
55.470 11.759788
55.475 11.881043
55.480 11.983567
55.485 12.155302
55.490 12.27246
55.495 11.932115
55.500 11.602236
55.505 11.681748
55.510 11.696624
55.515 11.803905
55.520 11.612804
55.525 11.048642
55.530 11.670331
55.535 11.807053
55.540 11.477059
55.545 11.612183
55.550 11.47287
55.555 11.59971
55.560 11.511827
55.565 11.436714
55.570 11.639385
55.575 11.97548
55.580 12.047604
55.585 12.272741
55.590 12.36025
55.595 12.358245
55.600 12.326796
55.605 11.930993
55.610 12.125234
55.615 12.06737
55.620 12.192746
55.625 12.272704
55.630 11.811658
55.635 11.511699
55.640 11.857097
55.645 11.418296
55.650 11.314811
55.655 11.063622
55.660 11.293196
55.665 11.473236
55.670 11.505257
55.675 11.20645
55.680 11.424981
55.685 11.39191
55.690 11.278723
55.695 11.396871
55.700 11.785842
55.705 12.070407
55.710 12.037745
55.715 12.265306
55.720 12.647181
55.725 12.971823
55.730 13.011023
55.735 12.576364
55.740 12.188716
55.745 12.150323
55.750 11.753489
55.755 11.505437
55.760 11.326674
55.765 11.276281
55.770 11.900165
55.775 12.021189
55.780 12.553824
55.785 12.905603
55.790 12.53205
55.795 12.567265
55.800 12.5046
55.805 12.51681
55.810 12.677285
55.815 12.222729
55.820 12.132441
55.825 12.763146
55.830 12.510772
55.835 13.005325
55.840 13.062149
55.845 13.048998
55.850 13.246046
55.855 13.143661
55.860 12.48021
55.865 12.457919
55.870 12.490636
55.875 12.258675
55.880 12.059696
55.885 11.767277
55.890 11.852082
55.895 12.709388
55.900 12.646873
55.905 12.429179
55.910 12.734023
55.915 12.840871
55.920 12.900486
55.925 12.954775
55.930 13.061424
55.935 13.246453
55.940 13.741481
55.945 13.473873
55.950 13.526643
55.955 13.466099
55.960 13.199286
55.965 12.515522
55.970 12.361831
55.975 12.241972
55.980 12.529258
55.985 12.523555
55.990 12.513768
55.995 12.42926
56.000 12.494485
56.005 12.283157
56.010 12.129478
56.015 11.731263
56.020 11.366142
56.025 11.445617
56.030 11.403827
56.035 11.422545
56.040 11.405064
56.045 11.402095
56.050 11.711845
56.055 11.859582
56.060 11.816156
56.065 11.652245
56.070 11.456406
56.075 11.256817
56.080 10.799602
56.085 10.282307
56.090 10.28428
56.095 10.249387
56.100 10.59101
56.105 10.620658
56.110 10.693837
56.115 11.24908
56.120 11.774936
56.125 11.97953
56.130 11.744802
56.135 11.493653
56.140 11.826568
56.145 11.874535
56.150 11.702523
56.155 11.285096
56.160 11.17436
56.165 11.619702
56.170 12.250597
56.175 11.73709
56.180 11.680911
56.185 11.568726
56.190 11.810489
56.195 11.757593
56.200 11.361557
56.205 11.371734
56.210 12.051239
56.215 12.527656
56.220 12.733518
56.225 12.941792
56.230 12.949433
56.235 13.424178
56.240 13.004999
56.245 12.554963
56.250 12.560028
56.255 12.772673
56.260 12.436145
56.265 12.952385
56.270 12.652422
56.275 12.779004
56.280 12.651196
56.285 12.441661
56.290 12.548117
56.295 12.79312
56.300 12.320022
56.305 12.365485
56.310 12.814734
56.315 13.026215
56.320 12.979582
56.325 12.892317
56.330 12.972404
56.335 13.269114
56.340 13.288865
56.345 12.6752
56.350 12.290107
56.355 11.851251
56.360 11.746242
56.365 11.340672
56.370 11.145405
56.375 11.323995
56.380 11.409891
56.385 11.092863
56.390 11.398763
56.395 12.161922
56.400 12.739919
56.405 12.81094
56.410 12.682761
56.415 12.998734
56.420 13.528543
56.425 13.022313
56.430 12.377666
56.435 11.841721
56.440 11.471838
56.445 11.143062
56.450 11.327748
56.455 11.684059
56.460 11.933277
56.465 11.769315
56.470 11.728431
56.475 12.187025
56.480 12.889771
56.485 12.45856
56.490 12.878739
56.495 13.390634
56.500 14.096719
56.505 14.192608
56.510 14.217987
56.515 13.803042
56.520 14.002457
56.525 13.62817
56.530 12.987453
56.535 12.822133
56.540 12.96191
56.545 12.684756
56.550 12.705634
56.555 12.482087
56.560 12.398661
56.565 12.662152
56.570 12.878614
56.575 13.268774
56.580 13.439322
56.585 13.148264
56.590 13.09477
56.595 12.934691
56.600 12.741187
56.605 12.148704
56.610 11.975552
56.615 11.8375
56.620 12.269251
56.625 12.497745
56.630 13.012132
56.635 13.4823
56.640 13.289093
56.645 12.822145
56.650 12.94838
56.655 13.088216
56.660 13.521926
56.665 12.996595
56.670 13.390896
56.675 14.349469
56.680 14.674789
56.685 14.675429
56.690 14.242717
56.695 14.334167
56.700 14.63935
56.705 14.393723
56.710 14.314555
56.715 14.127625
56.720 14.23197
56.725 14.576055
56.730 14.734647
56.735 14.913304
56.740 14.75957
56.745 14.65225
56.750 14.989584
56.755 15.205575
56.760 15.320134
56.765 14.699005
56.770 14.364701
56.775 13.93899
56.780 14.137786
56.785 13.972308
56.790 13.289586
56.795 12.961725
56.800 13.05959
56.805 13.61034
56.810 14.138836
56.815 13.888796
56.820 13.999769
56.825 14.316474
56.830 14.379479
56.835 14.555691
56.840 14.064658
56.845 13.669765
56.850 13.513153
56.855 13.481811
56.860 13.398124
56.865 13.553939
56.870 13.613441
56.875 13.68612
56.880 13.631783
56.885 14.0574
56.890 14.221966
56.895 14.043234
56.900 13.626525
56.905 13.615189
56.910 13.527589
56.915 14.069571
56.920 13.820056
56.925 13.721064
56.930 13.858889
56.935 13.700797
56.940 13.393703
56.945 12.762407
56.950 12.253116
56.955 12.387686
56.960 12.808619
56.965 13.110055
56.970 13.178979
56.975 13.579332
56.980 14.013946
56.985 14.311178
56.990 13.904615
56.995 13.635863
57.000 13.140489
57.005 13.118568
57.010 12.910449
57.015 12.85113
57.020 12.301444
57.025 12.440849
57.030 12.155733
57.035 12.548886
57.040 12.880863
57.045 13.281982
57.050 13.61725
57.055 13.860951
57.060 13.850187
57.065 14.27121
57.070 14.011817
57.075 14.494476
57.080 14.606441
57.085 14.413131
57.090 14.568557
57.095 14.816792
57.100 14.717395
57.105 14.784539
57.110 13.853694
57.115 13.766422
57.120 13.44693
57.125 13.640206
57.130 13.485249
57.135 13.435159
57.140 13.645227
57.145 14.183999
57.150 13.915402
57.155 13.852288
57.160 13.624472
57.165 14.277129
57.170 13.905565
57.175 13.63273
57.180 13.463939
57.185 13.985611
57.190 14.201484
57.195 13.748491
57.200 13.500544
57.205 13.809059
57.210 13.282431
57.215 12.964362
57.220 13.116576
57.225 13.090518
57.230 13.001819
57.235 12.687708
57.240 12.531201
57.245 13.418883
57.250 13.383111
57.255 12.923712
57.260 12.92113
57.265 13.242605
57.270 13.421148
57.275 13.753179
57.280 14.005451
57.285 13.750753
57.290 13.951427
57.295 14.037129
57.300 13.426858
57.305 13.135655
57.310 13.065352
57.315 12.426171
57.320 12.920178
57.325 13.35541
57.330 13.467163
57.335 14.205968
57.340 14.604393
57.345 14.91503
57.350 14.690795
57.355 14.658938
57.360 14.975665
57.365 15.355533
57.370 15.045839
57.375 15.138108
57.380 14.802057
57.385 15.22761
57.390 15.018014
57.395 14.6142
57.400 14.382166
57.405 14.643339
57.410 14.30511
57.415 14.50803
57.420 14.709552
57.425 14.784069
57.430 14.178106
57.435 13.634049
57.440 13.524517
57.445 13.597398
57.450 13.697088
57.455 13.524001
57.460 13.604441
57.465 14.106274
57.470 14.362607
57.475 13.853619
57.480 13.31454
57.485 13.049529
57.490 13.027219
57.495 12.68067
57.500 12.179485
57.505 11.83555
57.510 11.821686
57.515 12.432377
57.520 12.552277
57.525 12.079419
57.530 12.335964
57.535 12.68045
57.540 12.594494
57.545 12.779406
57.550 12.093556
57.555 12.229814
57.560 12.445613
57.565 12.644689
57.570 13.016877
57.575 13.527727
57.580 13.821142
57.585 14.413868
57.590 14.966778
57.595 15.492261
57.600 15.184765
57.605 14.512694
57.610 14.083722
57.615 14.263386
57.620 14.397065
57.625 14.325236
57.630 13.901589
57.635 14.251087
57.640 15.169755
57.645 15.630054
57.650 15.173982
57.655 15.010387
57.660 14.312186
57.665 14.291982
57.670 14.571051
57.675 14.773037
57.680 14.667447
57.685 14.605222
57.690 14.706332
57.695 15.463487
57.700 15.49736
57.705 15.22865
57.710 15.085948
57.715 15.624488
57.720 16.214989
57.725 16.094822
57.730 15.857727
57.735 15.902901
57.740 15.406097
57.745 15.159282
57.750 14.701065
57.755 13.841347
57.760 13.476937
57.765 13.466352
57.770 13.173482
57.775 13.274511
57.780 13.697515
57.785 14.396288
57.790 14.904325
57.795 14.674899
57.800 14.326447
57.805 13.937876
57.810 13.824853
57.815 13.691256
57.820 13.622173
57.825 13.491272
57.830 13.935626
57.835 14.325812
57.840 14.677498
57.845 14.540125
57.850 14.042287
57.855 14.102242
57.860 13.913688
57.865 13.591494
57.870 13.940766
57.875 14.143216
57.880 14.372945
57.885 14.455953
57.890 14.044025
57.895 14.188724
57.900 13.884628
57.905 13.131975
57.910 12.886861
57.915 12.860538
57.920 12.471721
57.925 12.653022
57.930 13.178005
57.935 13.865007
57.940 13.908226
57.945 14.498534
57.950 14.566257
57.955 14.634848
57.960 14.609245
57.965 14.222517
57.970 14.596248
57.975 14.554201
57.980 14.363648
57.985 14.240008
57.990 14.506168
57.995 14.810551
58.000 15.014981
58.005 14.828842
58.010 15.2197
58.015 15.052674
58.020 15.190437
58.025 15.197906
58.030 15.029024
58.035 14.745344
58.040 14.532944
58.045 14.31937
58.050 14.183023
58.055 14.358292
58.060 14.585213
58.065 14.653428
58.070 15.086075
58.075 15.239257
58.080 15.656418
58.085 15.683152
58.090 15.33807
58.095 14.846292
58.100 14.643933
58.105 14.395331
58.110 14.433353
58.115 14.142183
58.120 14.116762
58.125 13.53383
58.130 13.155891
58.135 13.532728
58.140 13.456755
58.145 13.523942
58.150 14.08918
58.155 13.968546
58.160 14.666728
58.165 15.020132
58.170 14.662069
58.175 14.935211
58.180 14.877409
58.185 14.680098
58.190 15.253354
58.195 15.459534
58.200 15.430378
58.205 15.759512
58.210 15.493913
58.215 15.768229
58.220 15.60658
58.225 15.115574
58.230 14.835544
58.235 14.722653
58.240 14.561618
58.245 14.340078
58.250 14.203138
58.255 14.370663
58.260 14.763021
58.265 15.073744
58.270 15.132697
58.275 15.33393
58.280 15.290797
58.285 14.758336
58.290 14.400143
58.295 14.53175
58.300 14.422569
58.305 14.354346
58.310 14.129682
58.315 14.237264
58.320 14.274014
58.325 14.556388
58.330 14.191188
58.335 14.257866
58.340 13.532906
58.345 13.51343
58.350 13.735272
58.355 14.125602
58.360 13.669394
58.365 13.428876
58.370 13.079162
58.375 13.376842
58.380 13.443532
58.385 13.823643
58.390 13.823462
58.395 14.028607
58.400 14.235744
58.405 15.377594
58.410 15.840975
58.415 15.389268
58.420 14.895646
58.425 14.819042
58.430 15.374569
58.435 15.435849
58.440 15.006389
58.445 14.922544
58.450 15.050248
58.455 15.371199
58.460 15.53574
58.465 15.079942
58.470 14.96116
58.475 15.028023
58.480 15.757643
58.485 15.913622
58.490 15.644922
58.495 15.778103
58.500 15.760858
58.505 15.641989
58.510 15.518708
58.515 14.997019
58.520 15.171522
