!@!!GADDS PLOTSO FILE: Chi integration type
!@!!Title/SampleName: map-15f
!@!!Comment: ?
!@!!User: Bruker Instrument Administrator
!@!!Site: University of Illinois Chicago
!@!!Frame: map-15f_01_000.gfrm
!@!!Wavelengths    1.54184   1.54056   1.54439
!@!!Frame angles: 2Theta: 63.000 Omega: 50.000 Phi: 0.000 Chi: 90.000
!@!!Integration range: 2Theta: 53.000 to 73.000  Gamma: -105.000 to -75.000
!@!!Integration method: bin normalized
!@!N
!@!SS
!@!M
!@!L 0.0 0.0 0.0 0.0
!@!XDegrees
!@!YCounts
53.000 6.537288
53.005 6.623763
53.010 6.660671
53.015 7.042582
53.020 6.736538
53.025 6.582686
53.030 6.316915
53.035 6.345136
53.040 6.13908
53.045 5.820904
53.050 5.359264
53.055 5.387457
53.060 5.598537
53.065 5.581172
53.070 5.153594
53.075 5.150272
53.080 5.296272
53.085 5.808041
53.090 5.985152
53.095 6.441222
53.100 6.861041
53.105 7.154794
53.110 7.186078
53.115 7.490559
53.120 7.303188
53.125 7.521179
53.130 7.240406
53.135 7.142702
53.140 7.294012
53.145 7.126093
53.150 6.817896
53.155 6.773623
53.160 6.476196
53.165 6.342046
53.170 6.06458
53.175 6.184353
53.180 6.583022
53.185 7.021818
53.190 6.823083
53.195 6.793354
53.200 6.893976
53.205 7.262114
53.210 7.189806
53.215 7.120349
53.220 6.912214
53.225 7.030596
53.230 7.278457
53.235 7.074682
53.240 6.741199
53.245 6.71246
53.250 6.768107
53.255 7.006545
53.260 6.723517
53.265 6.537644
53.270 6.931266
53.275 7.050307
53.280 6.911817
53.285 6.663504
53.290 6.515846
53.295 6.870398
53.300 7.029827
53.305 7.024378
53.310 6.979504
53.315 7.090716
53.320 7.056769
53.325 6.726091
53.330 6.663725
53.335 6.471317
53.340 6.36944
53.345 6.655749
53.350 6.634953
53.355 6.595031
53.360 6.756139
53.365 6.80676
53.370 6.772723
53.375 6.874906
53.380 6.901807
53.385 6.651312
53.390 6.882463
53.395 7.202831
53.400 7.233868
53.405 7.717822
53.410 7.428093
53.415 7.191772
53.420 7.160808
53.425 7.38143
53.430 6.991496
53.435 6.737398
53.440 6.342667
53.445 6.068588
53.450 5.9831
53.455 5.76904
53.460 5.327879
53.465 5.378674
53.470 5.22347
53.475 5.382886
53.480 5.710924
53.485 6.206768
53.490 6.56633
53.495 6.991835
53.500 7.118729
53.505 6.8669
53.510 7.099464
53.515 7.103496
53.520 7.116196
53.525 6.96549
53.530 6.36521
53.535 6.948207
53.540 7.234161
53.545 6.997303
53.550 6.942154
53.555 7.063751
53.560 7.268319
53.565 7.621629
53.570 7.591961
53.575 7.618299
53.580 7.984773
53.585 8.383998
53.590 7.914366
53.595 7.958487
53.600 7.775789
53.605 7.464012
53.610 7.268384
53.615 7.072444
53.620 6.714784
53.625 7.084038
53.630 6.920824
53.635 7.198437
53.640 7.087193
53.645 6.944555
53.650 6.787608
53.655 6.820661
53.660 6.817098
53.665 6.448322
53.670 6.60789
53.675 6.91855
53.680 7.087699
53.685 6.820187
53.690 6.872837
53.695 7.03236
53.700 7.053492
53.705 6.983655
53.710 7.242846
53.715 7.785327
53.720 8.255225
53.725 8.683668
53.730 9.155319
53.735 9.40736
53.740 8.985643
53.745 8.687349
53.750 8.404837
53.755 7.959467
53.760 7.302992
53.765 7.050942
53.770 6.929597
53.775 7.500968
53.780 7.56001
53.785 7.616984
53.790 7.714682
53.795 7.537251
53.800 7.531817
53.805 7.418781
53.810 6.998977
53.815 6.84395
53.820 7.026465
53.825 7.067614
53.830 7.019483
53.835 6.983385
53.840 6.946066
53.845 7.379313
53.850 7.543007
53.855 7.608598
53.860 7.648405
53.865 7.327851
53.870 7.336537
53.875 7.121306
53.880 7.081757
53.885 6.997697
53.890 6.786694
53.895 6.938987
53.900 7.322482
53.905 7.472416
53.910 7.529435
53.915 7.142575
53.920 7.249367
53.925 7.302273
53.930 7.305479
53.935 7.472018
53.940 7.421573
53.945 7.224045
53.950 6.905354
53.955 6.662656
53.960 6.742473
53.965 6.529604
53.970 6.135416
53.975 5.792974
53.980 5.885931
53.985 6.470847
53.990 6.778381
53.995 6.803333
54.000 7.1598
54.005 7.386456
54.010 7.572565
54.015 7.548638
54.020 7.359151
54.025 7.299117
54.030 7.319371
54.035 7.446017
54.040 7.372881
54.045 7.608869
54.050 7.894447
54.055 7.879881
54.060 7.32461
54.065 7.170855
54.070 7.372211
54.075 7.782773
54.080 7.938266
54.085 7.48925
54.090 7.272251
54.095 7.354341
54.100 7.127098
54.105 6.857126
54.110 6.614106
54.115 6.515954
54.120 6.363221
54.125 6.54028
54.130 6.527775
54.135 6.674885
54.140 7.144659
54.145 6.84651
54.150 6.562699
54.155 6.84536
54.160 6.995933
54.165 6.930647
54.170 6.60983
54.175 6.225322
54.180 6.327039
54.185 6.761679
54.190 6.48955
54.195 6.4877
54.200 6.76783
54.205 6.865416
54.210 6.762142
54.215 6.877157
54.220 6.70617
54.225 6.715776
54.230 6.512254
54.235 6.456149
54.240 6.453083
54.245 6.696265
54.250 6.807883
54.255 7.204901
54.260 7.403897
54.265 7.551975
54.270 7.959851
54.275 8.550458
54.280 8.857443
54.285 8.912649
54.290 8.985975
54.295 9.534974
54.300 9.676961
54.305 9.064645
54.310 8.449701
54.315 8.101542
54.320 7.944952
54.325 7.682765
54.330 7.350855
54.335 7.050719
54.340 6.87051
54.345 6.764745
54.350 6.552598
54.355 6.316165
54.360 6.17186
54.365 6.017666
54.370 6.325813
54.375 6.830511
54.380 6.737735
54.385 7.251338
54.390 7.354965
54.395 7.387162
54.400 7.257598
54.405 6.846279
54.410 6.513666
54.415 6.259041
54.420 5.993746
54.425 6.125873
54.430 6.264124
54.435 6.505505
54.440 6.909029
54.445 7.495757
54.450 8.079304
54.455 8.294916
54.460 8.55217
54.465 8.532138
54.470 8.065614
54.475 7.633423
54.480 7.24798
54.485 6.584245
54.490 6.242849
54.495 5.807406
54.500 5.796458
54.505 5.861037
54.510 6.019354
54.515 6.310661
54.520 6.537644
54.525 6.67552
54.530 6.641429
54.535 6.595607
54.540 6.705608
54.545 6.558918
54.550 6.82428
54.555 7.167552
54.560 7.553026
54.565 7.880098
54.570 7.644918
54.575 7.891728
54.580 8.550883
54.585 8.003087
54.590 7.658158
54.595 7.258783
54.600 7.205871
54.605 7.578248
54.610 7.546675
54.615 6.965295
54.620 6.977411
54.625 6.839793
54.630 6.8516
54.635 6.811296
54.640 6.251874
54.645 6.06237
54.650 6.389906
54.655 6.737045
54.660 7.270994
54.665 7.37521
54.670 7.577889
54.675 7.62059
54.680 7.382818
54.685 7.396249
54.690 7.371327
54.695 6.978765
54.700 6.797298
54.705 6.911427
54.710 7.065154
54.715 6.89528
54.720 6.527083
54.725 6.373433
54.730 6.361879
54.735 6.131921
54.740 6.110475
54.745 6.3082
54.750 6.703319
54.755 7.351796
54.760 7.397547
54.765 7.565826
54.770 7.704633
54.775 7.678629
54.780 7.54794
54.785 7.489395
54.790 7.046236
54.795 7.274346
54.800 7.492804
54.805 7.352641
54.810 7.244064
54.815 7.371896
54.820 7.31531
54.825 7.516333
54.830 7.290363
54.835 7.010861
54.840 7.142346
54.845 7.284134
54.850 7.360719
54.855 7.167209
54.860 7.219176
54.865 7.392636
54.870 7.762893
54.875 7.970841
54.880 8.39852
54.885 8.226543
54.890 8.30572
54.895 8.129345
54.900 8.124349
54.905 7.842031
54.910 7.457485
54.915 7.424021
54.920 7.836363
54.925 8.017796
54.930 8.127728
54.935 7.907615
54.940 7.89737
54.945 7.695916
54.950 7.464558
54.955 7.381104
54.960 7.249586
54.965 7.207698
54.970 7.690809
54.975 7.582114
54.980 7.77445
54.985 7.955539
54.990 7.614841
54.995 7.653106
55.000 7.712238
55.005 7.471193
55.010 7.882973
55.015 7.69867
55.020 7.67308
55.025 8.010918
55.030 7.992897
55.035 8.24533
55.040 8.244456
55.045 8.026098
55.050 8.148267
55.055 8.411961
55.060 8.52828
55.065 8.392514
55.070 8.458169
55.075 8.492558
55.080 8.811388
55.085 9.082676
55.090 9.06871
55.095 9.197796
55.100 9.161793
55.105 9.001756
55.110 9.161777
55.115 8.916184
55.120 8.289026
55.125 7.947158
55.130 8.113503
55.135 8.019482
55.140 8.02329
55.145 8.098886
55.150 8.248991
55.155 8.035614
55.160 8.072944
55.165 7.976181
55.170 7.95082
55.175 7.734063
55.180 7.50331
55.185 7.915337
55.190 8.030096
55.195 7.989614
55.200 7.704062
55.205 7.784847
55.210 8.045724
55.215 7.860994
55.220 7.160642
55.225 6.946769
55.230 6.492249
55.235 6.616374
55.240 6.334315
55.245 5.824348
55.250 5.87408
55.255 6.23279
55.260 6.9974
55.265 7.285698
55.270 7.44141
55.275 7.947464
55.280 8.108333
55.285 8.315398
55.290 7.907677
55.295 7.941771
55.300 7.534171
55.305 7.377662
55.310 7.143715
55.315 6.82455
55.320 6.681619
55.325 6.5629
55.330 6.428547
55.335 6.66822
55.340 6.756887
55.345 6.885729
55.350 6.827816
55.355 6.543788
55.360 6.892341
55.365 7.045185
55.370 7.193012
55.375 7.013896
55.380 7.306677
55.385 7.47268
55.390 7.54632
55.395 7.514976
55.400 7.34845
55.405 7.80116
55.410 8.185851
55.415 8.062593
55.420 8.751567
55.425 9.148995
55.430 8.914004
55.435 8.686099
55.440 8.075728
55.445 7.679379
55.450 7.739512
55.455 7.335729
55.460 7.181785
55.465 7.226388
55.470 7.135102
55.475 7.134988
55.480 7.036548
55.485 6.977805
55.490 7.223527
55.495 7.167307
55.500 7.516463
55.505 7.45564
55.510 7.622262
55.515 7.75175
55.520 7.389965
55.525 7.322688
55.530 6.771245
55.535 6.57859
55.540 6.632318
55.545 6.745721
55.550 6.946689
55.555 7.239586
55.560 7.5096
55.565 7.942378
55.570 7.626508
55.575 7.893519
55.580 8.093086
55.585 7.685311
55.590 7.466466
55.595 7.297444
55.600 7.209629
55.605 7.498522
55.610 7.446812
55.615 7.268417
55.620 7.527243
55.625 7.56543
55.630 7.660489
55.635 7.825801
55.640 7.627036
55.645 7.096261
55.650 7.145607
55.655 6.969838
55.660 6.756877
55.665 6.41343
55.670 6.420301
55.675 6.784679
55.680 7.230195
55.685 7.419687
55.690 7.361337
55.695 7.294094
55.700 7.793924
55.705 7.60891
55.710 7.308889
55.715 7.186862
55.720 7.168926
55.725 7.506099
55.730 7.476406
55.735 6.922711
55.740 6.758998
55.745 7.004563
55.750 7.078022
55.755 7.06386
55.760 6.984086
55.765 7.431095
55.770 7.770876
55.775 8.486926
55.780 8.464718
55.785 8.353182
55.790 8.239355
55.795 8.145517
55.800 8.075455
55.805 8.330839
55.810 8.190788
55.815 8.189909
55.820 8.345771
55.825 8.368833
55.830 8.235153
55.835 8.001904
55.840 7.42837
55.845 7.371758
55.850 7.418491
55.855 7.315451
55.860 7.200269
55.865 6.971492
55.870 6.669901
55.875 6.769357
55.880 6.731499
55.885 6.932125
55.890 7.016214
55.895 6.986678
55.900 7.320472
55.905 7.625667
55.910 7.74115
55.915 7.181533
55.920 6.912669
55.925 6.943897
55.930 7.528255
55.935 7.924007
55.940 8.223589
55.945 8.324637
55.950 8.583129
55.955 8.704297
55.960 8.481832
55.965 8.182764
55.970 7.897773
55.975 7.519211
55.980 7.416327
55.985 7.421528
55.990 7.289591
55.995 7.471024
56.000 7.501915
56.005 7.039139
56.010 6.665166
56.015 6.801277
56.020 7.003834
56.025 7.354542
56.030 7.088816
56.035 6.783139
56.040 6.877166
56.045 6.665638
56.050 6.459756
56.055 6.552603
56.060 6.939215
56.065 7.081633
56.070 7.113464
56.075 7.380431
56.080 8.048444
56.085 8.280166
56.090 8.326735
56.095 8.145542
56.100 8.58971
56.105 9.31925
56.110 9.746874
56.115 9.421544
56.120 8.921992
56.125 8.607354
56.130 8.695827
56.135 8.785172
56.140 8.470315
56.145 7.988503
56.150 8.006558
56.155 8.367669
56.160 8.305424
56.165 8.08674
56.170 7.770196
56.175 7.723758
56.180 7.959689
56.185 7.947802
56.190 7.911069
56.195 7.786386
56.200 8.139513
56.205 8.049096
56.210 7.860224
56.215 7.902288
56.220 7.993304
56.225 7.882716
56.230 7.74119
56.235 7.770969
56.240 8.075462
56.245 8.259581
56.250 8.340042
56.255 8.324735
56.260 8.560925
56.265 8.499882
56.270 7.865835
56.275 7.656631
56.280 7.331791
56.285 7.159181
56.290 7.408406
56.295 7.656233
56.300 7.460285
56.305 7.642284
56.310 7.685034
56.315 7.649013
56.320 7.724523
56.325 7.455837
56.330 7.380332
56.335 7.582371
56.340 7.523572
56.345 7.650948
56.350 7.787618
56.355 7.353148
56.360 7.460996
56.365 7.040198
56.370 7.038562
56.375 7.316784
56.380 7.26782
56.385 7.4734
56.390 7.928653
56.395 7.767754
56.400 8.556765
56.405 8.685588
56.410 8.765887
56.415 9.147245
56.420 9.020459
56.425 8.913137
56.430 8.845328
56.435 8.781379
56.440 8.767004
56.445 8.521599
56.450 8.52504
56.455 8.916944
56.460 8.733845
56.465 8.84341
56.470 8.252935
56.475 8.305372
56.480 8.769902
56.485 8.471993
56.490 8.753127
56.495 9.022579
56.500 8.63572
56.505 8.562646
56.510 8.663839
56.515 8.94031
56.520 9.161775
56.525 8.881433
56.530 9.233312
56.535 9.562936
56.540 9.663543
56.545 9.616918
56.550 9.31989
56.555 9.673222
56.560 9.683951
56.565 9.428606
56.570 9.483829
56.575 9.717264
56.580 9.695498
56.585 9.526967
56.590 9.186637
56.595 9.487839
56.600 9.461902
56.605 9.331573
56.610 9.25382
56.615 9.002786
56.620 8.94273
56.625 9.098962
56.630 8.780275
56.635 8.989538
56.640 9.235008
56.645 9.186346
56.650 9.204085
56.655 9.224806
56.660 8.926035
56.665 9.169033
56.670 9.454187
56.675 9.49619
56.680 9.18863
56.685 8.974956
56.690 9.38026
56.695 9.153399
56.700 8.746842
56.705 8.29794
56.710 8.326575
56.715 8.581407
56.720 8.56354
56.725 8.71588
56.730 9.168778
56.735 9.324814
56.740 9.203913
56.745 9.226087
56.750 9.615816
56.755 9.643776
56.760 9.158011
56.765 8.70248
56.770 8.976994
56.775 9.221364
56.780 9.304618
56.785 8.917492
56.790 9.074059
56.795 9.300254
56.800 9.614593
56.805 9.302501
56.810 9.494099
56.815 9.362587
56.820 9.718704
56.825 9.404452
56.830 9.141961
56.835 8.964921
56.840 9.247291
56.845 9.097511
56.850 8.92592
56.855 8.770504
56.860 8.795211
56.865 8.869308
56.870 8.543142
56.875 8.122944
56.880 8.104845
56.885 8.035823
56.890 8.126382
56.895 8.514864
56.900 8.370112
56.905 7.987312
56.910 7.626632
56.915 7.521739
56.920 7.40252
56.925 7.274106
56.930 7.127568
56.935 7.337742
56.940 7.965174
56.945 8.803534
56.950 9.188622
56.955 9.15457
56.960 8.991975
56.965 8.866158
56.970 8.965019
56.975 9.025196
56.980 8.518561
56.985 8.211162
56.990 8.284481
56.995 7.996502
57.000 7.81671
57.005 7.39704
57.010 6.970224
57.015 7.111102
57.020 7.464125
57.025 7.722634
57.030 8.21071
57.035 8.782703
57.040 8.947413
57.045 9.284856
57.050 9.171082
57.055 8.751613
57.060 8.484179
57.065 7.930545
57.070 7.628709
57.075 7.929873
57.080 7.749777
57.085 7.811029
57.090 8.114879
57.095 8.345141
57.100 8.365037
57.105 8.375536
57.110 8.01162
57.115 7.864488
57.120 7.876964
57.125 7.73511
57.130 7.646036
57.135 7.514414
57.140 7.648411
57.145 7.830201
57.150 8.049225
57.155 8.214422
57.160 7.951008
57.165 8.333169
57.170 8.674234
57.175 8.606075
57.180 8.515893
57.185 8.248795
57.190 7.970827
57.195 7.796372
57.200 7.672465
57.205 7.697341
57.210 7.297549
57.215 7.012675
57.220 7.083019
57.225 7.403569
57.230 8.044106
57.235 7.716239
57.240 7.759864
57.245 7.951121
57.250 8.380091
57.255 8.409913
57.260 8.092334
57.265 7.890919
57.270 8.02495
57.275 8.082727
57.280 8.345258
57.285 8.498252
57.290 8.691868
57.295 9.099516
57.300 9.358759
57.305 9.341768
57.310 9.334043
57.315 9.17455
57.320 8.746417
57.325 8.50321
57.330 7.927462
57.335 7.508108
57.340 7.252741
57.345 6.995975
57.350 6.896062
57.355 7.039351
57.360 7.003334
57.365 7.468569
57.370 7.992628
57.375 8.478476
57.380 8.78906
57.385 8.6703
57.390 8.801194
57.395 9.034007
57.400 8.650374
57.405 8.33591
57.410 7.959754
57.415 7.921677
57.420 8.615436
57.425 8.532896
57.430 8.550519
57.435 8.658145
57.440 8.720352
57.445 8.589758
57.450 8.437619
57.455 7.573227
57.460 7.607294
57.465 7.122323
57.470 6.955861
57.475 6.729482
57.480 6.802835
57.485 7.170951
57.490 7.561652
57.495 7.718061
57.500 8.030632
57.505 8.257636
57.510 8.341642
57.515 8.584993
57.520 8.632963
57.525 8.605029
57.530 8.262448
57.535 8.120313
57.540 8.22945
57.545 8.534292
57.550 8.400476
57.555 7.810531
57.560 7.789346
57.565 7.792907
57.570 7.790062
57.575 7.462501
57.580 7.561324
57.585 8.08498
57.590 8.755635
57.595 8.841944
57.600 9.340041
57.605 9.679509
57.610 9.942389
57.615 10.008196
57.620 9.791801
57.625 9.1081
57.630 8.840204
57.635 8.377075
57.640 7.774939
57.645 7.281937
57.650 6.933357
57.655 6.91551
57.660 6.724674
57.665 6.499574
57.670 6.464617
57.675 7.180583
57.680 7.408329
57.685 7.017934
57.690 7.238346
57.695 7.757703
57.700 8.355844
57.705 8.786398
57.710 8.405321
57.715 8.562039
57.720 8.579403
57.725 8.305872
57.730 8.17412
57.735 8.25475
57.740 8.169336
57.745 8.125306
57.750 8.432763
57.755 8.554062
57.760 8.68587
57.765 9.051594
57.770 8.503312
57.775 8.163317
57.780 8.233683
57.785 8.242765
57.790 8.256575
57.795 8.169583
57.800 8.001535
57.805 8.058943
57.810 7.944421
57.815 7.65301
57.820 7.531446
57.825 7.393447
57.830 7.19106
57.835 7.006516
57.840 7.108463
57.845 7.631488
57.850 7.815237
57.855 7.516384
57.860 7.52973
57.865 7.514308
57.870 7.60445
57.875 7.747838
57.880 7.714318
57.885 7.841538
57.890 8.003572
57.895 7.928509
57.900 7.842175
57.905 8.00888
57.910 8.077813
57.915 7.764272
57.920 7.63227
57.925 7.928694
57.930 8.248533
57.935 8.558198
57.940 8.366727
57.945 8.069686
57.950 8.059076
57.955 7.954096
57.960 7.828799
57.965 7.740691
57.970 7.881432
57.975 8.034286
57.980 7.886054
57.985 8.063061
57.990 8.046017
57.995 7.563994
58.000 7.422552
58.005 7.114264
58.010 6.99952
58.015 7.249437
58.020 7.137241
58.025 7.090463
58.030 7.502418
58.035 7.664366
58.040 7.653704
58.045 7.780404
58.050 8.028557
58.055 8.23085
58.060 8.226141
58.065 8.523586
58.070 8.397302
58.075 8.109053
58.080 7.792068
58.085 7.469755
58.090 7.320965
58.095 7.456343
58.100 7.16837
58.105 7.152434
58.110 7.269969
58.115 7.673986
58.120 7.579661
58.125 7.564301
58.130 7.750731
58.135 8.098947
58.140 8.138349
58.145 8.25052
58.150 8.105089
58.155 8.191547
58.160 8.244455
58.165 8.160627
58.170 7.697828
58.175 7.59826
58.180 7.411667
58.185 7.29437
58.190 7.164886
58.195 7.066599
58.200 6.921159
58.205 7.491802
58.210 7.719564
58.215 8.213199
58.220 8.721133
58.225 8.803312
58.230 9.019724
58.235 8.880471
58.240 8.411122
58.245 8.546439
58.250 8.097796
58.255 8.044737
58.260 8.445941
58.265 8.130259
58.270 8.004356
58.275 8.186752
58.280 7.924999
58.285 8.346661
58.290 8.628531
58.295 8.514558
58.300 8.848962
58.305 9.205989
58.310 9.620919
58.315 9.728677
58.320 9.503775
58.325 8.857368
58.330 8.884699
58.335 8.997811
58.340 8.59316
58.345 8.257257
58.350 8.556415
58.355 8.408825
58.360 8.177845
58.365 8.036788
58.370 7.847044
58.375 8.043153
58.380 7.956542
58.385 8.06829
58.390 7.926473
58.395 7.757797
58.400 7.479472
58.405 7.68762
58.410 7.750383
58.415 7.811848
58.420 7.649165
58.425 7.882947
58.430 8.316607
58.435 8.631999
58.440 8.285612
58.445 8.321084
58.450 8.150479
58.455 7.946802
58.460 8.028312
58.465 8.216863
58.470 8.466935
58.475 8.646935
58.480 8.636329
58.485 8.577107
58.490 8.582704
58.495 8.547069
58.500 8.2822
58.505 7.942743
58.510 7.799285
58.515 7.694867
58.520 7.918656
58.525 8.353202
58.530 8.831215
58.535 8.542538
58.540 8.477989
58.545 8.723795
58.550 8.424109
58.555 7.92549
58.560 7.366722
58.565 7.115649
58.570 7.513751
58.575 7.832628
58.580 7.742806
58.585 8.154804
58.590 8.648506
58.595 8.948961
58.600 8.927841
58.605 8.746356
58.610 8.661844
58.615 8.713949
58.620 8.54272
58.625 8.235382
58.630 7.892493
58.635 7.66305
58.640 7.542735
58.645 7.424402
58.650 7.319338
58.655 7.606972
58.660 7.940299
58.665 7.994446
58.670 8.053244
58.675 8.529917
58.680 8.73319
58.685 8.667606
58.690 8.421456
58.695 8.253486
58.700 8.144897
58.705 8.371225
58.710 8.053982
58.715 8.059417
58.720 8.226218
58.725 8.33214
58.730 8.441843
58.735 8.470513
58.740 8.542763
58.745 8.677703
58.750 8.350524
58.755 7.965063
58.760 7.708607
58.765 7.788256
58.770 7.790923
