!@!!GADDS PLOTSO FILE: Chi integration type
!@!!Title/SampleName: map-185
!@!!Comment: ?
!@!!User: Bruker Instrument Administrator
!@!!Site: University of Illinois Chicago
!@!!Frame: map-185_01_000.gfrm
!@!!Wavelengths    1.54184   1.54056   1.54439
!@!!Frame angles: 2Theta: 63.000 Omega: 50.000 Phi: 0.000 Chi: 90.000
!@!!Integration range: 2Theta: 53.000 to 73.000  Gamma: -105.000 to -75.000
!@!!Integration method: bin normalized
!@!N
!@!SS
!@!M
!@!L 0.0 0.0 0.0 0.0
!@!XDegrees
!@!YCounts
53.000 9.108793
53.005 8.802573
53.010 8.739619
53.015 8.928852
53.020 8.732851
53.025 8.538682
53.030 8.838237
53.035 9.102763
53.040 9.268761
53.045 9.328273
53.050 9.856887
53.055 10.299924
53.060 10.183264
53.065 9.770172
53.070 9.445489
53.075 9.122094
53.080 8.341958
53.085 7.687351
53.090 7.748383
53.095 8.2442
53.100 8.366268
53.105 8.520045
53.110 8.772584
53.115 9.287905
53.120 9.163208
53.125 8.970842
53.130 9.01797
53.135 9.065129
53.140 8.88898
53.145 8.617135
53.150 8.408648
53.155 8.405326
53.160 8.555848
53.165 8.53592
53.170 8.557035
53.175 8.787066
53.180 8.885244
53.185 8.797113
53.190 8.45814
53.195 8.153966
53.200 8.622501
53.205 8.538811
53.210 8.692102
53.215 9.15112
53.220 9.823903
53.225 10.160995
53.230 10.105879
53.235 9.530203
53.240 9.429245
53.245 8.93346
53.250 8.362848
53.255 8.158512
53.260 8.526592
53.265 8.653828
53.270 8.667126
53.275 8.309078
53.280 8.45942
53.285 8.745919
53.290 8.757946
53.295 8.230281
53.300 8.264958
53.305 8.534498
53.310 8.917055
53.315 8.850863
53.320 8.866722
53.325 8.853848
53.330 9.278806
53.335 9.47185
53.340 9.484104
53.345 9.606667
53.350 9.606585
53.355 9.037126
53.360 8.89838
53.365 8.612621
53.370 8.416485
53.375 8.873409
53.380 9.156163
53.385 9.398654
53.390 9.875472
53.395 9.898623
53.400 9.7873
53.405 9.676446
53.410 9.346725
53.415 9.261567
53.420 9.071853
53.425 8.595712
53.430 8.201599
53.435 8.386844
53.440 8.312609
53.445 8.366214
53.450 8.475619
53.455 8.775144
53.460 9.283281
53.465 9.493332
53.470 9.510399
53.475 9.787928
53.480 9.632304
53.485 9.436393
53.490 8.939526
53.495 8.744737
53.500 9.054552
53.505 8.693114
53.510 8.265586
53.515 8.15836
53.520 8.371734
53.525 8.90052
53.530 8.714009
53.535 8.466263
53.540 8.943931
53.545 9.374206
53.550 9.638983
53.555 9.623419
53.560 9.422007
53.565 9.691043
53.570 9.866107
53.575 9.878725
53.580 9.720949
53.585 9.659743
53.590 9.755309
53.595 10.15134
53.600 10.423227
53.605 10.271636
53.610 10.463243
53.615 10.488328
53.620 10.35745
53.625 10.31105
53.630 9.621155
53.635 9.572096
53.640 9.493776
53.645 9.235454
53.650 9.049868
53.655 9.079381
53.660 9.061559
53.665 9.003255
53.670 9.024808
53.675 9.071136
53.680 9.399584
53.685 9.400263
53.690 9.412721
53.695 9.978922
53.700 10.515051
53.705 10.386301
53.710 10.02576
53.715 9.658299
53.720 9.691173
53.725 9.66444
53.730 9.324394
53.735 8.801541
53.740 9.299212
53.745 9.602707
53.750 9.923517
53.755 9.94773
53.760 10.010387
53.765 9.995425
53.770 10.217211
53.775 10.224852
53.780 10.139337
53.785 10.269459
53.790 10.186392
53.795 10.234361
53.800 10.417616
53.805 10.395559
53.810 10.440733
53.815 10.050553
53.820 9.674204
53.825 9.375472
53.830 9.107118
53.835 8.701994
53.840 8.620649
53.845 9.031773
53.850 9.333129
53.855 9.549846
53.860 9.751652
53.865 9.995085
53.870 10.225982
53.875 10.045029
53.880 9.750634
53.885 9.575472
53.890 9.546014
53.895 8.963326
53.900 8.756912
53.905 8.324977
53.910 8.339566
53.915 8.351389
53.920 8.396861
53.925 8.459416
53.930 8.891131
53.935 8.821508
53.940 9.020145
53.945 9.047096
53.950 9.115746
53.955 9.057431
53.960 9.380728
53.965 9.711236
53.970 9.830948
53.975 9.810088
53.980 9.669729
53.985 9.787887
53.990 9.629047
53.995 9.562173
54.000 9.553551
54.005 9.642729
54.010 9.777432
54.015 10.155611
54.020 10.046644
54.025 10.596188
54.030 10.410585
54.035 9.88795
54.040 10.007046
54.045 9.694114
54.050 9.566526
54.055 9.966056
54.060 9.972869
54.065 9.996537
54.070 9.918087
54.075 9.742016
54.080 10.175844
54.085 10.098222
54.090 9.950799
54.095 9.821098
54.100 10.478075
54.105 10.920536
54.110 10.660881
54.115 10.415421
54.120 10.294836
54.125 10.251234
54.130 10.074116
54.135 9.721435
54.140 9.603259
54.145 9.845797
54.150 9.787614
54.155 9.691734
54.160 9.689335
54.165 9.339833
54.170 9.585315
54.175 9.565152
54.180 9.913038
54.185 9.952167
54.190 10.121124
54.195 10.396426
54.200 10.770595
54.205 10.508024
54.210 10.076562
54.215 9.549399
54.220 9.160689
54.225 8.658754
54.230 9.089025
54.235 9.260229
54.240 9.388413
54.245 10.272579
54.250 10.786423
54.255 11.038145
54.260 10.901319
54.265 10.142159
54.270 10.02737
54.275 9.938822
54.280 9.439282
54.285 9.561214
54.290 9.973431
54.295 10.113484
54.300 10.655575
54.305 11.009955
54.310 10.896589
54.315 11.29876
54.320 11.131697
54.325 10.99777
54.330 10.916473
54.335 10.801755
54.340 10.488527
54.345 10.278678
54.350 10.10689
54.355 10.36227
54.360 10.57851
54.365 10.45458
54.370 10.573935
54.375 11.001077
54.380 10.882906
54.385 10.358592
54.390 10.208423
54.395 10.266684
54.400 10.468214
54.405 10.325742
54.410 10.437103
54.415 10.658982
54.420 11.261707
54.425 11.44777
54.430 11.092716
54.435 10.395539
54.440 10.072177
54.445 9.793008
54.450 9.852059
54.455 9.540773
54.460 9.284849
54.465 9.501616
54.470 10.01331
54.475 9.88133
54.480 10.179045
54.485 9.991078
54.490 9.981997
54.495 10.637994
54.500 10.622398
54.505 10.57515
54.510 10.769508
54.515 10.496215
54.520 10.638309
54.525 10.512998
54.530 10.302895
54.535 10.256863
54.540 10.210804
54.545 9.989518
54.550 10.285116
54.555 10.344253
54.560 10.228703
54.565 10.093945
54.570 9.941466
54.575 10.150899
54.580 10.22926
54.585 10.265027
54.590 10.331949
54.595 10.25566
54.600 9.974792
54.605 10.261754
54.610 10.494647
54.615 10.537948
54.620 10.043487
54.625 9.657709
54.630 10.201717
54.635 10.847058
54.640 10.116182
54.645 9.490121
54.650 9.25596
54.655 9.329585
54.660 9.593767
54.665 9.517153
54.670 9.534842
54.675 10.559818
54.680 10.51898
54.685 10.753996
54.690 11.074586
54.695 10.857477
54.700 10.72298
54.705 10.494737
54.710 10.114908
54.715 10.502789
54.720 10.582178
54.725 10.702997
54.730 10.811971
54.735 10.528183
54.740 10.438878
54.745 10.059047
54.750 9.736652
54.755 9.615091
54.760 9.487789
54.765 9.659957
54.770 9.587191
54.775 9.703695
54.780 9.981112
54.785 10.137493
54.790 10.216673
54.795 10.048448
54.800 9.671066
54.805 9.99688
54.810 10.128028
54.815 10.298066
54.820 10.102221
54.825 9.754101
54.830 9.9264
54.835 10.265255
54.840 10.369888
54.845 10.443949
54.850 10.863648
54.855 11.082082
54.860 11.505371
54.865 11.19694
54.870 11.152659
54.875 11.224291
54.880 11.438432
54.885 11.496837
54.890 11.482044
54.895 11.412153
54.900 11.910357
54.905 11.888165
54.910 11.734247
54.915 11.309221
54.920 10.592583
54.925 10.664932
54.930 10.539181
54.935 10.039912
54.940 10.112002
54.945 10.314821
54.950 10.687088
54.955 11.515515
54.960 11.501055
54.965 11.300775
54.970 11.397286
54.975 11.254059
54.980 11.142121
54.985 10.786682
54.990 10.352921
54.995 10.675311
55.000 10.868098
55.005 10.784023
55.010 11.032391
55.015 11.37858
55.020 11.567264
55.025 11.598414
55.030 11.251632
55.035 11.445444
55.040 11.488926
55.045 11.247616
55.050 10.880333
55.055 10.368732
55.060 10.242857
55.065 10.308335
55.070 10.404214
55.075 10.416019
55.080 10.197227
55.085 10.664079
55.090 11.170015
55.095 10.800237
55.100 10.945825
55.105 10.740073
55.110 10.960331
55.115 11.228219
55.120 11.1998
55.125 11.348841
55.130 11.498775
55.135 11.30759
55.140 11.369909
55.145 11.269294
55.150 10.949822
55.155 11.192955
55.160 11.210415
55.165 11.262236
55.170 11.809384
55.175 11.768174
55.180 12.047544
55.185 12.164147
55.190 11.939617
55.195 11.943401
55.200 11.89857
55.205 11.805447
55.210 12.022161
55.215 12.153461
55.220 11.952877
55.225 11.788829
55.230 11.95465
55.235 12.018455
55.240 11.629329
55.245 11.582863
55.250 11.579886
55.255 11.08786
55.260 10.994761
55.265 11.280877
55.270 11.445065
55.275 11.594685
55.280 11.456724
55.285 11.499172
55.290 11.760767
55.295 11.952139
55.300 11.602119
55.305 11.46583
55.310 10.891475
55.315 10.476795
55.320 10.30549
55.325 10.647004
55.330 10.30838
55.335 10.470214
55.340 10.440542
55.345 10.832499
55.350 11.009765
55.355 11.475268
55.360 11.385333
55.365 11.275462
55.370 11.457509
55.375 11.459144
55.380 11.584001
55.385 11.73702
55.390 11.717828
55.395 11.558559
55.400 11.607755
55.405 11.364758
55.410 11.448943
55.415 11.1493
55.420 10.688666
55.425 10.117992
55.430 10.035353
55.435 10.285369
55.440 10.384032
55.445 10.333714
55.450 10.559722
55.455 10.778663
55.460 11.363821
55.465 11.729352
55.470 11.268687
55.475 11.265115
55.480 11.000872
55.485 10.813197
55.490 10.888721
55.495 11.023864
55.500 11.161662
55.505 11.723343
55.510 11.537936
55.515 11.799445
55.520 11.902917
55.525 11.93679
55.530 12.026887
55.535 11.876047
55.540 11.713636
55.545 11.652841
55.550 12.028718
55.555 11.842725
55.560 11.091518
55.565 10.447638
55.570 10.087571
55.575 10.185026
55.580 10.217219
55.585 10.119164
55.590 10.340057
55.595 10.397305
55.600 10.61447
55.605 10.772841
55.610 10.919166
55.615 10.99025
55.620 10.265724
55.625 10.609315
55.630 10.984639
55.635 10.758507
55.640 10.711874
55.645 10.353925
55.650 10.410303
55.655 11.152287
55.660 11.344597
55.665 11.549762
55.670 11.415484
55.675 11.14447
55.680 11.095379
55.685 11.236034
55.690 11.445995
55.695 11.929116
55.700 11.631658
55.705 11.729936
55.710 12.183187
55.715 12.517417
55.720 12.803416
55.725 12.346973
55.730 11.857171
55.735 12.034199
55.740 12.049872
55.745 11.881257
55.750 11.673366
55.755 11.240036
55.760 10.958247
55.765 10.893528
55.770 10.774053
55.775 11.001903
55.780 11.381139
55.785 11.376659
55.790 11.353064
55.795 11.43187
55.800 11.799644
55.805 12.395115
55.810 12.17377
55.815 11.805049
55.820 12.107258
55.825 12.24678
55.830 12.479045
55.835 12.198006
55.840 11.582609
55.845 11.656803
55.850 11.841361
55.855 11.575219
55.860 11.466899
55.865 11.457396
55.870 11.218832
55.875 11.248949
55.880 11.607398
55.885 11.487611
55.890 11.425808
55.895 11.816516
55.900 11.548201
55.905 11.941039
55.910 12.156472
55.915 11.809731
55.920 11.519869
55.925 11.327924
55.930 10.949929
55.935 11.347182
55.940 11.174314
55.945 11.557347
55.950 12.250303
55.955 12.597839
55.960 12.898059
55.965 12.682595
55.970 12.383951
55.975 12.625973
55.980 11.932943
55.985 11.44715
55.990 11.027655
55.995 11.230103
56.000 11.518678
56.005 11.500002
56.010 11.598083
56.015 11.616246
56.020 11.281218
56.025 11.016577
56.030 11.212972
56.035 11.374936
56.040 11.457424
56.045 11.504814
56.050 11.7351
56.055 12.000384
56.060 12.063426
56.065 11.805012
56.070 11.559954
56.075 11.304816
56.080 11.518851
56.085 11.425042
56.090 11.326867
56.095 11.09381
56.100 10.794365
56.105 11.119532
56.110 11.188866
56.115 10.784213
56.120 10.969009
56.125 11.351032
56.130 11.96096
56.135 11.98721
56.140 12.149619
56.145 12.106581
56.150 11.888054
56.155 11.616446
56.160 11.577333
56.165 11.210011
56.170 10.951453
56.175 10.553785
56.180 10.577976
56.185 11.273869
56.190 11.555983
56.195 11.338656
56.200 11.168049
56.205 11.544681
56.210 12.055082
56.215 11.495868
56.220 11.11616
56.225 11.170616
56.230 11.705417
56.235 11.941228
56.240 11.830077
56.245 11.86407
56.250 12.443594
56.255 12.065443
56.260 12.007103
56.265 12.532875
56.270 12.728784
56.275 12.352175
56.280 11.945954
56.285 12.006513
56.290 12.462286
56.295 12.257142
56.300 11.225654
56.305 11.078157
56.310 11.524233
56.315 12.18994
56.320 12.072215
56.325 11.740869
56.330 11.935698
56.335 12.231314
56.340 12.400514
56.345 12.745343
56.350 12.730606
56.355 12.939241
56.360 12.981714
56.365 13.009781
56.370 12.656234
56.375 12.299998
56.380 11.740856
56.385 11.612986
56.390 11.513312
56.395 11.893196
56.400 12.225638
56.405 12.407783
56.410 12.592691
56.415 12.682733
56.420 12.489651
56.425 12.513581
56.430 12.267156
56.435 11.974501
56.440 12.044578
56.445 11.67908
56.450 11.812201
56.455 12.287277
56.460 12.629589
56.465 12.096178
56.470 11.785119
56.475 11.296914
56.480 11.567296
56.485 11.728857
56.490 11.78653
56.495 11.983439
56.500 12.381565
56.505 13.026776
56.510 13.385961
56.515 12.950125
56.520 12.234222
56.525 11.683448
56.530 11.447405
56.535 11.593248
56.540 11.608249
56.545 11.760259
56.550 11.802475
56.555 12.1105
56.560 12.237782
56.565 12.214715
56.570 12.546889
56.575 12.855326
56.580 12.909326
56.585 13.15354
56.590 12.922222
56.595 12.871589
56.600 12.84008
56.605 12.573858
56.610 12.539495
56.615 12.462015
56.620 12.584599
56.625 12.973585
56.630 12.803409
56.635 13.226559
56.640 12.883544
56.645 12.660141
56.650 12.860228
56.655 12.685596
56.660 12.826027
56.665 12.792042
56.670 12.039357
56.675 12.054993
56.680 12.436927
56.685 12.214459
56.690 12.128086
56.695 11.950937
56.700 11.825604
56.705 12.250215
56.710 12.120698
56.715 12.104763
56.720 12.319182
56.725 12.171371
56.730 12.207089
56.735 12.382833
56.740 12.319492
56.745 12.192295
56.750 11.7352
56.755 11.735283
56.760 11.865156
56.765 11.925622
56.770 11.813127
56.775 11.927584
56.780 12.525092
56.785 13.103205
56.790 13.373337
56.795 13.102247
56.800 13.319936
56.805 13.423569
56.810 13.585277
56.815 13.585898
56.820 13.117867
56.825 13.043864
56.830 13.282255
56.835 12.911376
56.840 12.449616
56.845 12.449942
56.850 12.162114
56.855 12.581753
56.860 12.271955
56.865 12.060245
56.870 12.473412
56.875 12.693706
56.880 12.427865
56.885 12.286348
56.890 11.768061
56.895 11.92818
56.900 12.276502
56.905 11.985305
56.910 11.83261
56.915 11.746671
56.920 11.985156
56.925 11.922518
56.930 12.124476
56.935 12.254181
56.940 12.170019
56.945 12.200595
56.950 11.58877
56.955 11.755137
56.960 11.904277
56.965 11.773192
56.970 11.909925
56.975 12.681897
56.980 13.095357
56.985 13.701473
56.990 13.535088
56.995 13.580357
57.000 13.279109
57.005 12.66205
57.010 12.292766
57.015 12.0865
57.020 11.810265
57.025 11.842888
57.030 11.777757
57.035 11.695209
57.040 11.8385
57.045 11.858336
57.050 11.71886
57.055 11.68821
57.060 11.300983
57.065 11.338253
57.070 11.971607
57.075 11.456216
57.080 11.168686
57.085 11.000175
57.090 10.556909
57.095 10.531745
57.100 10.304722
57.105 9.959106
57.110 10.345865
57.115 10.611246
57.120 10.950313
57.125 11.563018
57.130 11.489488
57.135 11.482275
57.140 11.377611
57.145 11.436776
57.150 11.210617
57.155 10.733059
57.160 10.462348
57.165 10.741568
57.170 11.063937
57.175 11.06317
57.180 10.80971
57.185 11.302625
57.190 11.479264
57.195 11.445154
57.200 11.473218
57.205 11.529905
57.210 12.08016
57.215 12.4891
57.220 12.558547
57.225 12.790802
57.230 12.964368
57.235 12.439404
57.240 12.276423
57.245 12.294265
57.250 11.999231
57.255 12.001213
57.260 12.272483
57.265 12.58687
57.270 12.878458
57.275 12.873713
57.280 12.517893
57.285 12.354824
57.290 11.913092
57.295 11.715828
57.300 11.640362
57.305 11.822037
57.310 11.559904
57.315 11.713133
57.320 12.004008
57.325 12.475583
57.330 12.425488
57.335 12.002907
57.340 11.781724
57.345 11.975007
57.350 12.67055
57.355 12.516442
57.360 12.439879
57.365 12.75444
57.370 12.885896
57.375 13.187925
57.380 13.012208
57.385 12.221587
57.390 12.695648
57.395 12.682132
57.400 12.537675
57.405 12.681284
57.410 12.618755
57.415 12.847816
57.420 13.417385
57.425 12.759449
57.430 12.969102
57.435 13.608925
57.440 13.593508
57.445 13.864728
57.450 13.515073
57.455 13.300336
57.460 13.674431
57.465 13.447219
57.470 13.202044
57.475 13.045543
57.480 12.831745
57.485 12.517314
57.490 12.197997
57.495 12.496667
57.500 12.502042
57.505 12.054263
57.510 11.922673
57.515 11.821741
57.520 12.250934
57.525 12.313787
57.530 11.948196
57.535 12.007775
57.540 12.236904
57.545 12.648221
57.550 12.820157
57.555 12.737709
57.560 12.625768
57.565 12.586674
57.570 12.446332
57.575 12.483663
57.580 12.457528
57.585 12.113976
57.590 12.164227
57.595 12.436276
57.600 12.869448
57.605 13.513802
57.610 13.663113
57.615 13.191721
57.620 13.566924
57.625 14.041387
57.630 14.204983
57.635 13.680387
57.640 13.134816
57.645 13.087914
57.650 13.084183
57.655 12.759258
57.660 12.519014
57.665 12.184345
57.670 12.254916
57.675 12.798649
57.680 12.470125
57.685 12.851086
57.690 12.883204
57.695 12.632057
57.700 12.68632
57.705 12.287745
57.710 11.747101
57.715 12.170741
57.720 12.469118
57.725 12.725812
57.730 12.709346
57.735 12.56392
57.740 12.490187
57.745 13.10469
57.750 13.188623
57.755 12.51326
57.760 12.261996
57.765 12.078822
57.770 12.338472
57.775 12.62408
57.780 12.605923
57.785 12.544027
57.790 13.225697
57.795 13.520943
57.800 13.666004
57.805 14.131646
57.810 14.409291
57.815 14.429401
57.820 14.636087
57.825 14.348358
57.830 14.533075
57.835 14.740496
57.840 14.047916
57.845 13.616252
57.850 13.460328
57.855 13.021179
57.860 12.685143
57.865 12.613084
57.870 12.980967
57.875 13.468603
57.880 13.343333
57.885 12.940579
57.890 13.462155
57.895 13.658889
57.900 12.917021
57.905 12.192363
57.910 12.483403
57.915 12.337797
57.920 12.447724
57.925 12.280612
57.930 12.40418
57.935 12.655478
57.940 12.594937
57.945 12.269192
57.950 12.76793
57.955 13.248643
57.960 12.702072
57.965 12.78144
57.970 12.75948
57.975 12.834464
57.980 12.578251
57.985 12.382853
57.990 12.125937
57.995 12.804823
58.000 12.628545
58.005 12.885334
58.010 13.061168
58.015 13.422397
58.020 13.743544
58.025 14.079863
58.030 14.084224
58.035 14.514032
58.040 14.740229
58.045 14.894284
58.050 14.754665
58.055 14.658752
58.060 14.40374
58.065 14.389072
58.070 14.232056
58.075 14.417587
58.080 14.057763
58.085 13.831898
58.090 13.931908
58.095 14.287727
58.100 14.033536
58.105 13.557985
58.110 13.482294
58.115 13.41009
58.120 13.059259
58.125 12.559636
58.130 11.487403
58.135 11.482283
58.140 11.988382
58.145 11.876409
58.150 12.165359
58.155 12.693419
58.160 12.68576
58.165 13.094758
58.170 13.334238
58.175 13.146454
58.180 13.29428
58.185 13.377581
58.190 13.07019
58.195 13.300537
58.200 13.227977
58.205 13.303533
58.210 13.527187
58.215 12.860307
58.220 12.785062
58.225 12.804524
58.230 12.435714
58.235 12.525785
58.240 12.014088
58.245 11.31459
58.250 11.631882
58.255 11.908231
58.260 12.423047
58.265 12.65796
58.270 12.589459
58.275 12.815099
58.280 13.286824
58.285 13.579171
58.290 13.913477
58.295 13.870718
58.300 14.040516
58.305 14.224545
58.310 14.429193
58.315 14.574505
58.320 14.093623
58.325 14.586937
58.330 14.621686
58.335 15.014058
58.340 15.116521
58.345 14.660761
58.350 14.335264
58.355 14.462758
58.360 13.724553
58.365 13.323909
58.370 12.792116
58.375 12.924386
58.380 13.27737
58.385 13.484324
58.390 13.973037
58.395 14.098824
58.400 14.777778
58.405 14.611053
58.410 14.447795
58.415 14.647433
58.420 15.178671
58.425 14.75691
58.430 14.810037
58.435 14.484167
58.440 14.58992
58.445 14.547713
58.450 14.500866
58.455 14.187789
58.460 14.185917
58.465 14.46284
58.470 14.575255
58.475 14.936596
58.480 15.17471
58.485 14.95736
58.490 14.870551
58.495 15.605316
58.500 15.587071
58.505 15.614116
