!@!!GADDS PLOTSO FILE: Chi integration type
!@!!Title/SampleName: map-79
!@!!Comment: ?
!@!!User: Bruker Instrument Administrator
!@!!Site: University of Illinois Chicago
!@!!Frame: map-79_01_000.gfrm
!@!!Wavelengths    1.54184   1.54056   1.54439
!@!!Frame angles: 2Theta: 63.000 Omega: 50.000 Phi: 0.000 Chi: 90.000
!@!!Integration range: 2Theta: 53.000 to 73.000  Gamma: -105.000 to -75.000
!@!!Integration method: bin normalized
!@!N
!@!SS
!@!M
!@!L 0.0 0.0 0.0 0.0
!@!XDegrees
!@!YCounts
53.000 9.018476
53.005 8.968856
53.010 8.831715
53.015 9.110864
53.020 9.217283
53.025 9.005203
53.030 9.307403
53.035 9.342028
53.040 9.239536
53.045 9.117212
53.050 8.195603
53.055 8.252302
53.060 8.446606
53.065 8.476113
53.070 9.306254
53.075 9.752893
53.080 10.479575
53.085 11.046621
53.090 11.312644
53.095 11.783796
53.100 11.780752
53.105 11.36569
53.110 11.040192
53.115 10.77407
53.120 10.468973
53.125 9.927171
53.130 9.57668
53.135 9.328912
53.140 9.572163
53.145 9.991965
53.150 10.240285
53.155 10.110755
53.160 10.306112
53.165 10.403195
53.170 10.473775
53.175 10.173758
53.180 9.702777
53.185 9.781977
53.190 10.01664
53.195 10.228785
53.200 10.156364
53.205 10.437306
53.210 10.544799
53.215 10.637897
53.220 10.597947
53.225 10.290536
53.230 10.05479
53.235 10.290319
53.240 9.909692
53.245 9.932744
53.250 9.462992
53.255 9.914649
53.260 9.998863
53.265 9.804626
53.270 9.889538
53.275 9.782508
53.280 10.035076
53.285 9.51346
53.290 9.012067
53.295 9.096828
53.300 9.41971
53.305 9.735565
53.310 10.040503
53.315 10.742696
53.320 11.609571
53.325 11.860315
53.330 11.73541
53.335 11.172746
53.340 10.352296
53.345 10.171015
53.350 9.464368
53.355 9.302038
53.360 9.348294
53.365 9.112226
53.370 9.578528
53.375 10.002919
53.380 10.347777
53.385 10.37334
53.390 9.919974
53.395 9.467896
53.400 9.521085
53.405 9.788926
53.410 9.91153
53.415 9.472826
53.420 9.74839
53.425 10.467894
53.430 10.704094
53.435 10.508075
53.440 10.511646
53.445 10.742289
53.450 11.399744
53.455 11.200816
53.460 11.116902
53.465 11.263247
53.470 11.653769
53.475 11.50022
53.480 10.940124
53.485 10.591681
53.490 10.441697
53.495 10.606823
53.500 10.41127
53.505 9.975804
53.510 9.974568
53.515 9.715584
53.520 9.65472
53.525 9.631538
53.530 9.5646
53.535 9.667885
53.540 9.542094
53.545 9.375371
53.550 9.73021
53.555 9.81001
53.560 10.090604
53.565 10.138941
53.570 10.179428
53.575 10.123246
53.580 9.934329
53.585 9.803918
53.590 9.559392
53.595 9.13662
53.600 9.211577
53.605 9.218538
53.610 10.011344
53.615 10.474234
53.620 10.649419
53.625 10.914711
53.630 11.130424
53.635 11.345165
53.640 11.310489
53.645 10.893703
53.650 10.708173
53.655 10.464869
53.660 10.488624
53.665 10.94219
53.670 11.064973
53.675 10.982299
53.680 10.839493
53.685 10.70116
53.690 11.005452
53.695 11.098557
53.700 10.608021
53.705 10.937243
53.710 11.105533
53.715 11.246218
53.720 11.482578
53.725 11.509426
53.730 11.203348
53.735 10.812807
53.740 10.066893
53.745 10.026765
53.750 9.616228
53.755 9.888275
53.760 10.122252
53.765 10.56756
53.770 10.599522
53.775 10.627933
53.780 10.835973
53.785 11.214923
53.790 10.856419
53.795 10.018644
53.800 9.831083
53.805 10.022861
53.810 10.517162
53.815 10.338284
53.820 10.321673
53.825 10.810973
53.830 10.886869
53.835 10.728272
53.840 10.301882
53.845 9.84656
53.850 10.069263
53.855 9.835752
53.860 9.757321
53.865 10.199023
53.870 10.099865
53.875 10.202053
53.880 10.155213
53.885 10.016581
53.890 9.988834
53.895 9.858833
53.900 9.744898
53.905 9.683753
53.910 9.751082
53.915 10.307145
53.920 10.424499
53.925 10.430561
53.930 10.759517
53.935 11.105574
53.940 11.458467
53.945 11.684235
53.950 11.649426
53.955 12.086705
53.960 12.001442
53.965 11.717454
53.970 11.651175
53.975 11.605334
53.980 11.199548
53.985 11.08295
53.990 10.972445
53.995 10.764357
54.000 11.048091
54.005 11.02539
54.010 11.42089
54.015 11.408815
54.020 10.973905
54.025 11.147968
54.030 11.545058
54.035 11.289049
54.040 10.986649
54.045 10.925512
54.050 10.96276
54.055 11.201083
54.060 11.148349
54.065 10.833254
54.070 10.813864
54.075 10.736143
54.080 11.12498
54.085 11.037177
54.090 10.829574
54.095 11.115239
54.100 11.172154
54.105 11.758963
54.110 11.820791
54.115 11.525827
54.120 11.541579
54.125 11.184134
54.130 10.872807
54.135 10.780458
54.140 10.378812
54.145 10.226203
54.150 10.187047
54.155 9.84791
54.160 10.07064
54.165 9.743972
54.170 10.009533
54.175 10.070262
54.180 10.116841
54.185 10.313009
54.190 10.712087
54.195 10.8967
54.200 11.214943
54.205 11.230814
54.210 11.506073
54.215 11.962628
54.220 12.04581
54.225 12.176798
54.230 12.170838
54.235 12.49422
54.240 12.633362
54.245 12.93115
54.250 12.962308
54.255 12.853364
54.260 13.123186
54.265 13.342657
54.270 13.483822
54.275 13.112819
54.280 12.577771
54.285 12.014528
54.290 12.00352
54.295 11.686109
54.300 11.140781
54.305 10.722754
54.310 10.679894
54.315 10.273664
54.320 10.510163
54.325 9.693098
54.330 9.429532
54.335 9.821299
54.340 9.704615
54.345 10.045348
54.350 10.468868
54.355 10.96077
54.360 11.182803
54.365 11.086168
54.370 10.950316
54.375 10.652961
54.380 10.523523
54.385 10.57961
54.390 10.29528
54.395 10.37816
54.400 10.180777
54.405 10.079645
54.410 9.964728
54.415 9.729788
54.420 9.613511
54.425 9.954476
54.430 9.931005
54.435 10.109077
54.440 10.296755
54.445 10.468171
54.450 10.906155
54.455 11.176018
54.460 10.863291
54.465 11.091444
54.470 11.523388
54.475 11.813092
54.480 12.103322
54.485 11.736072
54.490 11.792602
54.495 12.125488
54.500 11.926903
54.505 11.59024
54.510 11.536026
54.515 11.504663
54.520 11.240265
54.525 11.386312
54.530 11.753075
54.535 12.056436
54.540 11.727398
54.545 11.420178
54.550 11.41777
54.555 11.712015
54.560 11.225961
54.565 10.71309
54.570 10.695156
54.575 10.89
54.580 11.003289
54.585 11.465324
54.590 11.419285
54.595 11.618881
54.600 11.342818
54.605 11.424273
54.610 11.189811
54.615 10.744262
54.620 10.279892
54.625 10.175329
54.630 10.430957
54.635 10.74883
54.640 11.084599
54.645 11.621845
54.650 11.793582
54.655 11.870697
54.660 11.769427
54.665 11.702641
54.670 11.700493
54.675 11.302717
54.680 10.932542
54.685 11.114677
54.690 11.00707
54.695 11.291561
54.700 10.985788
54.705 11.023421
54.710 11.399746
54.715 11.676271
54.720 11.446378
54.725 11.498529
54.730 11.623254
54.735 11.901722
54.740 11.661953
54.745 11.059574
54.750 11.166937
54.755 11.146994
54.760 11.538571
54.765 11.629887
54.770 11.678559
54.775 11.538291
54.780 11.928477
54.785 11.889919
54.790 11.828719
54.795 11.250385
54.800 11.121195
54.805 11.453049
54.810 11.558994
54.815 11.117794
54.820 11.371799
54.825 11.762708
54.830 11.828909
54.835 11.813084
54.840 11.322144
54.845 11.40814
54.850 11.952662
54.855 11.745098
54.860 11.544831
54.865 11.414727
54.870 11.325814
54.875 11.277268
54.880 11.367366
54.885 11.326488
54.890 11.80157
54.895 11.90124
54.900 11.982981
54.905 12.213268
54.910 12.541549
54.915 12.200722
54.920 11.490774
54.925 10.909694
54.930 11.127024
54.935 11.142313
54.940 11.102846
54.945 11.348543
54.950 11.562133
54.955 11.667488
54.960 11.756803
54.965 11.972047
54.970 12.021001
54.975 11.57491
54.980 11.253061
54.985 11.312812
54.990 11.769077
54.995 12.010642
55.000 11.921969
55.005 11.660739
55.010 11.683559
55.015 11.729638
55.020 12.339532
55.025 12.471756
55.030 12.136465
55.035 11.985321
55.040 11.961918
55.045 12.47545
55.050 12.469388
55.055 12.363577
55.060 12.486739
55.065 12.362164
55.070 12.543792
55.075 12.847763
55.080 12.481956
55.085 12.28892
55.090 11.619598
55.095 11.34306
55.100 11.285622
55.105 11.186443
55.110 11.041429
55.115 10.66718
55.120 10.021878
55.125 10.091675
55.130 10.26788
55.135 10.551706
55.140 10.717734
55.145 11.059323
55.150 11.485554
55.155 12.135844
55.160 11.883821
55.165 11.44051
55.170 11.422225
55.175 11.306583
55.180 10.96831
55.185 10.976214
55.190 11.082142
55.195 11.043056
55.200 11.639125
55.205 11.606281
55.210 11.849603
55.215 11.967548
55.220 12.108435
55.225 12.391152
55.230 12.740211
55.235 11.986582
55.240 11.446848
55.245 11.42134
55.250 11.235816
55.255 10.887518
55.260 10.631162
55.265 10.30063
55.270 10.444059
55.275 10.746071
55.280 11.044318
55.285 11.329697
55.290 11.142352
55.295 10.834941
55.300 11.437737
55.305 12.01017
55.310 11.86725
55.315 11.591777
55.320 11.52471
55.325 11.468187
55.330 11.402827
55.335 11.046506
55.340 10.643352
55.345 10.707188
55.350 10.888676
55.355 11.241055
55.360 11.70125
55.365 12.228997
55.370 12.005448
55.375 11.762578
55.380 11.675993
55.385 11.965815
55.390 11.64929
55.395 11.917754
55.400 11.296198
55.405 11.665565
55.410 11.808599
55.415 11.948318
55.420 11.564325
55.425 11.884967
55.430 11.653029
55.435 11.979554
55.440 11.583162
55.445 11.594633
55.450 11.315613
55.455 11.165426
55.460 11.111547
55.465 11.026736
55.470 11.074964
55.475 11.506595
55.480 11.750408
55.485 12.51231
55.490 13.068707
55.495 13.477317
55.500 13.66705
55.505 13.713913
55.510 13.478611
55.515 13.3181
55.520 13.240237
55.525 13.057516
55.530 12.685946
55.535 13.225537
55.540 13.352956
55.545 13.549054
55.550 13.414827
55.555 12.985661
55.560 12.839371
55.565 12.870025
55.570 13.018854
55.575 13.725578
55.580 13.798673
55.585 13.844543
55.590 13.590072
55.595 13.569825
55.600 13.002594
55.605 12.438822
55.610 12.296156
55.615 12.567047
55.620 12.631784
55.625 12.735008
55.630 13.046579
55.635 13.339742
55.640 12.762844
55.645 12.262287
55.650 11.962646
55.655 11.861003
55.660 11.913111
55.665 11.599089
55.670 11.853589
55.675 12.328132
55.680 12.044374
55.685 11.834703
55.690 11.421869
55.695 11.232406
55.700 11.819453
55.705 11.905133
55.710 11.776184
55.715 11.880055
55.720 12.119304
55.725 12.54823
55.730 12.911997
55.735 12.216853
55.740 12.13069
55.745 12.065369
55.750 12.107028
55.755 12.281967
55.760 12.207257
55.765 12.047685
55.770 12.126924
55.775 11.79442
55.780 12.144629
55.785 12.14133
55.790 11.940912
55.795 12.187192
55.800 12.062139
55.805 12.037356
55.810 12.246642
55.815 12.087487
55.820 12.62175
55.825 12.911834
55.830 12.555042
55.835 12.817652
55.840 12.938761
55.845 13.021084
55.850 12.490569
55.855 11.806523
55.860 11.516173
55.865 11.579565
55.870 11.708028
55.875 11.504762
55.880 11.835505
55.885 12.616762
55.890 12.669971
55.895 13.012753
55.900 13.184958
55.905 13.187378
55.910 13.368815
55.915 13.190368
55.920 13.09379
55.925 13.457755
55.930 13.214608
55.935 12.85875
55.940 12.942019
55.945 13.403534
55.950 13.773762
55.955 13.871059
55.960 13.841395
55.965 13.774347
55.970 13.79558
55.975 13.134215
55.980 12.626185
55.985 12.405254
55.990 12.128946
55.995 12.431648
56.000 13.114805
56.005 13.360037
56.010 13.535906
56.015 13.609592
56.020 13.499866
56.025 13.259701
56.030 12.535724
56.035 11.983269
56.040 11.776415
56.045 12.276957
56.050 12.383183
56.055 12.309674
56.060 12.531479
56.065 12.760212
56.070 13.300203
56.075 13.639531
56.080 13.560058
56.085 13.260541
56.090 13.100487
56.095 13.152217
56.100 12.9125
56.105 12.306249
56.110 12.189559
56.115 11.070943
56.120 11.139608
56.125 11.426536
56.130 11.734051
56.135 11.879017
56.140 11.984844
56.145 12.192909
56.150 13.179222
56.155 13.436065
56.160 13.503148
56.165 13.385256
56.170 13.824016
56.175 13.824688
56.180 13.746696
56.185 13.62843
56.190 13.62168
56.195 13.714994
56.200 14.167442
56.205 13.637142
56.210 13.297852
56.215 12.979372
56.220 13.011001
56.225 12.651848
56.230 12.799725
56.235 12.588778
56.240 12.972177
56.245 13.499067
56.250 13.405602
56.255 13.498552
56.260 13.293612
56.265 12.899271
56.270 12.838045
56.275 12.864487
56.280 12.604499
56.285 12.576177
56.290 12.613444
56.295 13.08717
56.300 13.066781
56.305 12.819859
56.310 12.611336
56.315 13.137941
56.320 13.625081
56.325 13.396743
56.330 13.119272
56.335 12.8888
56.340 13.332062
56.345 13.55951
56.350 12.853219
56.355 12.562242
56.360 12.508534
56.365 12.56027
56.370 13.042781
56.375 13.098652
56.380 12.79201
56.385 12.977447
56.390 12.29748
56.395 12.232244
56.400 12.111719
56.405 11.502997
56.410 11.424944
56.415 11.701378
56.420 11.903904
56.425 12.659615
56.430 13.178249
56.435 13.196439
56.440 13.500631
56.445 13.791773
56.450 13.810223
56.455 13.994484
56.460 14.07851
56.465 13.884287
56.470 13.841082
56.475 13.700234
56.480 12.922424
56.485 12.595551
56.490 12.532566
56.495 12.76547
56.500 12.847956
56.505 13.15115
56.510 13.425179
56.515 13.757237
56.520 13.94374
56.525 13.387981
56.530 12.564829
56.535 12.09003
56.540 11.740081
56.545 11.818163
56.550 11.939671
56.555 11.754401
56.560 11.673064
56.565 11.993999
56.570 12.49699
56.575 13.067056
56.580 13.494492
56.585 13.527132
56.590 13.728217
56.595 14.06516
56.600 14.227216
56.605 14.266745
56.610 13.810836
56.615 13.965655
56.620 13.957613
56.625 14.257921
56.630 14.554021
56.635 14.668556
56.640 14.694185
56.645 13.960526
56.650 13.454255
56.655 13.404961
56.660 13.256225
56.665 12.563599
56.670 12.491096
56.675 13.018533
56.680 13.547128
56.685 13.49693
56.690 13.399883
56.695 13.111458
56.700 13.538256
56.705 14.072516
56.710 14.129969
56.715 14.864119
56.720 15.621921
56.725 15.89257
56.730 16.125881
56.735 16.213366
56.740 15.87686
56.745 15.344119
56.750 15.303535
56.755 15.086142
56.760 15.200167
56.765 14.755019
56.770 14.415933
56.775 14.433207
56.780 14.232477
56.785 14.044902
56.790 14.147994
56.795 13.943916
56.800 14.330731
56.805 13.975491
56.810 13.254165
56.815 13.021115
56.820 12.6638
56.825 12.210289
56.830 12.53756
56.835 12.675945
56.840 13.102665
56.845 13.307266
56.850 13.622138
56.855 13.328539
56.860 13.85088
56.865 14.609942
56.870 14.854436
56.875 14.832616
56.880 15.255419
56.885 15.215973
56.890 15.537058
56.895 15.08414
56.900 14.562185
56.905 14.176151
56.910 14.110791
56.915 14.023159
56.920 14.14505
56.925 14.24952
56.930 14.50878
56.935 14.356642
56.940 14.568732
56.945 14.415822
56.950 13.924875
56.955 13.844604
56.960 13.33309
56.965 13.539595
56.970 13.956802
56.975 14.220968
56.980 14.451488
56.985 14.726774
56.990 14.574769
56.995 14.457065
57.000 14.06813
57.005 13.768691
57.010 13.605735
57.015 13.643669
57.020 13.707891
57.025 13.560229
57.030 13.788239
57.035 13.840098
57.040 13.904299
57.045 13.985245
57.050 14.326152
57.055 14.481009
57.060 14.962679
57.065 14.912715
57.070 14.762551
57.075 14.425784
57.080 14.270728
57.085 14.441911
57.090 14.740309
57.095 14.379902
57.100 14.041959
57.105 13.842236
57.110 14.227194
57.115 14.329986
57.120 13.969117
57.125 13.400427
57.130 13.994387
57.135 14.945613
57.140 15.107991
57.145 14.493398
57.150 13.983343
57.155 13.845178
57.160 13.990506
57.165 14.019506
57.170 13.69965
57.175 14.15864
57.180 14.625134
57.185 14.600402
57.190 15.213026
57.195 15.641411
57.200 15.256456
57.205 15.311273
57.210 15.275702
57.215 15.003446
57.220 14.817501
57.225 14.204512
57.230 13.686234
57.235 13.24139
57.240 13.088957
57.245 13.281193
57.250 13.312821
57.255 13.375211
57.260 13.660341
57.265 14.111635
57.270 14.603109
57.275 14.257969
57.280 14.40833
57.285 15.043252
57.290 14.992527
57.295 14.871818
57.300 15.241396
57.305 14.848612
57.310 14.62466
57.315 14.158708
57.320 13.763372
57.325 14.734343
57.330 15.256362
57.335 15.164529
57.340 15.683487
57.345 15.811386
57.350 16.375305
57.355 16.248917
57.360 15.775961
57.365 15.104917
57.370 14.563768
57.375 14.333744
57.380 14.635282
57.385 14.794572
57.390 15.255294
57.395 15.284651
57.400 15.629394
57.405 16.126171
57.410 16.708338
57.415 16.536251
57.420 16.404575
57.425 15.809293
57.430 15.507853
57.435 15.298201
57.440 15.137668
57.445 14.961513
57.450 14.921803
57.455 14.713841
57.460 15.029012
57.465 14.80899
57.470 14.593182
57.475 14.36155
57.480 13.867899
57.485 13.806991
57.490 13.994606
57.495 13.752224
57.500 13.640176
57.505 14.082919
57.510 13.904799
57.515 14.223284
57.520 14.410305
57.525 14.351856
57.530 14.086998
57.535 13.81711
57.540 13.520099
57.545 13.513352
57.550 13.162447
57.555 13.05563
57.560 13.198584
57.565 13.634392
57.570 14.007097
57.575 14.433146
57.580 14.865862
57.585 15.40821
57.590 15.337445
57.595 15.543023
57.600 15.822933
57.605 15.701777
57.610 15.225895
57.615 14.982048
57.620 14.955176
57.625 14.506278
57.630 14.510147
57.635 13.902002
57.640 13.644344
57.645 13.922512
57.650 14.053835
57.655 13.788914
57.660 14.548772
57.665 14.83779
57.670 15.250453
57.675 15.68421
57.680 15.901256
57.685 15.688011
57.690 15.821477
57.695 15.343377
57.700 14.649867
57.705 14.852341
57.710 14.448723
57.715 14.190696
57.720 14.329939
57.725 14.198734
57.730 14.340008
57.735 15.069854
57.740 15.08545
57.745 15.047975
57.750 15.092586
57.755 14.785166
57.760 14.853311
57.765 14.706135
57.770 14.60135
57.775 14.907441
57.780 14.727205
57.785 14.931733
57.790 15.26716
57.795 15.323314
57.800 15.770863
57.805 15.702622
57.810 15.827168
57.815 15.689016
57.820 15.963496
57.825 15.879427
57.830 15.59954
57.835 15.14945
57.840 14.705436
57.845 14.62781
57.850 15.094558
57.855 14.859502
57.860 15.0454
57.865 15.647779
57.870 15.722326
57.875 15.466967
57.880 14.887143
57.885 14.597435
57.890 14.752982
57.895 14.067151
57.900 13.982183
57.905 13.990297
57.910 14.26648
57.915 14.990355
57.920 15.318846
57.925 15.010935
57.930 15.375639
57.935 15.295576
57.940 15.771921
57.945 15.9773
57.950 15.746186
57.955 15.614232
57.960 15.376096
57.965 15.171222
57.970 14.723609
57.975 14.719485
57.980 15.039226
57.985 15.262452
57.990 15.513391
57.995 15.788914
58.000 16.307579
58.005 16.655794
58.010 16.234388
58.015 16.014395
58.020 15.83818
58.025 15.764595
58.030 15.697856
58.035 15.599781
58.040 15.492767
58.045 15.837439
58.050 15.531139
58.055 15.232887
58.060 15.518064
58.065 15.720271
58.070 15.497482
58.075 15.254863
58.080 14.723581
58.085 15.078237
58.090 15.219615
58.095 14.700553
58.100 14.565125
58.105 14.895956
58.110 15.26668
58.115 15.133237
58.120 15.224007
58.125 15.190452
58.130 15.225908
58.135 15.334016
58.140 15.418723
58.145 15.415936
58.150 15.755628
58.155 15.389335
58.160 15.417604
58.165 15.588508
58.170 15.317866
58.175 15.446567
58.180 15.456708
58.185 15.273361
58.190 15.369569
58.195 15.112707
58.200 15.099491
58.205 15.374858
58.210 14.912681
58.215 14.908323
58.220 15.32393
58.225 15.424664
58.230 15.287868
58.235 15.607121
58.240 15.839185
58.245 16.525572
58.250 16.829329
58.255 17.071198
58.260 17.131088
58.265 17.490019
58.270 17.083426
58.275 16.782001
58.280 16.23587
58.285 16.111322
58.290 16.287695
58.295 16.695753
58.300 16.460522
58.305 16.205853
58.310 15.841611
58.315 14.948607
58.320 14.110976
58.325 13.616041
58.330 13.28234
58.335 13.116719
58.340 13.491733
58.345 14.265085
58.350 14.474745
58.355 14.698704
58.360 14.137101
58.365 14.248003
58.370 14.533563
58.375 14.472051
58.380 14.066079
58.385 14.177853
58.390 14.649564
58.395 14.742909
58.400 14.745768
58.405 14.810662
58.410 14.605463
58.415 15.29714
58.420 16.024925
58.425 16.076485
58.430 16.466284
58.435 16.702192
58.440 17.169769
58.445 17.574389
58.450 17.907618
58.455 17.410831
58.460 17.450775
58.465 17.45026
58.470 17.387028
