!@!!GADDS PLOTSO FILE: Chi integration type
!@!!Title/SampleName: map-106
!@!!Comment: ?
!@!!User: Bruker Instrument Administrator
!@!!Site: University of Illinois Chicago
!@!!Frame: map-106_01_000.gfrm
!@!!Wavelengths    1.54184   1.54056   1.54439
!@!!Frame angles: 2Theta: 63.000 Omega: 50.000 Phi: 0.000 Chi: 90.000
!@!!Integration range: 2Theta: 53.000 to 73.000  Gamma: -105.000 to -75.000
!@!!Integration method: bin normalized
!@!N
!@!SS
!@!M
!@!L 0.0 0.0 0.0 0.0
!@!XDegrees
!@!YCounts
53.000 9.541324
53.005 9.099599
53.010 9.247087
53.015 9.268436
53.020 9.137419
53.025 9.590856
53.030 10.074179
53.035 10.716097
53.040 10.973926
53.045 11.354641
53.050 11.655751
53.055 11.72055
53.060 11.575157
53.065 11.178069
53.070 11.103224
53.075 11.552459
53.080 11.168269
53.085 11.094962
53.090 10.589008
53.095 10.417525
53.100 10.528615
53.105 10.221354
53.110 10.109434
53.115 10.632249
53.120 11.579242
53.125 12.487973
53.130 12.44636
53.135 12.378141
53.140 12.125804
53.145 11.696259
53.150 11.498995
53.155 10.603779
53.160 9.891027
53.165 9.555016
53.170 9.731391
53.175 9.793433
53.180 10.490747
53.185 10.356606
53.190 10.908387
53.195 11.027467
53.200 10.836675
53.205 10.96549
53.210 10.999153
53.215 10.012289
53.220 10.065008
53.225 9.760792
53.230 10.257408
53.235 10.698976
53.240 11.046926
53.245 11.218743
53.250 11.532018
53.255 11.986277
53.260 11.992203
53.265 11.548902
53.270 11.213739
53.275 10.849472
53.280 10.770961
53.285 10.469552
53.290 9.713442
53.295 9.48842
53.300 9.846616
53.305 9.711427
53.310 10.071491
53.315 10.135194
53.320 10.196797
53.325 10.658326
53.330 10.665654
53.335 10.593356
53.340 10.718535
53.345 10.846624
53.350 10.918836
53.355 11.191018
53.360 10.482576
53.365 10.418459
53.370 10.736819
53.375 10.959275
53.380 10.841485
53.385 10.637768
53.390 10.773538
53.395 11.271647
53.400 10.765487
53.405 10.602314
53.410 10.084455
53.415 10.043914
53.420 9.840777
53.425 10.101575
53.430 9.850653
53.435 9.568295
53.440 9.732436
53.445 10.11042
53.450 10.238808
53.455 10.666788
53.460 11.240043
53.465 12.229453
53.470 12.839754
53.475 12.731185
53.480 12.812131
53.485 12.929393
53.490 12.696728
53.495 12.029677
53.500 11.645795
53.505 11.851043
53.510 11.699733
53.515 11.892036
53.520 11.689604
53.525 11.541636
53.530 11.665001
53.535 11.357954
53.540 10.849711
53.545 10.485448
53.550 9.684642
53.555 9.753149
53.560 10.045885
53.565 10.200233
53.570 10.247741
53.575 10.408508
53.580 10.945374
53.585 11.462093
53.590 11.353561
53.595 11.189933
53.600 10.956003
53.605 11.236853
53.610 11.350355
53.615 11.006808
53.620 10.920228
53.625 11.037386
53.630 11.286078
53.635 11.95729
53.640 12.079742
53.645 11.912469
53.650 12.428048
53.655 12.531334
53.660 12.403813
53.665 12.367651
53.670 11.823344
53.675 11.695257
53.680 11.318414
53.685 11.149406
53.690 10.992208
53.695 11.142714
53.700 11.265285
53.705 11.347152
53.710 11.677542
53.715 12.287017
53.720 12.290651
53.725 12.834971
53.730 13.013303
53.735 12.900136
53.740 13.495269
53.745 13.037547
53.750 12.65518
53.755 12.240347
53.760 11.369836
53.765 11.153753
53.770 10.979628
53.775 10.461623
53.780 10.861338
53.785 10.854087
53.790 10.573351
53.795 10.58806
53.800 10.221601
53.805 10.305594
53.810 10.53515
53.815 10.558584
53.820 10.958221
53.825 11.544431
53.830 11.619588
53.835 11.873903
53.840 11.704517
53.845 11.584986
53.850 11.264778
53.855 11.279016
53.860 11.653924
53.865 11.246925
53.870 10.855577
53.875 10.991695
53.880 11.247097
53.885 11.049252
53.890 11.156136
53.895 11.343359
53.900 11.657885
53.905 11.507964
53.910 11.398344
53.915 11.581254
53.920 11.993921
53.925 11.722303
53.930 11.80828
53.935 11.881687
53.940 11.843754
53.945 11.909229
53.950 11.53834
53.955 10.891297
53.960 10.532346
53.965 10.454251
53.970 10.715271
53.975 10.530704
53.980 10.637197
53.985 11.247
53.990 11.938622
53.995 12.209881
54.000 12.477356
54.005 12.597787
54.010 12.305798
54.015 12.03603
54.020 11.733639
54.025 11.646545
54.030 12.067047
54.035 12.23095
54.040 12.455787
54.045 12.781191
54.050 12.505447
54.055 11.957672
54.060 11.176403
54.065 10.580944
54.070 10.109472
54.075 10.462746
54.080 10.513452
54.085 10.554366
54.090 10.932832
54.095 11.318267
54.100 11.539454
54.105 11.665992
54.110 11.622451
54.115 11.754707
54.120 11.962984
54.125 11.943914
54.130 11.757973
54.135 11.19109
54.140 11.089512
54.145 10.618328
54.150 10.235431
54.155 10.362053
54.160 10.762942
54.165 10.960601
54.170 11.00815
54.175 10.731797
54.180 11.028141
54.185 11.362066
54.190 11.581084
54.195 11.453295
54.200 11.66289
54.205 11.867655
54.210 11.755962
54.215 11.803775
54.220 11.943118
54.225 11.588043
54.230 11.69276
54.235 11.787519
54.240 12.247828
54.245 12.653461
54.250 12.481565
54.255 12.547673
54.260 12.526937
54.265 12.230854
54.270 12.323646
54.275 11.8585
54.280 11.704495
54.285 11.565138
54.290 11.267159
54.295 11.02603
54.300 11.131132
54.305 11.083419
54.310 11.237303
54.315 11.361746
54.320 11.916143
54.325 12.433911
54.330 12.70303
54.335 13.009833
54.340 13.074555
54.345 13.268794
54.350 13.067801
54.355 13.08085
54.360 13.244964
54.365 13.406626
54.370 13.119956
54.375 13.192795
54.380 12.889751
54.385 13.08801
54.390 12.794627
54.395 12.703263
54.400 12.922256
54.405 13.005966
54.410 12.971334
54.415 13.287365
54.420 12.967505
54.425 12.836191
54.430 12.767186
54.435 12.152147
54.440 12.032675
54.445 11.879663
54.450 11.52607
54.455 11.68667
54.460 11.820814
54.465 11.908314
54.470 12.027611
54.475 11.717484
54.480 11.95927
54.485 12.14617
54.490 12.241653
54.495 12.297812
54.500 12.338048
54.505 12.579986
54.510 13.070239
54.515 13.134263
54.520 12.876609
54.525 12.266342
54.530 11.929713
54.535 11.396007
54.540 11.117307
54.545 10.761725
54.550 10.953593
54.555 10.738845
54.560 10.764385
54.565 10.921891
54.570 11.162047
54.575 11.490869
54.580 11.54159
54.585 11.600403
54.590 11.803063
54.595 12.222743
54.600 12.404247
54.605 12.633367
54.610 12.174484
54.615 12.03952
54.620 12.157476
54.625 12.420598
54.630 12.30932
54.635 12.360687
54.640 12.277093
54.645 12.725173
54.650 13.194953
54.655 12.521583
54.660 12.691137
54.665 12.046812
54.670 11.945861
54.675 11.940206
54.680 11.658034
54.685 11.427688
54.690 11.713867
54.695 11.426723
54.700 11.788727
54.705 11.722079
54.710 12.661154
54.715 12.612003
54.720 12.642768
54.725 13.291188
54.730 14.309281
54.735 14.314958
54.740 14.029953
54.745 13.37273
54.750 13.68833
54.755 13.538309
54.760 13.092434
54.765 12.39523
54.770 12.873348
54.775 12.657898
54.780 12.642418
54.785 12.423749
54.790 12.552605
54.795 12.377546
54.800 12.068925
54.805 11.876925
54.810 12.074974
54.815 11.895295
54.820 11.845565
54.825 11.907973
54.830 11.970336
54.835 12.141136
54.840 12.086602
54.845 11.988801
54.850 11.935701
54.855 11.442755
54.860 11.237
54.865 11.11932
54.870 11.063399
54.875 10.850024
54.880 11.577052
54.885 11.846836
54.890 12.366274
54.895 12.479724
54.900 12.274772
54.905 12.673505
54.910 12.270897
54.915 11.746247
54.920 11.800691
54.925 11.424479
54.930 11.211227
54.935 11.235305
54.940 11.260036
54.945 11.30672
54.950 11.450836
54.955 12.15167
54.960 12.79538
54.965 13.106329
54.970 13.061857
54.975 12.964808
54.980 12.794485
54.985 12.547172
54.990 12.083896
54.995 11.682481
55.000 11.714233
55.005 11.478142
55.010 11.243513
55.015 11.135551
55.020 11.447575
55.025 11.250413
55.030 11.500076
55.035 11.787572
55.040 12.101887
55.045 12.74696
55.050 12.980651
55.055 12.882347
55.060 12.92537
55.065 12.200606
55.070 11.982145
55.075 12.007494
55.080 11.745705
55.085 11.200007
55.090 11.114471
55.095 11.62498
55.100 11.888865
55.105 11.944592
55.110 11.684486
55.115 11.924068
55.120 12.950638
55.125 12.517695
55.130 12.10402
55.135 12.301079
55.140 12.386863
55.145 12.522055
55.150 12.262476
55.155 12.060294
55.160 12.593783
55.165 12.802972
55.170 12.978833
55.175 13.40611
55.180 13.837428
55.185 13.967673
55.190 13.830518
55.195 13.533792
55.200 13.549106
55.205 13.219917
55.210 12.828119
55.215 12.546323
55.220 12.451716
55.225 12.467461
55.230 12.083529
55.235 11.91386
55.240 12.016168
55.245 12.098581
55.250 12.263471
55.255 12.336045
55.260 12.796548
55.265 13.306615
55.270 13.698643
55.275 13.789613
55.280 13.740595
55.285 13.44141
55.290 13.298028
55.295 13.567472
55.300 13.398592
55.305 12.938116
55.310 12.614498
55.315 12.695196
55.320 13.075825
55.325 13.039291
55.330 12.630118
55.335 12.732975
55.340 12.386662
55.345 12.457565
55.350 12.109553
55.355 11.993322
55.360 12.018921
55.365 11.807686
55.370 11.952177
55.375 13.068486
55.380 13.185099
55.385 12.988026
55.390 12.748341
55.395 13.10775
55.400 13.116835
55.405 12.912783
55.410 12.473374
55.415 12.941627
55.420 13.332663
55.425 13.257661
55.430 13.45261
55.435 13.571202
55.440 13.340612
55.445 13.589304
55.450 13.633865
55.455 13.648435
55.460 13.822285
55.465 13.742606
55.470 13.816007
55.475 13.750902
55.480 13.535519
55.485 13.177003
55.490 13.339809
55.495 13.531965
55.500 13.668902
55.505 13.753907
55.510 13.163205
55.515 13.026156
55.520 13.259684
55.525 13.22923
55.530 12.770698
55.535 12.716208
55.540 12.729902
55.545 12.889119
55.550 13.236184
55.555 13.530475
55.560 13.6155
55.565 13.33077
55.570 13.176255
55.575 13.46265
55.580 13.777506
55.585 13.758392
55.590 13.79873
55.595 13.767389
55.600 13.976904
55.605 14.2766
55.610 14.309808
55.615 13.920712
55.620 13.298528
55.625 12.816804
55.630 12.214621
55.635 12.234124
55.640 12.170993
55.645 11.822485
55.650 11.564759
55.655 11.555338
55.660 12.141641
55.665 12.773975
55.670 12.805568
55.675 13.158706
55.680 13.197926
55.685 14.247868
55.690 14.760202
55.695 14.509745
55.700 14.531416
55.705 14.187757
55.710 14.062205
55.715 14.459162
55.720 13.7424
55.725 13.387144
55.730 13.245035
55.735 13.060276
55.740 13.587532
55.745 13.598919
55.750 13.53976
55.755 13.939734
55.760 14.045193
55.765 14.042304
55.770 14.329123
55.775 14.224184
55.780 14.089195
55.785 14.209949
55.790 13.880666
55.795 13.778362
55.800 13.809066
55.805 13.816407
55.810 13.367768
55.815 12.680059
55.820 12.466971
55.825 12.452406
55.830 12.411797
55.835 12.686848
55.840 12.726308
55.845 13.190006
55.850 13.815948
55.855 13.822673
55.860 13.752385
55.865 13.808444
55.870 13.114129
55.875 13.209441
55.880 13.668538
55.885 14.109018
55.890 14.25372
55.895 14.06446
55.900 14.529662
55.905 14.678895
55.910 14.504679
55.915 13.725334
55.920 12.964392
55.925 12.819356
55.930 13.079172
55.935 12.817441
55.940 13.244596
55.945 13.754658
55.950 13.903228
55.955 14.051176
55.960 13.635202
55.965 13.258292
55.970 12.417205
55.975 12.09541
55.980 12.105276
55.985 12.252395
55.990 12.942116
55.995 13.758207
56.000 14.35206
56.005 14.643822
56.010 14.14111
56.015 14.381974
56.020 14.206102
56.025 13.481307
56.030 13.370355
56.035 13.30221
56.040 13.628565
56.045 13.738371
56.050 12.851217
56.055 12.993628
56.060 13.446254
56.065 13.53742
56.070 13.204027
56.075 12.742833
56.080 12.621298
56.085 12.521413
56.090 12.196708
56.095 12.081398
56.100 12.151938
56.105 12.78263
56.110 13.043114
56.115 13.114137
56.120 13.198062
56.125 13.650255
56.130 13.72005
56.135 13.654175
56.140 13.567782
56.145 14.112902
56.150 14.24482
56.155 14.946926
56.160 14.966973
56.165 15.161528
56.170 15.48556
56.175 15.22043
56.180 14.704604
56.185 14.755516
56.190 14.454204
56.195 14.173712
56.200 14.156248
56.205 14.307551
56.210 14.690354
56.215 14.654704
56.220 14.42293
56.225 14.409184
56.230 14.639682
56.235 14.484746
56.240 14.066488
56.245 14.119989
56.250 14.173984
56.255 14.741144
56.260 15.164821
56.265 15.330141
56.270 14.815449
56.275 14.583516
56.280 14.330332
56.285 14.592115
56.290 14.625444
56.295 14.393104
56.300 14.294127
56.305 14.746313
56.310 15.219184
56.315 15.101794
56.320 14.364622
56.325 13.980753
56.330 13.806261
56.335 13.817562
56.340 13.654899
56.345 13.930425
56.350 14.433939
56.355 14.427308
56.360 13.966195
56.365 13.534678
56.370 13.590688
56.375 13.801434
56.380 13.307347
56.385 13.635949
56.390 14.352818
56.395 14.806738
56.400 15.165097
56.405 14.756466
56.410 14.623225
56.415 14.648792
56.420 14.212916
56.425 13.649786
56.430 13.936919
56.435 14.04185
56.440 14.298333
56.445 14.039453
56.450 14.295018
56.455 14.574421
56.460 14.733643
56.465 14.067505
56.470 14.20781
56.475 14.312666
56.480 14.074958
56.485 13.866233
56.490 14.784532
56.495 14.93384
56.500 15.150453
56.505 15.304539
56.510 15.169634
56.515 15.402278
56.520 15.006719
56.525 14.622094
56.530 15.038896
56.535 15.003779
56.540 14.825307
56.545 14.763092
56.550 14.441076
56.555 13.891898
56.560 13.584901
56.565 12.88962
56.570 12.100666
56.575 11.849073
56.580 12.491322
56.585 13.127287
56.590 13.176257
56.595 13.417677
56.600 14.603584
56.605 15.134081
56.610 14.989769
56.615 14.413671
56.620 14.213832
56.625 14.892647
56.630 14.228747
56.635 13.923023
56.640 13.965625
56.645 14.043381
56.650 14.157829
56.655 14.221896
56.660 14.396681
56.665 14.447297
56.670 13.906303
56.675 13.932992
56.680 13.952665
56.685 13.974939
56.690 14.087034
56.695 13.768687
56.700 14.383574
56.705 14.898816
56.710 15.214033
56.715 15.431131
56.720 15.332551
56.725 14.702438
56.730 14.247284
56.735 14.304399
56.740 14.14588
56.745 13.917298
56.750 14.289593
56.755 14.635968
56.760 15.302094
56.765 15.741663
56.770 15.543344
56.775 16.225107
56.780 16.449898
56.785 16.198307
56.790 16.104528
56.795 16.226303
56.800 15.795612
56.805 15.666479
56.810 14.945712
56.815 14.588302
56.820 14.676363
56.825 14.643073
56.830 14.873693
56.835 15.337716
56.840 15.424479
56.845 15.554544
56.850 15.685683
56.855 15.081269
56.860 14.831506
56.865 14.498159
56.870 13.913454
56.875 13.170793
56.880 13.002142
56.885 13.233339
56.890 13.590816
56.895 13.803847
56.900 14.109294
56.905 14.87057
56.910 15.577149
56.915 16.000011
56.920 16.155111
56.925 16.005573
56.930 15.827415
56.935 15.211497
56.940 14.704874
56.945 14.732977
56.950 14.311257
56.955 14.289762
56.960 14.273575
56.965 14.5005
56.970 14.972733
56.975 15.074944
56.980 14.860273
56.985 14.717367
56.990 15.132666
56.995 16.16552
57.000 15.945128
57.005 15.882542
57.010 16.171494
57.015 16.664696
57.020 16.697771
57.025 15.922071
57.030 15.183615
57.035 15.455528
57.040 15.341298
57.045 14.976503
57.050 14.862409
57.055 15.002919
57.060 14.956043
57.065 15.028386
57.070 15.074172
57.075 15.449861
57.080 15.388889
57.085 15.916908
57.090 16.342354
57.095 16.89889
57.100 16.572735
57.105 16.281017
57.110 16.076426
57.115 16.548458
57.120 15.749198
57.125 15.341366
57.130 15.098348
57.135 15.182772
57.140 15.635365
57.145 15.555732
57.150 15.073713
57.155 14.921124
57.160 15.08848
57.165 14.677391
57.170 14.601506
57.175 14.476665
57.180 14.546357
57.185 14.85596
57.190 14.922704
57.195 14.510568
57.200 15.188939
57.205 15.855828
57.210 15.821301
57.215 15.607047
57.220 15.341445
57.225 15.685415
57.230 15.482316
57.235 15.094627
57.240 14.72665
57.245 15.157936
57.250 15.366266
57.255 15.336061
57.260 15.226972
57.265 15.895943
57.270 15.768384
57.275 15.597781
57.280 14.886218
57.285 14.932762
57.290 15.481874
57.295 15.878071
57.300 16.12685
57.305 16.326418
57.310 16.171028
57.315 16.704702
57.320 16.907995
57.325 16.205584
57.330 16.04891
57.335 16.027443
57.340 15.595757
57.345 15.43346
57.350 15.30827
57.355 15.065168
57.360 14.849589
57.365 14.553704
57.370 14.01124
57.375 14.122646
57.380 14.157112
57.385 14.366961
57.390 15.397965
57.395 16.05942
57.400 16.21773
57.405 16.512272
57.410 16.166943
57.415 16.002073
57.420 15.069363
57.425 14.489899
57.430 14.067526
57.435 14.398277
57.440 15.022635
57.445 15.841122
57.450 15.832606
57.455 16.075439
57.460 15.966499
57.465 16.444918
57.470 16.570042
57.475 16.319654
57.480 16.036398
57.485 16.092566
57.490 15.946179
57.495 16.057951
57.500 15.064336
57.505 14.546551
57.510 14.368987
57.515 14.902856
57.520 15.395996
57.525 15.48442
57.530 15.509653
57.535 15.730238
57.540 15.35869
57.545 15.267358
57.550 14.774647
57.555 14.076087
57.560 14.530379
57.565 14.871145
57.570 15.482915
57.575 16.084898
57.580 15.906873
57.585 15.907609
57.590 16.115015
57.595 15.392902
57.600 15.124044
57.605 14.873215
57.610 14.755527
57.615 14.953499
57.620 15.04779
57.625 15.269308
57.630 15.701029
57.635 15.738818
57.640 16.212719
57.645 16.280758
57.650 16.365768
57.655 16.682791
57.660 16.321995
57.665 15.986449
57.670 15.360521
57.675 14.802149
57.680 14.873561
57.685 15.13553
57.690 14.858587
57.695 14.448236
57.700 14.767209
57.705 14.915238
57.710 14.635622
57.715 14.396485
57.720 13.766746
57.725 13.78065
57.730 14.031201
57.735 13.781283
57.740 13.714615
57.745 13.948486
57.750 14.40169
57.755 15.018346
57.760 14.739767
57.765 14.865147
57.770 14.273071
57.775 14.776526
57.780 15.011024
57.785 14.464951
57.790 14.517779
57.795 14.799155
57.800 14.846299
57.805 15.481075
57.810 14.82161
57.815 14.517929
57.820 14.720869
57.825 14.503563
57.830 14.855159
57.835 15.194274
57.840 15.101648
57.845 15.39375
57.850 15.620985
57.855 15.667753
57.860 15.660808
57.865 15.778977
57.870 15.940514
57.875 16.39769
57.880 16.623558
57.885 16.503328
57.890 16.37882
57.895 16.12604
57.900 15.56041
57.905 15.18943
57.910 14.842943
57.915 14.604489
57.920 14.332178
57.925 14.562875
57.930 14.623174
57.935 15.087461
57.940 15.578448
57.945 15.787058
57.950 15.86154
57.955 16.376886
57.960 16.139423
57.965 16.038395
57.970 16.036074
57.975 15.291506
57.980 14.845266
57.985 14.81608
57.990 14.338749
57.995 14.720112
58.000 15.448607
58.005 15.265287
58.010 15.642033
58.015 16.037994
58.020 16.474918
58.025 17.023098
58.030 17.174437
58.035 16.45628
58.040 16.112759
58.045 15.944668
58.050 15.871531
58.055 15.96032
58.060 15.394792
58.065 15.68081
58.070 15.971323
58.075 15.981743
58.080 16.477501
58.085 16.119467
58.090 15.900082
58.095 15.897101
58.100 15.443157
58.105 15.776799
58.110 16.189974
58.115 16.241022
58.120 16.754383
58.125 17.300131
58.130 17.32893
58.135 17.529383
58.140 17.112545
58.145 16.824574
58.150 16.382469
58.155 16.0016
58.160 15.857158
58.165 16.294968
58.170 16.346981
58.175 16.84655
58.180 16.870108
58.185 16.713442
58.190 16.321619
58.195 15.530844
58.200 14.977958
58.205 14.788981
58.210 14.598233
58.215 14.731784
58.220 15.067119
58.225 15.744645
58.230 15.529464
58.235 15.541565
58.240 15.543414
58.245 15.364078
58.250 15.28991
58.255 14.847069
58.260 14.165242
58.265 14.159293
58.270 14.340251
58.275 14.537362
58.280 15.06194
58.285 15.199655
58.290 15.632549
58.295 16.353355
58.300 16.678078
58.305 16.781221
58.310 17.118069
58.315 17.130869
58.320 17.16654
58.325 16.919998
58.330 17.270086
58.335 17.516233
58.340 17.512369
58.345 17.184242
58.350 16.68173
58.355 16.527298
58.360 16.805445
58.365 16.668058
58.370 16.488943
58.375 16.182022
58.380 16.055962
58.385 15.91988
58.390 15.613004
58.395 15.317389
58.400 15.026518
58.405 15.052052
58.410 14.842312
58.415 15.016841
58.420 15.616435
58.425 16.206694
58.430 16.838022
58.435 17.240267
58.440 17.243261
58.445 17.554338
