!@!!GADDS PLOTSO FILE: Chi integration type
!@!!Title/SampleName: map-122
!@!!Comment: ?
!@!!User: Bruker Instrument Administrator
!@!!Site: University of Illinois Chicago
!@!!Frame: map-122_01_000.gfrm
!@!!Wavelengths    1.54184   1.54056   1.54439
!@!!Frame angles: 2Theta: 63.000 Omega: 50.000 Phi: 0.000 Chi: 90.000
!@!!Integration range: 2Theta: 53.000 to 73.000  Gamma: -105.000 to -75.000
!@!!Integration method: bin normalized
!@!N
!@!SS
!@!M
!@!L 0.0 0.0 0.0 0.0
!@!XDegrees
!@!YCounts
53.000 6.073485
53.005 6.196117
53.010 6.351202
53.015 6.322373
53.020 6.144274
53.025 5.745184
53.030 5.83702
53.035 5.800416
53.040 5.635774
53.045 5.674231
53.050 5.636176
53.055 5.9218
53.060 5.905078
53.065 5.496184
53.070 5.484906
53.075 5.433157
53.080 5.618146
53.085 5.997506
53.090 5.905362
53.095 6.255786
53.100 6.645411
53.105 6.53055
53.110 6.478988
53.115 6.379421
53.120 5.992107
53.125 5.57386
53.130 5.297806
53.135 5.41445
53.140 5.479866
53.145 5.383176
53.150 4.964839
53.155 5.053492
53.160 5.646327
53.165 5.575942
53.170 5.760825
53.175 5.855228
53.180 5.941829
53.185 6.287795
53.190 5.911269
53.195 5.653716
53.200 5.429848
53.205 5.394887
53.210 5.390702
53.215 5.200341
53.220 5.069406
53.225 5.403646
53.230 5.762419
53.235 5.828063
53.240 5.468848
53.245 5.42649
53.250 5.363719
53.255 5.287852
53.260 5.205672
53.265 4.944505
53.270 4.889758
53.275 5.153156
53.280 5.307978
53.285 5.301152
53.290 5.909925
53.295 5.857279
53.300 5.792447
53.305 6.357983
53.310 6.168088
53.315 6.295183
53.320 6.0445
53.325 5.654123
53.330 5.857064
53.335 6.172067
53.340 5.989027
53.345 6.363647
53.350 6.625499
53.355 7.169963
53.360 6.773122
53.365 6.540822
53.370 6.318802
53.375 6.148736
53.380 5.740336
53.385 5.1438
53.390 5.267066
53.395 5.564852
53.400 5.493275
53.405 5.655075
53.410 5.728086
53.415 5.819751
53.420 5.93018
53.425 5.930856
53.430 5.947019
53.435 5.933575
53.440 5.851388
53.445 5.74308
53.450 5.693047
53.455 5.78047
53.460 5.453475
53.465 5.352633
53.470 5.241687
53.475 5.167958
53.480 5.264253
53.485 5.401483
53.490 5.252031
53.495 5.364249
53.500 5.333012
53.505 5.132894
53.510 4.997592
53.515 4.99494
53.520 4.731681
53.525 5.018277
53.530 5.18788
53.535 5.537333
53.540 5.765538
53.545 6.043168
53.550 6.338097
53.555 6.66182
53.560 6.769733
53.565 6.417086
53.570 6.185051
53.575 6.205376
53.580 6.13216
53.585 5.885639
53.590 5.597014
53.595 5.492992
53.600 5.754256
53.605 5.729924
53.610 5.660095
53.615 5.660068
53.620 6.195468
53.625 6.788111
53.630 6.787468
53.635 6.917796
53.640 7.076279
53.645 7.105547
53.650 6.990003
53.655 6.461863
53.660 6.157317
53.665 6.099532
53.670 5.967235
53.675 5.835992
53.680 5.770141
53.685 5.403726
53.690 5.355055
53.695 5.220288
53.700 5.046381
53.705 5.293746
53.710 5.559488
53.715 5.568451
53.720 5.866382
53.725 5.996506
53.730 6.130334
53.735 6.539968
53.740 6.371406
53.745 6.232496
53.750 6.273969
53.755 6.064399
53.760 5.893343
53.765 5.677788
53.770 5.472378
53.775 5.459363
53.780 5.425635
53.785 5.49537
53.790 5.902953
53.795 6.437707
53.800 6.756938
53.805 6.916523
53.810 7.217254
53.815 7.119755
53.820 6.781495
53.825 6.227535
53.830 6.020719
53.835 6.203996
53.840 6.254026
53.845 6.370984
53.850 6.551724
53.855 6.601595
53.860 6.649756
53.865 6.414711
53.870 6.360559
53.875 5.999124
53.880 5.801934
53.885 5.81407
53.890 5.963701
53.895 6.11829
53.900 5.897166
53.905 5.572299
53.910 5.651143
53.915 5.541957
53.920 6.013341
53.925 5.960938
53.930 5.970314
53.935 6.20362
53.940 6.266714
53.945 6.037302
53.950 6.049257
53.955 5.78193
53.960 5.800514
53.965 6.074921
53.970 6.167151
53.975 6.219804
53.980 6.405945
53.985 6.406512
53.990 6.466564
53.995 6.276607
54.000 5.86068
54.005 5.540502
54.010 5.358136
54.015 5.308004
54.020 5.445107
54.025 5.390306
54.030 5.640532
54.035 5.945189
54.040 6.168322
54.045 6.288306
54.050 5.958292
54.055 5.833041
54.060 5.73108
54.065 5.588916
54.070 5.500364
54.075 5.688198
54.080 6.328385
54.085 6.502713
54.090 6.776399
54.095 7.157154
54.100 7.408606
54.105 7.346142
54.110 7.16919
54.115 7.047798
54.120 7.128672
54.125 6.923549
54.130 6.809913
54.135 6.833715
54.140 6.686329
54.145 6.742884
54.150 6.296884
54.155 6.202423
54.160 6.195409
54.165 6.246957
54.170 6.338302
54.175 6.531114
54.180 6.633821
54.185 6.733234
54.190 6.734753
54.195 6.631034
54.200 6.721667
54.205 6.465043
54.210 6.006352
54.215 5.880293
54.220 5.993792
54.225 6.063246
54.230 6.246012
54.235 6.186077
54.240 6.379131
54.245 6.516113
54.250 6.634235
54.255 6.484295
54.260 6.87438
54.265 6.824076
54.270 7.236698
54.275 7.521136
54.280 7.144295
54.285 7.029744
54.290 7.287496
54.295 6.863053
54.300 6.827375
54.305 6.630944
54.310 6.698302
54.315 7.307381
54.320 7.25522
54.325 6.982969
54.330 6.92757
54.335 6.444257
54.340 6.278994
54.345 6.271941
54.350 5.784933
54.355 5.866695
54.360 6.239834
54.365 6.5348
54.370 6.683568
54.375 6.653699
54.380 6.71059
54.385 7.18342
54.390 7.064422
54.395 6.830964
54.400 6.407669
54.405 6.243785
54.410 6.387318
54.415 6.096641
54.420 6.03752
54.425 5.934765
54.430 5.729795
54.435 5.99808
54.440 6.037834
54.445 6.178326
54.450 6.390398
54.455 6.201532
54.460 6.350736
54.465 6.603134
54.470 6.506011
54.475 6.4093
54.480 6.34615
54.485 6.068118
54.490 5.807358
54.495 5.938662
54.500 6.016104
54.505 6.408154
54.510 6.275679
54.515 6.36951
54.520 6.874998
54.525 7.050654
54.530 6.76722
54.535 6.450322
54.540 6.019043
54.545 5.426194
54.550 5.16
54.555 5.371521
54.560 5.570562
54.565 6.000567
54.570 6.264845
54.575 7.019124
54.580 7.676372
54.585 7.711903
54.590 7.389139
54.595 6.951424
54.600 6.665066
54.605 6.790799
54.610 6.653223
54.615 6.260075
54.620 6.055051
54.625 5.937882
54.630 5.993137
54.635 6.11942
54.640 5.84459
54.645 6.21945
54.650 6.501953
54.655 6.377087
54.660 6.448991
54.665 6.407973
54.670 6.527904
54.675 6.518837
54.680 6.359659
54.685 6.686383
54.690 7.199172
54.695 7.403835
54.700 7.494771
54.705 7.356449
54.710 7.208622
54.715 6.909228
54.720 6.501447
54.725 6.235836
54.730 6.176626
54.735 5.858481
54.740 5.973837
54.745 6.012091
54.750 5.834818
54.755 6.029047
54.760 5.946448
54.765 6.11989
54.770 6.341725
54.775 6.196913
54.780 6.254158
54.785 6.462953
54.790 6.596984
54.795 6.745712
54.800 6.810518
54.805 6.964725
54.810 7.068346
54.815 7.48782
54.820 7.406856
54.825 7.584145
54.830 7.715539
54.835 7.54847
54.840 7.444476
54.845 8.039052
54.850 8.009175
54.855 8.093444
54.860 7.846661
54.865 7.751122
54.870 7.967758
54.875 7.871826
54.880 7.250224
54.885 7.569151
54.890 7.658568
54.895 7.738985
54.900 7.577527
54.905 7.432053
54.910 7.741998
54.915 8.181175
54.920 8.066186
54.925 8.179936
54.930 8.549299
54.935 8.83269
54.940 8.857667
54.945 8.865552
54.950 8.283662
54.955 7.651845
54.960 7.107527
54.965 6.423746
54.970 5.990446
54.975 5.772556
54.980 5.549725
54.985 5.768687
54.990 5.911553
54.995 5.545483
55.000 5.662502
55.005 5.972957
55.010 6.190695
55.015 6.150568
55.020 6.394766
55.025 6.606153
55.030 7.163847
55.035 7.442555
55.040 7.360873
55.045 7.43578
55.050 7.533803
55.055 7.2733
55.060 7.587347
55.065 7.128184
55.070 6.777104
55.075 6.744219
55.080 6.998449
55.085 7.321661
55.090 7.633941
55.095 7.695529
55.100 8.330299
55.105 8.249345
55.110 8.183488
55.115 7.678089
55.120 7.474402
55.125 7.550273
55.130 7.649565
55.135 7.41805
55.140 7.291974
55.145 7.292859
55.150 7.40136
55.155 7.373456
55.160 7.094882
55.165 7.036337
55.170 7.54246
55.175 7.914661
55.180 7.743594
55.185 7.638575
55.190 7.17321
55.195 7.156824
55.200 6.743782
55.205 6.520217
55.210 6.612833
55.215 6.877015
55.220 7.01775
55.225 7.458284
55.230 7.597626
55.235 7.727426
55.240 7.512815
55.245 7.540581
55.250 7.07467
55.255 6.670769
55.260 6.372361
55.265 6.105268
55.270 5.967322
55.275 6.353301
55.280 6.443565
55.285 6.683507
55.290 7.030758
55.295 7.14545
55.300 6.821267
55.305 6.603127
55.310 6.214418
55.315 6.092963
55.320 6.040546
55.325 5.940253
55.330 6.17663
55.335 6.541907
55.340 6.612621
55.345 6.672972
55.350 6.574202
55.355 6.621925
55.360 6.88262
55.365 6.579565
55.370 6.58516
55.375 6.414139
55.380 6.076198
55.385 5.964009
55.390 5.569225
55.395 5.452762
55.400 5.963838
55.405 6.251458
55.410 6.77053
55.415 6.920325
55.420 6.840587
55.425 6.829975
55.430 6.551781
55.435 6.446763
55.440 6.220281
55.445 5.713711
55.450 6.020806
55.455 6.785148
55.460 6.814173
55.465 7.302714
55.470 7.20007
55.475 7.285032
55.480 7.455745
55.485 7.425842
55.490 7.285161
55.495 7.523695
55.500 7.478782
55.505 7.399107
55.510 7.55433
55.515 7.805832
55.520 7.863973
55.525 7.486933
55.530 7.598443
55.535 7.437415
55.540 7.247028
55.545 7.187412
55.550 6.961891
55.555 6.885454
55.560 6.974326
55.565 7.018746
55.570 7.150803
55.575 7.20726
55.580 7.434578
55.585 7.724264
55.590 7.480033
55.595 7.125797
55.600 6.581747
55.605 6.597589
55.610 7.067811
55.615 6.69416
55.620 6.955823
55.625 6.815449
55.630 7.042796
55.635 7.353185
55.640 7.516538
55.645 6.945493
55.650 6.729094
55.655 6.447297
55.660 6.255942
55.665 6.369715
55.670 6.411674
55.675 6.306833
55.680 6.424465
55.685 6.585999
55.690 6.82744
55.695 6.843423
55.700 6.805241
55.705 6.683588
55.710 6.636439
55.715 6.751354
55.720 6.858439
55.725 6.907554
55.730 7.127757
55.735 6.951971
55.740 6.905585
55.745 6.582794
55.750 6.473433
55.755 6.256234
55.760 6.189509
55.765 6.455265
55.770 6.432299
55.775 6.539804
55.780 6.863516
55.785 7.062808
55.790 7.576236
55.795 7.838186
55.800 7.922739
55.805 7.858822
55.810 7.748335
55.815 7.344119
55.820 7.301704
55.825 7.55435
55.830 7.524696
55.835 7.743692
55.840 8.20682
55.845 8.700738
55.850 8.716807
55.855 8.607105
55.860 8.068789
55.865 8.216608
55.870 7.910246
55.875 8.081681
55.880 8.222642
55.885 8.453827
55.890 8.502635
55.895 8.598187
55.900 8.515061
55.905 8.374543
55.910 7.81722
55.915 7.679861
55.920 7.31617
55.925 6.979319
55.930 7.064338
55.935 7.260845
55.940 7.496276
55.945 7.787923
55.950 8.021607
55.955 8.200274
55.960 8.274364
55.965 8.106472
55.970 7.88694
55.975 7.784079
55.980 7.545208
55.985 7.215585
55.990 7.316628
55.995 7.598746
56.000 7.689173
56.005 7.302047
56.010 7.07142
56.015 6.910002
56.020 6.880021
56.025 6.910615
56.030 6.677089
56.035 6.466901
56.040 6.440527
56.045 6.338422
56.050 6.450233
56.055 6.275461
56.060 5.913264
56.065 5.9959
56.070 6.125377
56.075 6.575607
56.080 6.801122
56.085 6.465024
56.090 6.209674
56.095 6.266412
56.100 5.942489
56.105 6.303144
56.110 6.070449
56.115 6.21228
56.120 6.467714
56.125 6.5892
56.130 6.883084
56.135 7.069086
56.140 6.745959
56.145 7.016634
56.150 6.587971
56.155 7.149261
56.160 7.408618
56.165 7.442558
56.170 7.643296
56.175 7.769506
56.180 7.737006
56.185 7.999104
56.190 7.600932
56.195 7.485579
56.200 7.383383
56.205 7.034667
56.210 6.774833
56.215 6.804941
56.220 6.594366
56.225 6.93762
56.230 6.93551
56.235 6.901854
56.240 7.372859
56.245 7.523741
56.250 7.819717
56.255 8.286008
56.260 8.059033
56.265 8.125071
56.270 7.935912
56.275 7.835388
56.280 7.41136
56.285 7.011511
56.290 6.612639
56.295 6.788291
56.300 6.926977
56.305 6.854954
56.310 7.018103
56.315 7.012119
56.320 6.827826
56.325 7.012321
56.330 6.720759
56.335 6.903077
56.340 7.046895
56.345 7.091022
56.350 7.831538
56.355 8.027725
56.360 7.558237
56.365 7.276595
56.370 7.382264
56.375 7.382992
56.380 7.447984
56.385 7.340188
56.390 7.484636
56.395 8.04309
56.400 8.058196
56.405 7.9336
56.410 8.021687
56.415 7.94096
56.420 7.907732
56.425 8.139528
56.430 8.586596
56.435 8.88283
56.440 8.791756
56.445 8.636645
56.450 8.306142
56.455 8.166624
56.460 8.355179
56.465 8.190248
56.470 7.975672
56.475 8.29973
56.480 8.573196
56.485 9.092402
56.490 9.347978
56.495 8.914227
56.500 8.843986
56.505 8.75533
56.510 8.446029
56.515 8.505305
56.520 8.275863
56.525 8.207161
56.530 7.965102
56.535 7.908097
56.540 8.019684
56.545 8.214765
56.550 7.978298
56.555 8.240188
56.560 8.535057
56.565 9.111387
56.570 9.42192
56.575 9.470658
56.580 9.258425
56.585 9.509071
56.590 9.588861
56.595 9.396955
56.600 9.112446
56.605 8.829593
56.610 8.546745
56.615 8.442881
56.620 7.790862
56.625 7.299086
56.630 7.207211
56.635 7.039687
56.640 7.223956
56.645 7.871772
56.650 8.081239
56.655 8.461057
56.660 8.427373
56.665 8.392514
56.670 8.679403
56.675 8.252416
56.680 7.768694
56.685 7.734958
56.690 8.124287
56.695 8.414612
56.700 8.119663
56.705 7.899702
56.710 8.545164
56.715 9.000755
56.720 9.069306
56.725 8.675482
56.730 8.630898
56.735 8.693913
56.740 8.612003
56.745 7.949867
56.750 7.810425
56.755 7.733711
56.760 7.605382
56.765 7.366426
56.770 7.50676
56.775 7.618294
56.780 7.629338
56.785 7.636097
56.790 7.694498
56.795 7.734693
56.800 7.882758
56.805 7.614
56.810 7.699757
56.815 7.519445
56.820 7.407743
56.825 7.310606
56.830 7.329054
56.835 7.380773
56.840 7.37466
56.845 7.479072
56.850 7.479969
56.855 7.177052
56.860 7.34056
56.865 7.361353
56.870 7.603309
56.875 7.41094
56.880 7.286633
56.885 7.571954
56.890 7.659796
56.895 7.768436
56.900 7.953918
56.905 7.923982
56.910 8.220063
56.915 7.995334
56.920 7.866409
56.925 7.812828
56.930 7.261965
56.935 7.02158
56.940 7.137667
56.945 7.063166
56.950 7.120968
56.955 7.161959
56.960 7.217979
56.965 7.348448
56.970 6.97035
56.975 7.317717
56.980 6.986332
56.985 6.580022
56.990 6.682617
56.995 7.067131
57.000 7.294384
57.005 7.089518
57.010 6.683435
57.015 6.859503
57.020 7.016371
57.025 7.115355
57.030 6.830589
57.035 6.835477
57.040 7.233981
57.045 6.968011
57.050 7.137119
57.055 7.02785
57.060 6.716143
57.065 6.553254
57.070 6.746587
57.075 7.0371
57.080 7.391458
57.085 7.433107
57.090 7.625667
57.095 7.974479
57.100 8.006285
57.105 7.920395
57.110 7.510852
57.115 7.348054
57.120 7.419646
57.125 7.25731
57.130 7.175893
57.135 7.418099
57.140 7.234211
57.145 7.239558
57.150 7.002964
57.155 7.085845
57.160 6.995214
57.165 6.777282
57.170 6.516775
57.175 6.495279
57.180 6.785474
57.185 7.011351
57.190 6.809154
57.195 7.020289
57.200 7.188793
57.205 7.329316
57.210 7.486398
57.215 7.496994
57.220 7.445574
57.225 7.475449
57.230 7.060385
57.235 6.736888
57.240 6.950004
57.245 7.101357
57.250 7.174818
57.255 7.23251
57.260 7.488497
57.265 7.561936
57.270 7.491136
57.275 7.324182
57.280 6.95687
57.285 6.831595
57.290 6.919162
57.295 7.092565
57.300 7.403853
57.305 7.19158
57.310 6.78711
57.315 6.940091
57.320 6.960416
57.325 6.994985
57.330 6.82709
57.335 6.878564
57.340 7.409968
57.345 8.053704
57.350 8.038195
57.355 7.753804
57.360 7.763253
57.365 7.509564
57.370 7.419109
57.375 7.432963
57.380 7.538448
57.385 7.847943
57.390 7.748374
57.395 7.403123
57.400 7.715544
57.405 7.749578
57.410 7.683578
57.415 7.115619
57.420 6.790285
57.425 6.939565
57.430 7.326277
57.435 7.342298
57.440 7.512493
57.445 7.343569
57.450 7.833912
57.455 8.520425
57.460 8.95717
57.465 9.073786
57.470 9.024909
57.475 9.241292
57.480 9.376814
57.485 8.988132
57.490 8.41928
57.495 8.119951
57.500 7.7711
57.505 7.611452
57.510 7.237462
57.515 6.93218
57.520 7.44711
57.525 7.489592
57.530 7.309835
57.535 7.324816
57.540 7.383999
57.545 7.604174
57.550 7.610288
57.555 7.289846
57.560 7.477115
57.565 7.80478
57.570 7.961776
57.575 8.191895
57.580 8.191665
57.585 8.395574
57.590 8.44889
57.595 8.332578
57.600 8.096277
57.605 7.702671
57.610 7.375464
57.615 7.486476
57.620 7.60904
57.625 7.759562
57.630 8.044842
57.635 8.236266
57.640 8.319606
57.645 7.890632
57.650 7.449846
57.655 7.017488
57.660 6.963904
57.665 6.827524
57.670 7.063519
57.675 7.499987
57.680 7.721411
57.685 7.670776
57.690 7.618806
57.695 7.837114
57.700 7.614213
57.705 7.349658
57.710 7.384747
57.715 7.460644
57.720 8.066571
57.725 8.298199
57.730 8.068957
57.735 8.182776
57.740 8.187872
57.745 8.330435
57.750 8.963391
57.755 8.99409
57.760 8.951226
57.765 8.552798
57.770 8.648756
57.775 8.711774
57.780 8.472323
57.785 8.108658
57.790 7.895764
57.795 8.279386
57.800 8.539172
57.805 8.600813
57.810 8.453672
57.815 8.067042
57.820 7.841999
57.825 7.580934
57.830 7.412569
57.835 7.470022
57.840 7.780194
57.845 8.402935
57.850 8.707663
57.855 8.885428
57.860 8.895942
57.865 8.762872
57.870 8.706934
57.875 8.015804
57.880 7.592031
57.885 7.482295
57.890 7.460062
57.895 7.574245
57.900 7.70765
57.905 7.614647
57.910 7.542395
57.915 7.452258
57.920 7.592005
57.925 7.091387
57.930 7.043814
57.935 7.062133
57.940 7.030324
57.945 7.511147
57.950 7.587184
57.955 7.486548
57.960 7.611586
57.965 7.747306
57.970 7.938007
57.975 7.957462
57.980 7.911448
57.985 8.097093
57.990 8.19514
57.995 8.295091
58.000 8.010221
58.005 7.484407
58.010 7.086814
58.015 6.763993
58.020 6.926537
58.025 7.189099
58.030 7.557188
58.035 7.803911
58.040 8.211665
58.045 8.859096
58.050 8.751544
58.055 8.236397
58.060 7.950554
58.065 7.594847
58.070 7.350875
58.075 7.610856
58.080 7.234255
58.085 7.489044
58.090 7.775679
58.095 7.759473
58.100 8.028434
58.105 8.137028
58.110 7.762069
58.115 7.734623
58.120 7.680006
58.125 7.46498
58.130 7.450967
58.135 7.68638
58.140 7.900182
58.145 7.799697
58.150 7.481311
58.155 7.118546
58.160 6.994711
58.165 7.089212
58.170 6.941183
58.175 6.887
58.180 7.229538
58.185 7.685714
58.190 7.850038
58.195 8.108746
58.200 7.929977
58.205 7.634292
58.210 7.509843
58.215 7.293108
58.220 7.259004
58.225 7.145887
58.230 6.730709
58.235 6.6763
58.240 6.660871
58.245 6.336199
58.250 6.180315
58.255 6.082867
58.260 6.133781
58.265 6.172875
58.270 6.045229
58.275 6.116429
58.280 6.076883
58.285 6.124493
58.290 6.659
58.295 7.273779
58.300 7.390196
58.305 7.4926
58.310 7.59667
58.315 7.72372
58.320 7.544612
58.325 7.018604
58.330 6.439597
58.335 6.565063
58.340 6.476781
58.345 6.62961
58.350 7.088482
58.355 7.663013
58.360 7.961754
58.365 8.191571
58.370 8.201413
58.375 8.354062
58.380 8.174048
58.385 7.657668
58.390 7.139471
58.395 7.162161
58.400 7.260013
58.405 7.299704
58.410 7.25984
58.415 7.35373
58.420 7.626832
58.425 8.227081
58.430 8.235084
58.435 8.238077
58.440 8.288604
58.445 8.22333
58.450 8.142571
58.455 7.842124
58.460 7.804296
58.465 7.610858
58.470 7.598285
58.475 7.382446
58.480 7.600503
58.485 7.749266
58.490 7.64137
58.495 7.320445
58.500 7.584948
58.505 8.259923
58.510 8.412768
58.515 8.372029
58.520 8.379045
58.525 8.980042
58.530 8.967957
58.535 8.493851
58.540 8.092879
58.545 7.929673
58.550 7.69322
58.555 7.52543
58.560 7.025278
58.565 7.146821
58.570 7.719447
58.575 7.484591
58.580 7.525251
58.585 7.376079
58.590 7.610231
58.595 7.563263
58.600 7.179624
58.605 7.373044
58.610 7.470985
58.615 7.917906
58.620 8.180037
58.625 8.171169
58.630 8.341807
58.635 8.343467
58.640 7.806232
58.645 7.821169
58.650 7.429451
58.655 7.233757
58.660 7.035704
58.665 6.74246
58.670 6.931141
58.675 6.834013
58.680 7.009629
58.685 7.36764
58.690 7.718062
58.695 7.879908
58.700 8.076156
58.705 8.078773
58.710 8.309559
58.715 8.25126
58.720 7.961874
58.725 7.636807
58.730 7.917471
58.735 7.98385
58.740 7.782333
58.745 7.429982
58.750 7.357019
58.755 7.619574
58.760 7.472778
58.765 7.352446
58.770 7.331876
