!@!!GADDS PLOTSO FILE: Chi integration type
!@!!Title/SampleName: map-11b
!@!!Comment: ?
!@!!User: Bruker Instrument Administrator
!@!!Site: University of Illinois Chicago
!@!!Frame: map-11b_01_000.gfrm
!@!!Wavelengths    1.54184   1.54056   1.54439
!@!!Frame angles: 2Theta: 63.000 Omega: 50.000 Phi: 0.000 Chi: 90.000
!@!!Integration range: 2Theta: 53.000 to 73.000  Gamma: -105.000 to -75.000
!@!!Integration method: bin normalized
!@!N
!@!SS
!@!M
!@!L 0.0 0.0 0.0 0.0
!@!XDegrees
!@!YCounts
53.000 6.702382
53.005 6.742311
53.010 6.714852
53.015 6.232293
53.020 6.48343
53.025 6.529744
53.030 6.6495
53.035 6.868092
53.040 6.992546
53.045 7.477145
53.050 7.476401
53.055 7.294818
53.060 7.1009
53.065 6.963592
53.070 6.71023
53.075 6.790955
53.080 6.728832
53.085 6.582106
53.090 6.276376
53.095 6.250089
53.100 6.027961
53.105 6.004781
53.110 5.995421
53.115 6.215713
53.120 6.498375
53.125 6.587739
53.130 6.908836
53.135 7.150571
53.140 7.269583
53.145 7.331053
53.150 7.148515
53.155 7.085021
53.160 7.106962
53.165 6.999891
53.170 7.140543
53.175 7.287217
53.180 6.975222
53.185 6.723637
53.190 6.732206
53.195 6.996684
53.200 7.047714
53.205 6.478929
53.210 6.197403
53.215 6.606691
53.220 7.183329
53.225 7.239466
53.230 7.241308
53.235 7.290332
53.240 7.657313
53.245 7.922641
53.250 8.009146
53.255 8.471759
53.260 8.509887
53.265 8.223676
53.270 8.199258
53.275 8.135233
53.280 7.854981
53.285 7.493457
53.290 6.90704
53.295 6.93504
53.300 6.990344
53.305 6.896303
53.310 7.028162
53.315 7.222724
53.320 7.574641
53.325 7.722991
53.330 7.916595
53.335 8.091908
53.340 8.11576
53.345 8.21839
53.350 7.816657
53.355 7.907715
53.360 7.751261
53.365 7.729574
53.370 7.534976
53.375 7.770096
53.380 7.887156
53.385 7.798779
53.390 7.49423
53.395 7.521
53.400 7.384061
53.405 7.354604
53.410 6.972346
53.415 6.916088
53.420 7.021381
53.425 6.986812
53.430 6.859955
53.435 7.337397
53.440 7.498039
53.445 7.506057
53.450 8.056634
53.455 8.068263
53.460 7.773347
53.465 7.786401
53.470 7.572261
53.475 7.751628
53.480 7.971061
53.485 7.568606
53.490 7.609243
53.495 7.89047
53.500 7.781466
53.505 7.634961
53.510 7.60054
53.515 7.379632
53.520 7.275944
53.525 7.609795
53.530 7.784576
53.535 7.781795
53.540 7.788527
53.545 7.614388
53.550 7.790142
53.555 7.856887
53.560 7.766626
53.565 7.955612
53.570 8.22892
53.575 7.990476
53.580 8.24321
53.585 8.313078
53.590 8.046835
53.595 7.934289
53.600 7.41822
53.605 7.289979
53.610 7.060375
53.615 6.505569
53.620 6.583642
53.625 6.879972
53.630 6.947593
53.635 7.330011
53.640 7.519373
53.645 7.723946
53.650 7.959856
53.655 8.168175
53.660 8.146656
53.665 8.51655
53.670 8.328955
53.675 8.522816
53.680 8.324244
53.685 7.938861
53.690 7.58382
53.695 7.579581
53.700 7.260886
53.705 6.757294
53.710 6.635665
53.715 6.809915
53.720 6.928629
53.725 6.535229
53.730 6.377382
53.735 6.711016
53.740 6.983108
53.745 7.093088
53.750 7.695638
53.755 7.704392
53.760 8.14191
53.765 8.349794
53.770 8.109001
53.775 8.349639
53.780 8.323298
53.785 8.360702
53.790 8.862852
53.795 8.834895
53.800 8.491612
53.805 8.55417
53.810 8.471207
53.815 8.137894
53.820 7.816631
53.825 7.516729
53.830 7.592482
53.835 7.806333
53.840 8.079161
53.845 7.904765
53.850 7.826884
53.855 7.790403
53.860 7.965928
53.865 8.375176
53.870 8.141894
53.875 7.606055
53.880 7.33254
53.885 7.503295
53.890 7.84984
53.895 7.337978
53.900 7.172047
53.905 7.50751
53.910 8.083165
53.915 8.237831
53.920 8.164809
53.925 8.003683
53.930 8.105962
53.935 7.682801
53.940 7.469435
53.945 7.52413
53.950 7.491392
53.955 7.288671
53.960 7.622596
53.965 7.702481
53.970 7.689236
53.975 7.706897
53.980 7.416937
53.985 7.41391
53.990 7.171507
53.995 6.436957
54.000 6.827672
54.005 6.996079
54.010 6.603663
54.015 6.694123
54.020 6.866486
54.025 6.878171
54.030 7.156316
54.035 6.881494
54.040 6.742882
54.045 6.68981
54.050 6.767282
54.055 6.834233
54.060 7.400924
54.065 7.491332
54.070 7.648692
54.075 8.118162
54.080 8.557929
54.085 8.70091
54.090 9.041714
54.095 8.749012
54.100 8.654335
54.105 8.826713
54.110 8.914118
54.115 8.659608
54.120 8.309072
54.125 7.859694
54.130 7.930966
54.135 7.704866
54.140 7.212772
54.145 7.258784
54.150 7.460268
54.155 7.412041
54.160 7.509459
54.165 7.675954
54.170 7.929859
54.175 7.917346
54.180 7.496174
54.185 7.221645
54.190 7.278027
54.195 7.10014
54.200 7.281918
54.205 7.72296
54.210 8.02396
54.215 8.215899
54.220 8.170956
54.225 7.954618
54.230 8.41029
54.235 8.620289
54.240 8.401252
54.245 8.557762
54.250 8.570667
54.255 9.174671
54.260 9.360489
54.265 8.756577
54.270 8.10649
54.275 7.9698
54.280 7.662149
54.285 7.666693
54.290 6.987085
54.295 6.795868
54.300 7.366667
54.305 7.916841
54.310 7.815048
54.315 7.7116
54.320 7.281349
54.325 7.537852
54.330 7.624463
54.335 7.494869
54.340 7.167056
54.345 7.419489
54.350 8.1787
54.355 9.223825
54.360 9.361527
54.365 9.166595
54.370 9.245931
54.375 9.373652
54.380 9.321105
54.385 8.447618
54.390 7.839745
54.395 7.645402
54.400 7.931208
54.405 7.553061
54.410 7.357825
54.415 7.467017
54.420 8.055523
54.425 8.28258
54.430 8.376615
54.435 8.172691
54.440 8.144676
54.445 8.145301
54.450 8.02422
54.455 7.602036
54.460 7.612203
54.465 7.56268
54.470 7.86212
54.475 8.081837
54.480 8.180097
54.485 8.463827
54.490 8.705512
54.495 8.604245
54.500 8.294707
54.505 7.963204
54.510 7.569145
54.515 7.459865
54.520 7.137306
54.525 6.830156
54.530 7.137126
54.535 7.624601
54.540 7.90355
54.545 8.078428
54.550 8.052124
54.555 8.112027
54.560 8.128935
54.565 8.198637
54.570 7.973361
54.575 7.833423
54.580 7.830989
54.585 7.798015
54.590 7.838192
54.595 7.741658
54.600 7.28966
54.605 7.633367
54.610 7.716975
54.615 8.166518
54.620 8.694709
54.625 8.299565
54.630 8.279823
54.635 8.51794
54.640 8.260082
54.645 8.431396
54.650 7.987789
54.655 7.491975
54.660 7.879321
54.665 7.885822
54.670 7.794549
54.675 7.975129
54.680 7.992849
54.685 8.120139
54.690 8.280915
54.695 8.372871
54.700 8.284273
54.705 8.514583
54.710 8.468814
54.715 8.356376
54.720 8.58341
54.725 8.503849
54.730 8.182641
54.735 8.149134
54.740 8.038836
54.745 8.420611
54.750 8.424066
54.755 8.623127
54.760 9.044645
54.765 9.532316
54.770 9.455208
54.775 9.09776
54.780 8.920019
54.785 8.459206
54.790 8.096732
54.795 7.928104
54.800 7.846839
54.805 8.17804
54.810 8.335196
54.815 8.680369
54.820 8.618782
54.825 8.503053
54.830 8.702441
54.835 8.922453
54.840 9.234586
54.845 8.977491
54.850 8.637356
54.855 9.138124
54.860 8.899331
54.865 8.09731
54.870 7.658253
54.875 7.60066
54.880 7.82233
54.885 7.849249
54.890 8.094325
54.895 8.50685
54.900 9.060417
54.905 9.155205
54.910 8.825605
54.915 8.94427
54.920 8.749687
54.925 8.548691
54.930 8.559137
54.935 8.512168
54.940 8.579235
54.945 8.820322
54.950 8.966821
54.955 9.143285
54.960 8.814795
54.965 8.4288
54.970 8.256092
54.975 8.174119
54.980 7.869081
54.985 7.518515
54.990 7.182449
54.995 7.680768
55.000 7.699622
55.005 7.765636
55.010 7.838212
55.015 7.887935
55.020 8.059806
55.025 8.734665
55.030 8.717652
55.035 8.731103
55.040 8.623924
55.045 8.537271
55.050 8.371867
55.055 8.279202
55.060 8.317147
55.065 8.824187
55.070 9.20598
55.075 9.34024
55.080 9.405662
55.085 9.534868
55.090 9.391222
55.095 9.326488
55.100 8.846559
55.105 9.191888
55.110 9.11726
55.115 9.249472
55.120 9.546454
55.125 9.578154
55.130 9.721332
55.135 9.778006
55.140 9.498133
55.145 9.22486
55.150 9.22593
55.155 9.20316
55.160 9.029542
55.165 9.113077
55.170 8.721732
55.175 8.798968
55.180 8.920589
55.185 8.698269
55.190 8.168703
55.195 8.125499
55.200 7.600996
55.205 7.577974
55.210 7.527235
55.215 7.620618
55.220 7.622466
55.225 7.859998
55.230 7.709897
55.235 7.95023
55.240 8.33092
55.245 8.593977
55.250 8.509496
55.255 8.102814
55.260 7.711426
55.265 7.660505
55.270 7.731133
55.275 7.364034
55.280 6.91181
55.285 6.943072
55.290 7.380966
55.295 7.469893
55.300 7.676322
55.305 7.524328
55.310 7.589332
55.315 8.098891
55.320 8.116599
55.325 8.204432
55.330 8.439544
55.335 8.152893
55.340 8.498148
55.345 8.270256
55.350 8.255074
55.355 8.903521
55.360 9.746026
55.365 9.787617
55.370 9.755938
55.375 9.690047
55.380 10.001427
55.385 10.048557
55.390 9.420184
55.395 9.150023
55.400 9.609907
55.405 9.955061
55.410 10.122026
55.415 9.943669
55.420 9.598025
55.425 9.349105
55.430 8.759282
55.435 8.175364
55.440 7.789937
55.445 7.536534
55.450 7.735411
55.455 8.009992
55.460 8.486403
55.465 9.075505
55.470 9.422936
55.475 9.310116
55.480 9.444374
55.485 9.422638
55.490 9.317185
55.495 8.94126
55.500 8.670762
55.505 8.660475
55.510 9.076594
55.515 9.243442
55.520 9.329193
55.525 9.983928
55.530 10.469257
55.535 10.600495
55.540 10.391062
55.545 10.44177
55.550 10.14474
55.555 9.332801
55.560 8.744762
55.565 8.610406
55.570 8.105998
55.575 8.090178
55.580 7.878172
55.585 8.020416
55.590 8.507096
55.595 8.398437
55.600 8.371611
55.605 9.230894
55.610 9.752343
55.615 9.77235
55.620 10.063425
55.625 10.442059
55.630 10.788252
55.635 10.530847
55.640 10.289351
55.645 9.922007
55.650 10.224044
55.655 10.07388
55.660 9.459883
55.665 9.690463
55.670 9.849068
55.675 9.567672
55.680 9.469543
55.685 9.584413
55.690 9.412588
55.695 9.623449
55.700 9.473157
55.705 9.660971
55.710 9.905005
55.715 9.737288
55.720 9.499818
55.725 9.772308
55.730 9.759659
55.735 9.415299
55.740 8.672293
55.745 8.437004
55.750 8.666064
55.755 8.386916
55.760 8.340939
55.765 8.666573
55.770 8.90921
55.775 9.122384
55.780 8.825963
55.785 8.311354
55.790 8.56177
55.795 8.3162
55.800 7.94607
55.805 8.391823
55.810 8.872834
55.815 9.613245
55.820 9.934744
55.825 9.860106
55.830 10.020228
55.835 10.134963
55.840 9.939501
55.845 10.257412
55.850 9.98134
55.855 9.515038
55.860 9.192904
55.865 8.936604
55.870 8.743216
55.875 8.761911
55.880 8.487157
55.885 9.10015
55.890 9.296844
55.895 9.458339
55.900 9.257936
55.905 9.312031
55.910 9.335518
55.915 9.482814
55.920 9.411149
55.925 9.634418
55.930 9.767704
55.935 10.290691
55.940 10.421705
55.945 10.492975
55.950 10.308018
55.955 10.175914
55.960 10.008454
55.965 10.162414
55.970 10.4384
55.975 10.238624
55.980 9.957904
55.985 9.884014
55.990 9.849919
55.995 9.822337
56.000 9.197966
56.005 8.606919
56.010 8.029719
56.015 7.840275
56.020 7.873806
56.025 8.307169
56.030 8.300044
56.035 8.364779
56.040 8.576229
56.045 8.998339
56.050 9.250111
56.055 8.984585
56.060 8.447891
56.065 8.873587
56.070 9.062525
56.075 8.759888
56.080 9.12774
56.085 9.485347
56.090 9.732187
56.095 9.896769
56.100 9.602792
56.105 9.925782
56.110 10.264187
56.115 10.367495
56.120 10.018358
56.125 9.869489
56.130 9.785242
56.135 9.886619
56.140 10.066428
56.145 9.970667
56.150 9.576691
56.155 9.783547
56.160 9.746634
56.165 9.641403
56.170 9.941299
56.175 9.702262
56.180 9.666077
56.185 9.259864
56.190 9.277342
56.195 9.478975
56.200 9.489968
56.205 9.288433
56.210 9.345201
56.215 9.059407
56.220 9.309021
56.225 9.260501
56.230 9.34576
56.235 10.128538
56.240 10.049233
56.245 9.985132
56.250 10.415857
56.255 10.700649
56.260 10.310793
56.265 10.131893
56.270 9.378335
56.275 9.521605
56.280 9.358998
56.285 9.280295
56.290 9.130685
56.295 9.456582
56.300 9.430381
56.305 9.445929
56.310 9.210869
56.315 9.18128
56.320 9.452403
56.325 9.570077
56.330 9.663669
56.335 9.926542
56.340 10.057583
56.345 10.048633
56.350 10.195715
56.355 9.573199
56.360 9.291314
56.365 8.954663
56.370 8.741873
56.375 8.816284
56.380 9.016855
56.385 9.37198
56.390 9.919658
56.395 9.894842
56.400 10.193243
56.405 10.196454
56.410 10.079782
56.415 9.698061
56.420 9.127518
56.425 9.0763
56.430 9.695105
56.435 9.495659
56.440 9.610299
56.445 9.877072
56.450 10.03776
56.455 9.588144
56.460 9.395422
56.465 9.092855
56.470 9.121074
56.475 9.000067
56.480 8.807123
56.485 9.042311
56.490 9.741498
56.495 10.256551
56.500 10.282352
56.505 10.386241
56.510 10.637421
56.515 10.931459
56.520 10.890197
56.525 10.865191
56.530 10.265513
56.535 10.094824
56.540 9.602082
56.545 9.457835
56.550 9.183454
56.555 9.422528
56.560 9.614121
56.565 10.146291
56.570 10.097468
56.575 10.094944
56.580 10.114022
56.585 10.64296
56.590 10.194427
56.595 9.885493
56.600 10.070452
56.605 10.359979
56.610 10.657247
56.615 10.413366
56.620 10.324164
56.625 10.639164
56.630 10.588801
56.635 10.554173
56.640 10.894693
56.645 11.14408
56.650 11.281649
56.655 11.417575
56.660 11.701555
56.665 11.627104
56.670 11.308027
56.675 11.16599
56.680 11.366233
56.685 11.676826
56.690 11.955852
56.695 12.124654
56.700 12.162942
56.705 12.486815
56.710 12.486687
56.715 12.120394
56.720 12.207369
56.725 11.386835
56.730 11.020494
56.735 10.915836
56.740 10.675754
56.745 10.29787
56.750 10.418489
56.755 10.166205
56.760 10.543839
56.765 10.664511
56.770 10.566147
56.775 10.736099
56.780 11.212637
56.785 10.91525
56.790 10.799221
56.795 10.932623
56.800 11.449949
56.805 12.139835
56.810 12.460614
56.815 12.605365
56.820 12.753428
56.825 12.903369
56.830 12.687429
56.835 12.268526
56.840 11.788665
56.845 11.345429
56.850 10.693788
56.855 10.572851
56.860 10.473075
56.865 10.771094
56.870 10.847448
56.875 10.880994
56.880 10.778929
56.885 11.04405
56.890 10.843486
56.895 11.111363
56.900 11.020334
56.905 10.859922
56.910 11.551076
56.915 11.822702
56.920 11.605596
56.925 11.641852
56.930 11.551988
56.935 11.52882
56.940 11.107055
56.945 10.254018
56.950 9.961725
56.955 10.272024
56.960 9.829486
56.965 9.5126
56.970 9.343671
56.975 9.775757
56.980 9.647356
56.985 9.740561
56.990 9.461933
56.995 9.701202
57.000 9.698482
57.005 10.264668
57.010 10.02711
57.015 10.206244
57.020 10.511794
57.025 11.126845
57.030 10.975954
57.035 10.907825
57.040 10.210479
57.045 10.617084
57.050 11.270304
57.055 11.026398
57.060 10.414808
57.065 10.604447
57.070 10.637359
57.075 10.801494
57.080 10.478329
57.085 9.857574
57.090 9.495955
57.095 9.873191
57.100 10.31967
57.105 10.40473
57.110 10.215319
57.115 10.265898
57.120 10.713918
57.125 11.029043
57.130 10.892805
57.135 10.675819
57.140 10.972753
57.145 11.136608
57.150 11.088259
57.155 10.953464
57.160 10.961226
57.165 10.880058
57.170 10.64154
57.175 10.153
57.180 10.346598
57.185 10.421341
57.190 10.390783
57.195 10.243183
57.200 10.518539
57.205 10.544271
57.210 10.711251
57.215 10.33594
57.220 10.174485
57.225 9.984891
57.230 10.355005
57.235 10.063095
57.240 10.100495
57.245 9.937466
57.250 10.209819
57.255 10.421561
57.260 10.475671
57.265 10.201353
57.270 10.208864
57.275 10.093063
57.280 10.174106
57.285 10.292669
57.290 10.45816
57.295 10.480221
57.300 10.424788
57.305 10.430358
57.310 10.51967
57.315 10.070594
57.320 9.63692
57.325 9.629909
57.330 10.045309
57.335 9.960275
57.340 10.092578
57.345 10.413815
57.350 11.122935
57.355 11.552583
57.360 11.894602
57.365 11.911214
57.370 11.775743
57.375 11.36612
57.380 11.48037
57.385 11.800327
57.390 11.491208
57.395 11.140813
57.400 11.1418
57.405 11.37096
57.410 11.485145
57.415 10.88476
57.420 10.106135
57.425 9.92183
57.430 9.728615
57.435 9.732473
57.440 10.177588
57.445 10.574461
57.450 10.768202
57.455 11.059925
57.460 11.241704
57.465 11.461192
57.470 11.295069
57.475 10.859989
57.480 10.990074
57.485 11.100679
57.490 11.249016
57.495 11.204904
57.500 11.005005
57.505 10.820984
57.510 11.435313
57.515 11.234009
57.520 11.021777
57.525 11.082504
57.530 11.036184
57.535 11.188851
57.540 11.095749
57.545 10.83339
57.550 10.709816
57.555 10.512145
57.560 10.305249
57.565 10.342535
57.570 10.391085
57.575 10.567303
57.580 10.060217
57.585 10.224109
57.590 11.083153
57.595 11.300921
57.600 11.979513
57.605 12.363043
57.610 12.33272
57.615 12.264175
57.620 12.153324
57.625 12.474465
57.630 12.578795
57.635 11.687509
57.640 11.448503
57.645 11.425115
57.650 11.623953
57.655 12.12876
57.660 11.571015
57.665 11.331903
57.670 11.631966
57.675 11.662307
57.680 11.40904
57.685 11.335423
57.690 11.176453
57.695 10.971342
57.700 11.521879
57.705 11.8755
57.710 11.646199
57.715 11.754282
57.720 11.537289
57.725 11.295702
57.730 11.544639
57.735 10.887372
57.740 10.686378
57.745 11.143795
57.750 11.629713
57.755 12.115054
57.760 12.182341
57.765 11.909275
57.770 12.234828
57.775 12.50948
57.780 12.420607
57.785 12.117683
57.790 11.841448
57.795 11.584641
57.800 11.370515
57.805 10.89518
57.810 10.47974
57.815 10.993227
57.820 11.30009
57.825 11.122664
57.830 11.395822
57.835 11.699584
57.840 11.998999
57.845 12.028509
57.850 11.693183
57.855 11.333647
57.860 11.484557
57.865 11.314425
57.870 11.62464
57.875 11.775562
57.880 11.895146
57.885 12.116756
57.890 12.292172
57.895 12.217762
57.900 11.836487
57.905 11.451194
57.910 11.711854
57.915 11.537554
57.920 11.401767
57.925 11.818263
57.930 12.033193
57.935 12.862085
57.940 12.865652
57.945 12.539767
57.950 12.677173
57.955 12.596107
57.960 11.871665
57.965 11.673064
57.970 11.491631
57.975 11.725023
57.980 11.777649
57.985 12.369356
57.990 12.639928
57.995 13.242373
58.000 13.818006
58.005 13.390218
58.010 13.312456
58.015 13.301742
58.020 12.067998
58.025 12.138827
58.030 12.348014
58.035 12.001632
58.040 12.335966
58.045 12.428633
58.050 12.41478
58.055 12.779891
58.060 12.696964
58.065 12.38128
58.070 12.132384
58.075 11.779636
58.080 11.386414
58.085 11.370342
58.090 11.387477
58.095 11.306087
58.100 11.39393
58.105 12.207244
58.110 12.560488
58.115 12.849483
58.120 12.952669
58.125 13.00419
58.130 12.845958
58.135 12.861795
58.140 12.527388
58.145 12.674711
58.150 12.381859
58.155 12.464677
58.160 12.802931
58.165 13.336295
58.170 13.874637
58.175 14.098108
58.180 14.616789
58.185 15.22979
58.190 15.319257
58.195 15.043484
58.200 14.732894
58.205 14.359826
58.210 13.736951
58.215 13.162276
58.220 12.69957
58.225 12.728714
58.230 12.925947
58.235 12.481136
58.240 12.413594
58.245 12.748058
58.250 13.081601
58.255 13.342852
58.260 13.303862
58.265 13.726487
58.270 14.171486
58.275 14.065873
58.280 14.056995
58.285 13.905437
58.290 14.384204
58.295 14.761923
58.300 14.361283
58.305 14.026232
58.310 13.938148
58.315 13.646201
58.320 14.229772
58.325 14.346015
58.330 14.702364
58.335 15.540265
58.340 15.990662
58.345 16.999287
58.350 17.318459
58.355 17.088724
58.360 16.818687
58.365 16.421816
58.370 16.036083
58.375 16.272209
58.380 15.786798
58.385 16.192347
58.390 16.91083
58.395 16.676153
58.400 16.697084
58.405 16.500721
58.410 16.517849
58.415 16.430332
58.420 16.401846
58.425 16.346678
58.430 17.029905
58.435 17.709429
58.440 18.320251
58.445 18.581427
58.450 19.199593
58.455 18.877726
58.460 18.958717
58.465 18.69956
58.470 18.568789
58.475 18.571253
58.480 18.277546
58.485 18.332788
58.490 18.702393
58.495 18.326492
58.500 18.016253
58.505 17.743322
58.510 17.858162
58.515 17.673449
58.520 17.791525
58.525 17.704937
58.530 17.745947
58.535 17.759443
58.540 17.793919
58.545 17.799875
58.550 18.104181
58.555 17.817213
58.560 18.200329
58.565 18.565327
58.570 19.479645
58.575 19.577135
58.580 19.071417
58.585 18.640711
58.590 18.827204
58.595 17.823465
58.600 17.05965
58.605 16.374577
58.610 16.061054
58.615 16.39473
58.620 16.539608
58.625 16.634876
58.630 17.099014
58.635 16.90061
