!@!!GADDS PLOTSO FILE: Chi integration type
!@!!Title/SampleName: map-10a
!@!!Comment: ?
!@!!User: Bruker Instrument Administrator
!@!!Site: University of Illinois Chicago
!@!!Frame: map-10a_01_000.gfrm
!@!!Wavelengths    1.54184   1.54056   1.54439
!@!!Frame angles: 2Theta: 63.000 Omega: 50.000 Phi: 0.000 Chi: 90.000
!@!!Integration range: 2Theta: 53.000 to 73.000  Gamma: -105.000 to -75.000
!@!!Integration method: bin normalized
!@!N
!@!SS
!@!M
!@!L 0.0 0.0 0.0 0.0
!@!XDegrees
!@!YCounts
53.000 8.061219
53.005 7.758488
53.010 7.383236
53.015 7.022683
53.020 6.876132
53.025 7.203546
53.030 7.311218
53.035 7.259875
53.040 7.604153
53.045 8.222306
53.050 8.754904
53.055 8.874238
53.060 8.650768
53.065 8.592075
53.070 8.867913
53.075 8.706367
53.080 8.70277
53.085 8.261498
53.090 8.364574
53.095 8.540777
53.100 9.113166
53.105 9.053428
53.110 9.361129
53.115 9.079871
53.120 8.710114
53.125 8.480804
53.130 7.975244
53.135 7.529805
53.140 7.274736
53.145 6.924224
53.150 7.253129
53.155 7.302269
53.160 7.610981
53.165 8.049684
53.170 8.128722
53.175 8.227117
53.180 8.212609
53.185 8.493176
53.190 8.8578
53.195 8.777102
53.200 8.731454
53.205 8.742523
53.210 8.926556
53.215 8.800752
53.220 8.063927
53.225 8.217765
53.230 8.453623
53.235 8.344563
53.240 8.338367
53.245 8.454337
53.250 8.701695
53.255 8.898211
53.260 8.791549
53.265 8.681048
53.270 8.608517
53.275 8.0474
53.280 7.770975
53.285 7.719241
53.290 7.980849
53.295 7.574325
53.300 7.688409
53.305 8.132645
53.310 8.435126
53.315 8.272368
53.320 8.613062
53.325 8.709485
53.330 8.680874
53.335 8.740799
53.340 8.410513
53.345 8.282724
53.350 8.487703
53.355 8.372081
53.360 8.445659
53.365 8.337509
53.370 8.25147
53.375 8.785972
53.380 8.780421
53.385 8.5201
53.390 8.740502
53.395 8.991873
53.400 9.071006
53.405 9.312138
53.410 9.578885
53.415 9.78723
53.420 9.730964
53.425 9.392517
53.430 9.302829
53.435 9.564795
53.440 9.267423
53.445 9.198302
53.450 9.391433
53.455 9.514086
53.460 9.202104
53.465 8.87536
53.470 8.2894
53.475 7.834426
53.480 7.701729
53.485 7.405659
53.490 7.481219
53.495 7.989639
53.500 7.966007
53.505 8.136197
53.510 8.535939
53.515 8.530813
53.520 8.829741
53.525 8.634147
53.530 8.661436
53.535 9.002398
53.540 9.125252
53.545 9.125008
53.550 9.206978
53.555 9.053289
53.560 9.358972
53.565 9.340555
53.570 9.315327
53.575 9.420164
53.580 9.735909
53.585 10.015112
53.590 9.722775
53.595 9.45383
53.600 9.497536
53.605 9.521008
53.610 9.570334
53.615 9.250847
53.620 9.094856
53.625 9.215264
53.630 9.540247
53.635 9.711411
53.640 9.420635
53.645 9.206248
53.650 9.644829
53.655 9.834107
53.660 9.772078
53.665 9.465197
53.670 9.480591
53.675 9.730331
53.680 9.885227
53.685 10.173512
53.690 10.406529
53.695 10.102578
53.700 9.978006
53.705 9.847127
53.710 9.985071
53.715 9.268506
53.720 8.611257
53.725 8.806976
53.730 9.53778
53.735 10.058415
53.740 10.202201
53.745 10.160996
53.750 10.860315
53.755 11.247149
53.760 10.977262
53.765 10.559252
53.770 10.297088
53.775 10.349901
53.780 10.39334
53.785 9.831481
53.790 9.904092
53.795 10.099712
53.800 10.235817
53.805 9.856303
53.810 9.772216
53.815 9.950223
53.820 9.638786
53.825 9.377835
53.830 8.965947
53.835 8.872239
53.840 8.786029
53.845 8.917591
53.850 8.761573
53.855 9.067616
53.860 9.190462
53.865 8.986677
53.870 8.777636
53.875 8.49646
53.880 8.654232
53.885 9.029873
53.890 9.127557
53.895 9.180355
53.900 9.221319
53.905 9.878165
53.910 10.174873
53.915 9.943816
53.920 9.810636
53.925 10.161499
53.930 10.402451
53.935 10.327038
53.940 10.018262
53.945 9.779612
53.950 10.160769
53.955 10.164085
53.960 9.717552
53.965 9.976802
53.970 9.998437
53.975 10.308389
53.980 10.2896
53.985 9.62359
53.990 9.534546
53.995 9.594682
54.000 9.333697
54.005 9.248628
54.010 8.97584
54.015 9.257142
54.020 9.721063
54.025 9.599745
54.030 9.735116
54.035 10.465066
54.040 10.354222
54.045 10.700712
54.050 10.096498
54.055 9.677199
54.060 9.717003
54.065 9.472768
54.070 9.392672
54.075 9.468258
54.080 9.363057
54.085 9.988582
54.090 10.267771
54.095 10.346171
54.100 9.654676
54.105 9.648636
54.110 9.729545
54.115 9.891014
54.120 9.662579
54.125 9.410764
54.130 9.714869
54.135 10.067513
54.140 10.02811
54.145 9.989186
54.150 9.673285
54.155 9.4427
54.160 9.216096
54.165 8.944687
54.170 8.912754
54.175 9.104839
54.180 9.308767
54.185 9.292343
54.190 9.47996
54.195 9.592525
54.200 9.558632
54.205 9.88678
54.210 9.525187
54.215 9.3083
54.220 9.465389
54.225 9.548892
54.230 10.04507
54.235 10.243255
54.240 10.067595
54.245 9.955743
54.250 9.591395
54.255 9.573531
54.260 9.601938
54.265 9.701664
54.270 10.203282
54.275 10.121151
54.280 10.435707
54.285 10.528937
54.290 11.046439
54.295 11.005741
54.300 10.655696
54.305 10.37286
54.310 10.585123
54.315 10.638768
54.320 10.472311
54.325 9.928444
54.330 9.676089
54.335 9.938998
54.340 9.616926
54.345 9.462735
54.350 9.518098
54.355 10.033146
54.360 10.52794
54.365 10.849921
54.370 10.408307
54.375 10.444051
54.380 10.529177
54.385 10.85269
54.390 10.639339
54.395 10.497441
54.400 9.974089
54.405 10.100087
54.410 10.227831
54.415 10.286264
54.420 9.620467
54.425 9.288989
54.430 9.17342
54.435 9.549229
54.440 9.485559
54.445 9.267037
54.450 9.66025
54.455 10.197484
54.460 10.385844
54.465 10.777007
54.470 10.996996
54.475 11.088688
54.480 11.188068
54.485 10.63533
54.490 10.608008
54.495 10.494693
54.500 10.17845
54.505 9.896773
54.510 9.988181
54.515 10.089377
54.520 10.343925
54.525 10.376716
54.530 10.115262
54.535 9.819632
54.540 9.81901
54.545 9.633141
54.550 9.317726
54.555 9.17824
54.560 9.301667
54.565 9.855655
54.570 10.165673
54.575 10.257481
54.580 10.485635
54.585 10.266671
54.590 10.416957
54.595 10.673522
54.600 10.957128
54.605 10.748062
54.610 10.958486
54.615 10.927373
54.620 11.360042
54.625 10.73946
54.630 10.105495
54.635 9.633209
54.640 9.655181
54.645 9.585631
54.650 9.405875
54.655 9.160415
54.660 9.417059
54.665 10.073241
54.670 10.310713
54.675 9.978534
54.680 10.32362
54.685 10.770666
54.690 11.218041
54.695 11.262475
54.700 10.853735
54.705 11.147135
54.710 11.497529
54.715 11.337417
54.720 11.187104
54.725 10.745813
54.730 10.849177
54.735 10.981673
54.740 10.89415
54.745 10.641886
54.750 10.928738
54.755 10.955914
54.760 11.008995
54.765 10.744095
54.770 10.268064
54.775 10.515984
54.780 10.490037
54.785 10.187985
54.790 9.961322
54.795 10.119678
54.800 10.561139
54.805 10.664762
54.810 10.880826
54.815 11.298935
54.820 11.273263
54.825 11.479008
54.830 11.135896
54.835 11.54187
54.840 11.485165
54.845 11.031426
54.850 10.853052
54.855 10.977083
54.860 10.976179
54.865 10.816354
54.870 10.167925
54.875 10.020141
54.880 10.171327
54.885 10.331006
54.890 10.441749
54.895 10.652764
54.900 10.579071
54.905 11.119271
54.910 11.377393
54.915 11.561801
54.920 10.981354
54.925 10.533715
54.930 10.575834
54.935 10.841418
54.940 10.154298
54.945 9.78028
54.950 9.891372
54.955 10.121847
54.960 10.276379
54.965 10.219537
54.970 9.982353
54.975 10.638762
54.980 10.751584
54.985 10.670546
54.990 10.907135
54.995 10.929424
55.000 11.13702
55.005 11.291649
55.010 11.10451
55.015 11.179534
55.020 10.891707
55.025 10.939095
55.030 11.186394
55.035 11.142427
55.040 11.166908
55.045 10.871084
55.050 11.713351
55.055 12.583533
55.060 12.400051
55.065 12.323935
55.070 12.267367
55.075 12.585046
55.080 12.771807
55.085 11.738791
55.090 11.11187
55.095 11.21685
55.100 10.985048
55.105 11.054596
55.110 10.991565
55.115 10.731288
55.120 10.556961
55.125 10.390796
55.130 10.24203
55.135 10.15232
55.140 9.805679
55.145 9.37615
55.150 9.786824
55.155 10.270423
55.160 10.729988
55.165 11.125243
55.170 10.969977
55.175 10.986034
55.180 11.400251
55.185 11.402267
55.190 11.358013
55.195 11.305838
55.200 11.312467
55.205 11.772963
55.210 12.135494
55.215 11.95091
55.220 11.735783
55.225 11.655356
55.230 11.213802
55.235 10.973645
55.240 10.890258
55.245 10.857528
55.250 10.643366
55.255 10.615563
55.260 11.218281
55.265 12.042272
55.270 12.165498
55.275 11.93478
55.280 11.943838
55.285 12.088892
55.290 11.699527
55.295 11.528008
55.300 11.040729
55.305 10.992431
55.310 10.950767
55.315 10.95482
55.320 11.380759
55.325 11.462193
55.330 11.139925
55.335 11.682259
55.340 11.996327
55.345 12.42702
55.350 12.247532
55.355 11.958793
55.360 12.222271
55.365 11.977201
55.370 11.563286
55.375 11.071121
55.380 11.111042
55.385 11.175174
55.390 10.691736
55.395 10.724789
55.400 10.42692
55.405 10.470628
55.410 10.994612
55.415 10.563516
55.420 10.557256
55.425 10.890927
55.430 10.949574
55.435 11.133955
55.440 11.24256
55.445 11.25344
55.450 11.645509
55.455 11.826263
55.460 11.685761
55.465 11.847246
55.470 12.052011
55.475 12.17829
55.480 12.157498
55.485 12.097832
55.490 12.32242
55.495 12.6043
55.500 12.608283
55.505 12.524124
55.510 12.455569
55.515 12.436577
55.520 12.443258
55.525 12.282806
55.530 12.26182
55.535 12.657696
55.540 12.702915
55.545 12.614312
55.550 12.452242
55.555 12.469705
55.560 12.656857
55.565 12.013981
55.570 11.32013
55.575 11.329648
55.580 11.108868
55.585 10.832494
55.590 10.536898
55.595 10.350611
55.600 10.495767
55.605 10.514036
55.610 10.284796
55.615 10.358783
55.620 10.226398
55.625 10.140158
55.630 9.958777
55.635 10.274783
55.640 10.389723
55.645 10.667869
55.650 10.649335
55.655 10.995535
55.660 11.055696
55.665 11.095896
55.670 10.644284
55.675 10.220902
55.680 9.881057
55.685 10.162463
55.690 10.139513
55.695 10.106158
55.700 10.494375
55.705 10.80834
55.710 10.882973
55.715 10.796885
55.720 11.10971
55.725 11.533772
55.730 12.078947
55.735 12.043816
55.740 12.096798
55.745 12.179747
55.750 12.284491
55.755 12.216443
55.760 11.962777
55.765 11.959309
55.770 11.465924
55.775 11.622822
55.780 11.752665
55.785 11.892516
55.790 11.797458
55.795 11.491747
55.800 11.370489
55.805 11.594574
55.810 11.709148
55.815 12.044078
55.820 12.127938
55.825 12.183709
55.830 12.497874
55.835 12.821144
55.840 13.097973
55.845 13.30903
55.850 13.299957
55.855 13.314735
55.860 13.24851
55.865 12.84956
55.870 12.501984
55.875 12.068601
55.880 11.568048
55.885 11.524036
55.890 11.165774
55.895 11.003037
55.900 11.026741
55.905 11.007761
55.910 11.538136
55.915 11.87682
55.920 11.611593
55.925 11.693254
55.930 11.419234
55.935 11.652307
55.940 11.925607
55.945 12.036505
55.950 11.814609
55.955 11.78361
55.960 12.182373
55.965 12.78744
55.970 12.783138
55.975 12.76827
55.980 13.027221
55.985 12.906577
55.990 13.229552
55.995 13.123291
56.000 12.883982
56.005 12.794131
56.010 12.386933
56.015 11.650237
56.020 11.394702
56.025 11.182477
56.030 11.14905
56.035 11.054773
56.040 11.094272
56.045 10.994308
56.050 11.408916
56.055 11.860078
56.060 12.007635
56.065 11.946059
56.070 11.77299
56.075 11.626869
56.080 11.467914
56.085 11.261716
56.090 11.485285
56.095 11.596666
56.100 11.760054
56.105 11.615211
56.110 11.834437
56.115 12.202394
56.120 12.253643
56.125 11.872507
56.130 11.745005
56.135 11.854989
56.140 12.075121
56.145 12.047477
56.150 11.814939
56.155 11.5008
56.160 11.403643
56.165 11.149857
56.170 11.228039
56.175 11.550255
56.180 11.298823
56.185 11.451214
56.190 11.68377
56.195 12.01433
56.200 12.352229
56.205 11.995894
56.210 11.582744
56.215 11.680148
56.220 12.051475
56.225 12.12924
56.230 12.016876
56.235 11.787278
56.240 12.398372
56.245 12.894212
56.250 12.762593
56.255 12.66758
56.260 12.332696
56.265 11.979163
56.270 11.798234
56.275 11.360701
56.280 11.373015
56.285 11.76831
56.290 11.475965
56.295 11.323623
56.300 11.606344
56.305 12.130052
56.310 12.591143
56.315 12.582088
56.320 12.039117
56.325 11.635231
56.330 11.995155
56.335 12.170138
56.340 11.81843
56.345 11.560347
56.350 11.520445
56.355 12.297441
56.360 12.688606
56.365 12.645511
56.370 12.54283
56.375 12.47613
56.380 12.83273
56.385 12.728509
56.390 12.626289
56.395 12.66471
56.400 12.37309
56.405 12.471647
56.410 12.381671
56.415 12.483122
56.420 12.309174
56.425 12.190138
56.430 12.120208
56.435 12.274686
56.440 12.421824
56.445 12.769723
56.450 12.732564
56.455 12.901192
56.460 13.122423
56.465 13.150133
56.470 12.989825
56.475 13.21756
56.480 12.667799
56.485 12.681256
56.490 12.594044
56.495 12.135272
56.500 12.310469
56.505 12.376008
56.510 12.07955
56.515 11.900701
56.520 12.157464
56.525 12.734256
56.530 12.671106
56.535 12.653164
56.540 12.768947
56.545 13.311728
56.550 13.80953
56.555 13.456898
56.560 13.550451
56.565 13.559821
56.570 13.716933
56.575 13.943775
56.580 13.426925
56.585 13.115491
56.590 12.756729
56.595 12.253401
56.600 11.948658
56.605 11.666579
56.610 11.693215
56.615 11.791537
56.620 11.675277
56.625 11.997361
56.630 12.856784
56.635 13.548478
56.640 13.697728
56.645 13.385839
56.650 13.111107
56.655 13.486094
56.660 13.417048
56.665 13.145539
56.670 12.856255
56.675 13.003873
56.680 13.22788
56.685 13.88046
56.690 13.888556
56.695 14.232544
56.700 14.200732
56.705 14.450949
56.710 14.420515
56.715 14.254883
56.720 13.757812
56.725 13.301951
56.730 13.326957
56.735 13.233535
56.740 13.060093
56.745 12.831334
56.750 13.263862
56.755 13.470891
56.760 13.839
56.765 13.6899
56.770 13.929525
56.775 14.065735
56.780 14.486887
56.785 14.161644
56.790 13.969308
56.795 14.188119
56.800 13.949247
56.805 14.215664
56.810 14.142481
56.815 13.701996
56.820 13.30552
56.825 13.400827
56.830 12.943846
56.835 12.97522
56.840 12.404544
56.845 11.996368
56.850 11.947793
56.855 12.273432
56.860 12.269046
56.865 12.64886
56.870 12.493771
56.875 12.441355
56.880 12.637365
56.885 12.275972
56.890 12.369375
56.895 12.268262
56.900 12.219229
56.905 12.255951
56.910 12.267011
56.915 12.588404
56.920 13.694474
56.925 13.86907
56.930 14.00691
56.935 13.984722
56.940 13.834524
56.945 14.192761
56.950 13.972709
56.955 13.431156
56.960 13.319688
56.965 13.271096
56.970 12.697914
56.975 12.761326
56.980 12.458434
56.985 12.523449
56.990 12.69357
56.995 12.656733
57.000 12.409406
57.005 13.612249
57.010 14.059205
57.015 14.116015
57.020 13.734746
57.025 13.572357
57.030 13.186278
57.035 12.936198
57.040 12.477823
57.045 12.091588
57.050 12.262777
57.055 13.192133
57.060 13.530286
57.065 14.094419
57.070 14.670867
57.075 14.542743
57.080 14.846576
57.085 14.780603
57.090 14.058639
57.095 13.913698
57.100 13.797322
57.105 13.547866
57.110 13.830898
57.115 13.996949
57.120 14.089337
57.125 14.072366
57.130 14.024837
57.135 14.236984
57.140 14.18587
57.145 13.849581
57.150 13.648012
57.155 13.700439
57.160 13.676479
57.165 14.233135
57.170 14.228276
57.175 14.282851
57.180 14.173103
57.185 14.135344
57.190 14.379155
57.195 14.467728
57.200 13.970232
57.205 13.688489
57.210 14.223266
57.215 14.898765
57.220 15.099062
57.225 15.450746
57.230 15.496924
57.235 15.732833
57.240 15.552093
57.245 15.009992
57.250 14.629388
57.255 14.189063
57.260 13.629187
57.265 13.596691
57.270 13.984303
57.275 13.824033
57.280 13.688463
57.285 13.418122
57.290 13.39499
57.295 13.489359
57.300 13.385353
57.305 13.123899
57.310 12.976033
57.315 12.482441
57.320 12.341218
57.325 12.960105
57.330 13.291134
57.335 13.305636
57.340 13.428013
57.345 13.922802
57.350 14.591478
57.355 14.414404
57.360 13.992765
57.365 13.562803
57.370 12.976316
57.375 12.721015
57.380 12.620616
57.385 12.430992
57.390 12.895883
57.395 13.240675
57.400 13.316388
57.405 13.438787
57.410 13.447265
57.415 13.62565
57.420 14.158049
57.425 13.913996
57.430 13.539288
57.435 13.699368
57.440 13.539783
57.445 13.687262
57.450 13.432439
57.455 13.085299
57.460 12.964053
57.465 12.988659
57.470 13.098481
57.475 13.343575
57.480 13.750488
57.485 13.672147
57.490 14.114477
57.495 14.432041
57.500 15.000799
57.505 15.238993
57.510 15.043143
57.515 14.611587
57.520 14.303635
57.525 13.505307
57.530 13.012291
57.535 12.591366
57.540 12.55871
57.545 13.036748
57.550 13.225155
57.555 13.583757
57.560 14.279816
57.565 13.960004
57.570 14.134542
57.575 13.807652
57.580 13.800579
57.585 13.910859
57.590 14.673873
57.595 14.917174
57.600 15.281741
57.605 14.596469
57.610 14.558849
57.615 14.207039
57.620 14.152284
57.625 13.710065
57.630 13.71889
57.635 14.250284
57.640 15.138542
57.645 15.17976
57.650 15.504254
57.655 15.376203
57.660 15.280643
57.665 14.95946
57.670 14.446835
57.675 14.002451
57.680 13.705596
57.685 13.513825
57.690 13.695323
57.695 13.858597
57.700 13.826262
57.705 14.081167
57.710 14.688074
57.715 14.976609
57.720 15.413583
57.725 15.201609
57.730 15.116818
57.735 14.740359
57.740 14.099743
57.745 13.45934
57.750 13.639949
57.755 13.044397
57.760 12.283849
57.765 11.690188
57.770 11.866364
57.775 12.090978
57.780 12.487997
57.785 12.318672
57.790 12.746899
57.795 13.490817
57.800 13.774286
57.805 14.623819
57.810 15.43148
57.815 15.517014
57.820 15.67759
57.825 16.059267
57.830 16.17098
57.835 16.44878
57.840 15.669027
57.845 15.08489
57.850 15.241885
57.855 15.303112
57.860 14.84091
57.865 14.557546
57.870 14.595585
57.875 14.664439
57.880 14.610538
57.885 14.417654
57.890 14.523942
57.895 14.410652
57.900 14.401075
57.905 14.462868
57.910 14.268539
57.915 14.042522
57.920 13.620944
57.925 13.378816
57.930 14.034873
57.935 14.014293
57.940 13.681044
57.945 13.609572
57.950 13.792279
57.955 14.011401
57.960 13.817778
57.965 13.877444
57.970 13.754
57.975 13.682078
57.980 14.573737
57.985 15.173874
57.990 15.681551
57.995 15.415025
58.000 15.059504
58.005 15.534756
58.010 15.864939
58.015 15.296441
58.020 14.550992
58.025 14.266504
58.030 14.400176
58.035 14.219406
58.040 14.070518
58.045 14.077781
58.050 14.138434
58.055 14.000139
58.060 14.025456
58.065 14.305476
58.070 13.9625
58.075 13.786104
58.080 13.688751
58.085 13.110389
58.090 12.605016
58.095 12.440006
58.100 12.329935
58.105 12.708107
58.110 12.306226
58.115 12.518231
58.120 13.086108
58.125 13.488391
58.130 14.045695
58.135 14.337439
58.140 14.218995
58.145 14.376206
58.150 13.914603
58.155 13.932445
58.160 14.041731
58.165 14.159504
58.170 14.493773
58.175 14.939229
58.180 14.549031
58.185 15.157737
58.190 15.010619
58.195 15.064711
58.200 14.621147
58.205 14.270812
58.210 14.112325
58.215 14.624328
58.220 14.809129
58.225 14.815542
58.230 14.693563
58.235 14.698271
58.240 14.559649
58.245 14.718224
58.250 14.478782
58.255 14.1169
58.260 14.670421
58.265 14.949656
58.270 15.093338
58.275 15.126599
58.280 15.396372
58.285 15.552943
58.290 15.750563
58.295 15.319928
58.300 15.18412
58.305 15.282883
58.310 15.633767
58.315 15.238555
58.320 14.749601
58.325 14.439034
58.330 14.417974
58.335 14.855684
58.340 14.458903
58.345 13.777255
58.350 13.909862
58.355 14.923409
58.360 15.497276
58.365 15.622943
58.370 15.307488
58.375 16.055002
58.380 16.530264
58.385 16.833748
58.390 16.856821
58.395 16.42205
58.400 16.426113
58.405 16.098146
58.410 15.722379
58.415 15.449266
58.420 15.527961
58.425 15.154235
58.430 14.950739
58.435 14.530027
58.440 14.526228
58.445 14.408793
58.450 14.722153
58.455 14.783217
58.460 14.635853
58.465 14.646446
58.470 14.852297
58.475 14.934883
58.480 14.81285
58.485 14.444659
58.490 14.473292
58.495 14.791373
58.500 14.676215
58.505 14.795512
58.510 14.917949
58.515 14.905232
