!@!!GADDS PLOTSO FILE: Chi integration type
!@!!Title/SampleName: map-153
!@!!Comment: ?
!@!!User: Bruker Instrument Administrator
!@!!Site: University of Illinois Chicago
!@!!Frame: map-153_01_000.gfrm
!@!!Wavelengths    1.54184   1.54056   1.54439
!@!!Frame angles: 2Theta: 63.000 Omega: 50.000 Phi: 0.000 Chi: 90.000
!@!!Integration range: 2Theta: 53.000 to 73.000  Gamma: -105.000 to -75.000
!@!!Integration method: bin normalized
!@!N
!@!SS
!@!M
!@!L 0.0 0.0 0.0 0.0
!@!XDegrees
!@!YCounts
53.000 8.115967
53.005 8.567345
53.010 8.888885
53.015 8.856772
53.020 8.911137
53.025 8.393255
53.030 8.500106
53.035 8.272148
53.040 7.672653
53.045 7.888119
53.050 8.02227
53.055 8.211928
53.060 8.354617
53.065 8.2333
53.070 8.431261
53.075 8.626212
53.080 8.599904
53.085 8.742579
53.090 8.94548
53.095 9.069804
53.100 9.259192
53.105 9.205859
53.110 9.554045
53.115 9.247131
53.120 9.285461
53.125 9.051086
53.130 9.427296
53.135 9.350227
53.140 9.107653
53.145 8.860563
53.150 8.468153
53.155 8.527242
53.160 8.248938
53.165 7.934855
53.170 7.921141
53.175 7.789701
53.180 7.912199
53.185 7.764693
53.190 8.038588
53.195 8.827718
53.200 9.0797
53.205 9.17081
53.210 9.417418
53.215 9.469325
53.220 9.679193
53.225 9.412605
53.230 9.119644
53.235 9.003575
53.240 8.832961
53.245 8.849359
53.250 9.070973
53.255 8.677879
53.260 8.027936
53.265 8.011031
53.270 8.213966
53.275 8.347138
53.280 8.279577
53.285 8.421754
53.290 8.796489
53.295 8.888083
53.300 8.616128
53.305 8.801106
53.310 9.033106
53.315 8.930725
53.320 8.734804
53.325 8.389702
53.330 8.152957
53.335 7.993114
53.340 7.516192
53.345 7.531919
53.350 7.352971
53.355 7.805132
53.360 8.147866
53.365 8.920505
53.370 9.26806
53.375 9.34866
53.380 9.504822
53.385 9.547403
53.390 9.377054
53.395 9.068628
53.400 9.093715
53.405 8.940218
53.410 8.582451
53.415 8.41611
53.420 8.144882
53.425 8.200606
53.430 8.190893
53.435 8.051794
53.440 8.109884
53.445 7.881625
53.450 7.802814
53.455 8.05302
53.460 8.338017
53.465 8.412187
53.470 8.40402
53.475 8.223739
53.480 7.972504
53.485 7.883755
53.490 7.670962
53.495 7.339295
53.500 7.447669
53.505 7.580539
53.510 7.899193
53.515 8.468016
53.520 8.466832
53.525 8.638669
53.530 9.501738
53.535 9.468924
53.540 9.279374
53.545 9.392498
53.550 9.333087
53.555 9.249734
53.560 8.830147
53.565 7.84138
53.570 7.985751
53.575 8.250197
53.580 8.075647
53.585 7.84691
53.590 8.024429
53.595 8.353284
53.600 8.159692
53.605 7.630657
53.610 7.435679
53.615 7.576938
53.620 7.565955
53.625 7.259694
53.630 6.965336
53.635 7.029419
53.640 7.740146
53.645 7.791547
53.650 7.891183
53.655 8.436523
53.660 8.466976
53.665 8.680829
53.670 8.873765
53.675 8.540761
53.680 8.773318
53.685 8.675492
53.690 8.521138
53.695 8.808832
53.700 8.526951
53.705 8.554824
53.710 8.495114
53.715 8.064584
53.720 8.140788
53.725 8.539937
53.730 8.476969
53.735 8.46902
53.740 8.440223
53.745 8.305795
53.750 8.431277
53.755 8.197033
53.760 7.983899
53.765 8.139197
53.770 8.318876
53.775 8.472032
53.780 8.325604
53.785 8.034626
53.790 7.857051
53.795 7.801605
53.800 7.762103
53.805 7.777975
53.810 7.923563
53.815 8.480449
53.820 9.052935
53.825 9.309776
53.830 9.383677
53.835 9.270796
53.840 9.074255
53.845 9.032364
53.850 8.955368
53.855 8.495368
53.860 8.117547
53.865 8.060911
53.870 7.982244
53.875 8.093817
53.880 7.784926
53.885 8.012297
53.890 8.207105
53.895 8.309927
53.900 8.229362
53.905 8.350833
53.910 8.393801
53.915 8.407841
53.920 8.175736
53.925 8.018501
53.930 8.173107
53.935 8.534218
53.940 8.72834
53.945 8.775147
53.950 9.249873
53.955 9.522848
53.960 9.627554
53.965 9.595841
53.970 9.709189
53.975 9.554842
53.980 9.572798
53.985 9.237119
53.990 9.308887
53.995 9.469289
54.000 8.942338
54.005 8.851608
54.010 8.688426
54.015 8.300112
54.020 7.898639
54.025 7.760422
54.030 8.138803
54.035 8.305983
54.040 8.351102
54.045 8.56867
54.050 8.855363
54.055 8.81191
54.060 8.402683
54.065 7.859186
54.070 7.867327
54.075 7.432925
54.080 7.728797
54.085 8.045866
54.090 8.22899
54.095 8.164417
54.100 8.306434
54.105 8.2326
54.110 8.612568
54.115 8.408663
54.120 8.126519
54.125 8.552865
54.130 9.054445
54.135 9.278842
54.140 9.106962
54.145 8.853499
54.150 8.470068
54.155 8.140443
54.160 7.600044
54.165 7.300348
54.170 7.527695
54.175 7.537483
54.180 7.776683
54.185 8.495415
54.190 9.337905
54.195 9.564137
54.200 9.480465
54.205 9.070425
54.210 9.52827
54.215 9.189903
54.220 8.687381
54.225 8.242312
54.230 8.400492
54.235 8.64567
54.240 8.678399
54.245 8.294918
54.250 8.467304
54.255 8.818348
54.260 9.114454
54.265 9.002013
54.270 8.85636
54.275 8.95472
54.280 9.39215
54.285 9.640621
54.290 9.564679
54.295 9.672261
54.300 9.923849
54.305 9.968442
54.310 9.663885
54.315 9.848339
54.320 9.927895
54.325 9.557022
54.330 9.215957
54.335 8.955648
54.340 8.767632
54.345 8.839927
54.350 8.507534
54.355 8.139242
54.360 7.960763
54.365 8.026277
54.370 8.709248
54.375 8.767715
54.380 8.845894
54.385 8.611897
54.390 8.966894
54.395 9.329561
54.400 9.425726
54.405 9.697899
54.410 10.164888
54.415 9.913177
54.420 10.110298
54.425 10.12308
54.430 9.779564
54.435 8.99584
54.440 8.520977
54.445 8.406624
54.450 8.413804
54.455 8.173102
54.460 7.736533
54.465 8.386375
54.470 8.975181
54.475 8.473664
54.480 8.794048
54.485 9.128369
54.490 9.486804
54.495 10.30578
54.500 10.472498
54.505 10.326814
54.510 10.662515
54.515 10.017674
54.520 9.79484
54.525 9.763671
54.530 9.549011
54.535 8.936168
54.540 8.493422
54.545 8.500666
54.550 8.767918
54.555 8.696203
54.560 8.225607
54.565 7.752771
54.570 8.099882
54.575 8.730663
54.580 8.451898
54.585 8.505966
54.590 8.683099
54.595 8.983527
54.600 9.102486
54.605 8.810047
54.610 8.696529
54.615 9.100553
54.620 9.314033
54.625 9.534046
54.630 9.412401
54.635 9.467039
54.640 9.163619
54.645 8.366307
54.650 7.919049
54.655 7.249739
54.660 6.87522
54.665 6.874204
54.670 6.933311
54.675 7.48103
54.680 8.158879
54.685 8.393645
54.690 8.743676
54.695 8.649244
54.700 8.350652
54.705 7.985956
54.710 7.936125
54.715 8.14049
54.720 8.429736
54.725 8.644424
54.730 8.726241
54.735 9.01134
54.740 9.300279
54.745 9.179222
54.750 8.718432
54.755 8.35122
54.760 8.49774
54.765 8.521533
54.770 8.799106
54.775 9.016007
54.780 8.94529
54.785 8.864489
54.790 8.662297
54.795 8.617432
54.800 9.250595
54.805 9.586069
54.810 9.841473
54.815 10.219669
54.820 10.464808
54.825 10.524956
54.830 10.448165
54.835 9.896322
54.840 9.150265
54.845 8.99669
54.850 9.448962
54.855 10.044394
54.860 10.152093
54.865 9.95235
54.870 10.421225
54.875 10.759189
54.880 9.942368
54.885 9.416664
54.890 9.430518
54.895 9.913037
54.900 10.16415
54.905 9.925567
54.910 10.303878
54.915 11.08041
54.920 11.035872
54.925 10.667252
54.930 10.231125
54.935 9.936265
54.940 9.742244
54.945 9.592354
54.950 10.250781
54.955 10.487973
54.960 10.582472
54.965 10.68545
54.970 11.144877
54.975 11.558505
54.980 11.174899
54.985 10.792207
54.990 10.121
54.995 9.710563
55.000 9.37849
55.005 8.99894
55.010 9.356078
55.015 9.884682
55.020 9.640862
55.025 9.903432
55.030 10.31113
55.035 11.096063
55.040 11.067702
55.045 10.557382
55.050 10.660957
55.055 10.807097
55.060 10.77284
55.065 10.320937
55.070 9.861685
55.075 9.525015
55.080 8.939509
55.085 8.3599
55.090 7.846169
55.095 7.436705
55.100 7.68785
55.105 8.173391
55.110 8.784825
55.115 9.194541
55.120 9.161801
55.125 9.744077
55.130 10.421515
55.135 10.328343
55.140 9.779892
55.145 9.490047
55.150 9.52029
55.155 9.27182
55.160 9.154423
55.165 8.889359
55.170 8.73526
55.175 8.73338
55.180 8.366396
55.185 8.886895
55.190 9.51794
55.195 9.370954
55.200 9.474949
55.205 9.306904
55.210 9.329523
55.215 9.256423
55.220 8.755033
55.225 8.721067
55.230 8.473662
55.235 8.556828
55.240 9.029428
55.245 9.519511
55.250 9.6963
55.255 9.737228
55.260 9.765597
55.265 10.162822
55.270 10.145529
55.275 10.122983
55.280 10.500386
55.285 10.813919
55.290 10.915777
55.295 10.379259
55.300 10.357392
55.305 9.894558
55.310 9.388721
55.315 8.894365
55.320 8.634089
55.325 8.116973
55.330 8.081661
55.335 8.101462
55.340 8.332489
55.345 8.321152
55.350 8.658268
55.355 8.884705
55.360 9.546959
55.365 9.716751
55.370 9.493372
55.375 9.685234
55.380 9.698304
55.385 9.493105
55.390 9.177302
55.395 9.020529
55.400 9.020345
55.405 9.055343
55.410 8.903454
55.415 8.603674
55.420 8.610983
55.425 9.18062
55.430 9.523955
55.435 9.62428
55.440 9.508426
55.445 9.147862
55.450 9.583882
55.455 9.391543
55.460 9.096577
55.465 8.842881
55.470 8.824526
55.475 9.311852
55.480 9.637454
55.485 9.52576
55.490 9.532585
55.495 9.608993
55.500 10.074912
55.505 10.602715
55.510 10.664618
55.515 10.470737
55.520 10.121304
55.525 10.228893
55.530 10.1915
55.535 9.831698
55.540 9.407454
55.545 9.303249
55.550 9.911694
55.555 10.312527
55.560 10.193295
55.565 10.139981
55.570 10.250098
55.575 10.547254
55.580 10.58778
55.585 9.891449
55.590 9.844026
55.595 9.599979
55.600 9.394849
55.605 9.042869
55.610 8.972259
55.615 8.946157
55.620 9.056034
55.625 8.904472
55.630 9.013812
55.635 9.146868
55.640 9.4437
55.645 9.40245
55.650 8.964177
55.655 9.045616
55.660 9.342936
55.665 9.396331
55.670 9.226571
55.675 8.989461
55.680 8.97913
55.685 8.970895
55.690 8.821646
55.695 8.687912
55.700 8.40529
55.705 8.608896
55.710 8.290452
55.715 8.663298
55.720 9.086318
55.725 9.519175
55.730 9.48409
55.735 9.56144
55.740 9.404058
55.745 9.481025
55.750 9.139825
55.755 9.068334
55.760 8.565689
55.765 8.680552
55.770 8.469024
55.775 8.700394
55.780 9.060497
55.785 8.736455
55.790 8.842783
55.795 9.247245
55.800 9.084718
55.805 9.403279
55.810 9.362414
55.815 9.018146
55.820 9.274868
55.825 9.18835
55.830 9.197791
55.835 9.188366
55.840 8.833836
55.845 8.745864
55.850 8.84664
55.855 8.593389
55.860 8.36149
55.865 8.617402
55.870 8.995164
55.875 9.423688
55.880 9.407137
55.885 9.598027
55.890 10.031625
55.895 9.942451
55.900 9.363672
55.905 9.32121
55.910 9.516681
55.915 9.666283
55.920 9.726585
55.925 9.634775
55.930 9.412989
55.935 9.488837
55.940 9.301624
55.945 9.545741
55.950 9.241846
55.955 9.01485
55.960 9.117348
55.965 9.412616
55.970 9.403157
55.975 9.315731
55.980 9.023394
55.985 9.458591
55.990 9.331858
55.995 9.190765
56.000 9.074141
56.005 9.320212
56.010 9.190264
56.015 9.039366
56.020 8.877502
56.025 8.988757
56.030 8.905036
56.035 8.957337
56.040 8.619792
56.045 9.359759
56.050 9.544928
56.055 9.648505
56.060 9.775026
56.065 9.810331
56.070 9.987565
56.075 9.889271
56.080 9.3272
56.085 9.5305
56.090 9.588441
56.095 9.200758
56.100 9.152376
56.105 9.132441
56.110 8.811475
56.115 8.657617
56.120 8.289867
56.125 8.086948
56.130 8.419954
56.135 8.197468
56.140 8.34544
56.145 8.31855
56.150 7.878751
56.155 7.495988
56.160 7.34268
56.165 7.411148
56.170 7.595594
56.175 7.690395
56.180 8.158314
56.185 8.752954
56.190 9.354666
56.195 9.651342
56.200 9.642644
56.205 9.455869
56.210 9.532845
56.215 9.685938
56.220 9.370285
56.225 9.495217
56.230 9.560493
56.235 9.686124
56.240 9.82761
56.245 9.622515
56.250 9.877936
56.255 10.222661
56.260 10.208359
56.265 10.112841
56.270 9.961274
56.275 9.743015
56.280 9.310087
56.285 8.758409
56.290 8.759916
56.295 8.648462
56.300 8.593002
56.305 8.497684
56.310 8.441771
56.315 8.699763
56.320 8.698036
56.325 8.469839
56.330 8.566074
56.335 8.937903
56.340 9.187344
56.345 9.599722
56.350 9.750943
56.355 9.772494
56.360 9.948116
56.365 10.016068
56.370 10.098483
56.375 10.287013
56.380 10.319288
56.385 10.415298
56.390 10.724672
56.395 10.898257
56.400 10.924248
56.405 11.01782
56.410 11.103125
56.415 11.046722
56.420 10.878977
56.425 10.858028
56.430 10.977221
56.435 11.002095
56.440 10.422325
56.445 10.695895
56.450 11.254527
56.455 11.202167
56.460 11.092751
56.465 10.895655
56.470 10.791498
56.475 11.205482
56.480 10.974312
56.485 10.768049
56.490 11.648685
56.495 11.653791
56.500 11.660019
56.505 11.57433
56.510 11.332637
56.515 10.823945
56.520 10.500323
56.525 10.018932
56.530 9.673661
56.535 9.479468
56.540 9.700364
56.545 9.772921
56.550 10.141166
56.555 10.581028
56.560 10.680233
56.565 10.92136
56.570 10.752165
56.575 10.463508
56.580 10.34332
56.585 10.123111
56.590 9.962369
56.595 9.759017
56.600 9.913111
56.605 10.075752
56.610 9.716969
56.615 9.341173
56.620 8.933568
56.625 8.726677
56.630 8.930448
56.635 9.161204
56.640 9.682714
56.645 10.570711
56.650 11.121451
56.655 11.769269
56.660 11.65486
56.665 11.120801
56.670 10.721059
56.675 10.448768
56.680 10.450952
56.685 10.589396
56.690 10.456811
56.695 10.550974
56.700 10.862898
56.705 11.152069
56.710 11.093481
56.715 11.042441
56.720 11.039406
56.725 10.905486
56.730 11.110025
56.735 10.683443
56.740 10.514651
56.745 10.34685
56.750 10.086308
56.755 10.10541
56.760 10.170436
56.765 10.010595
56.770 10.380965
56.775 10.367075
56.780 10.34466
56.785 9.932426
56.790 9.711792
56.795 9.223462
56.800 8.843398
56.805 8.926152
56.810 9.054689
56.815 9.218678
56.820 9.230477
56.825 9.241856
56.830 9.840497
56.835 10.165744
56.840 9.9016
56.845 9.482717
56.850 9.373609
56.855 9.455335
56.860 9.244127
56.865 8.714081
56.870 8.270728
56.875 8.188518
56.880 8.309629
56.885 8.25538
56.890 8.435966
56.895 9.210466
56.900 9.242373
56.905 9.484106
56.910 9.365712
56.915 9.251897
56.920 9.417603
56.925 9.110166
56.930 8.838338
56.935 9.411549
56.940 9.690843
56.945 9.879073
56.950 9.966027
56.955 10.032914
56.960 10.35768
56.965 10.045254
56.970 9.452016
56.975 9.481793
56.980 9.170592
56.985 9.090101
56.990 9.014298
56.995 9.074075
57.000 9.445655
57.005 9.436391
57.010 9.268056
57.015 9.797306
57.020 9.752954
57.025 9.668188
57.030 9.209649
57.035 9.217973
57.040 9.568796
57.045 9.636277
57.050 9.697106
57.055 9.681552
57.060 9.446422
57.065 9.514767
57.070 9.61636
57.075 9.637353
57.080 9.193234
57.085 8.736827
57.090 8.862805
57.095 8.72461
57.100 9.051497
57.105 8.873215
57.110 8.756597
57.115 9.366787
57.120 9.881381
57.125 9.906592
57.130 10.107659
57.135 9.477136
57.140 9.526748
57.145 9.386635
57.150 9.081676
57.155 8.70997
57.160 8.58624
57.165 8.688506
57.170 8.805214
57.175 8.439405
57.180 8.485499
57.185 8.559669
57.190 8.752109
57.195 8.745952
57.200 8.836298
57.205 9.060823
57.210 9.627852
57.215 9.499762
57.220 9.415113
57.225 9.597874
57.230 9.870049
57.235 9.598579
57.240 9.228601
57.245 8.949107
57.250 9.309877
57.255 9.516055
57.260 9.092687
57.265 8.683909
57.270 8.93823
57.275 9.035121
57.280 9.007295
57.285 8.55351
57.290 8.671989
57.295 8.683947
57.300 8.912165
57.305 9.09409
57.310 9.483495
57.315 10.050415
57.320 10.07142
57.325 9.752407
57.330 9.842995
57.335 9.347801
57.340 8.721051
57.345 8.334022
57.350 8.208813
57.355 8.46263
57.360 8.566336
57.365 8.651619
57.370 8.896564
57.375 9.108931
57.380 9.069398
57.385 9.16868
57.390 9.057453
57.395 9.494474
57.400 9.751014
57.405 9.534433
57.410 9.561504
57.415 9.038402
57.420 9.011282
57.425 8.890431
57.430 8.259084
57.435 8.041108
57.440 8.564048
57.445 8.841775
57.450 8.948059
57.455 8.467131
57.460 8.182743
57.465 8.235595
57.470 8.3184
57.475 8.012777
57.480 7.816734
57.485 8.401361
57.490 9.413692
57.495 9.538711
57.500 9.49579
57.505 9.735731
57.510 9.912309
57.515 9.925145
57.520 9.433784
57.525 8.969919
57.530 8.734452
57.535 9.158937
57.540 9.047486
57.545 9.058484
57.550 8.661747
57.555 8.303498
57.560 8.254157
57.565 8.479822
57.570 8.094776
57.575 8.132148
57.580 8.172824
57.585 8.575129
57.590 9.100571
57.595 9.417066
57.600 9.451752
57.605 9.575717
57.610 9.274774
57.615 9.31565
57.620 9.666704
57.625 9.586319
57.630 9.446461
57.635 9.631224
57.640 9.683391
57.645 9.755034
57.650 10.029481
57.655 10.292996
57.660 9.883172
57.665 9.663968
57.670 9.500451
57.675 9.334664
57.680 9.547091
57.685 8.997583
57.690 8.916874
57.695 9.209808
57.700 9.016943
57.705 8.874826
57.710 8.995576
57.715 8.93789
57.720 8.765306
57.725 8.453563
57.730 8.178268
57.735 8.465507
57.740 8.816583
57.745 8.688432
57.750 8.511373
57.755 8.848193
57.760 8.808107
57.765 9.187688
57.770 8.945934
57.775 8.606524
57.780 8.461523
57.785 8.777865
57.790 9.258852
57.795 9.720041
57.800 9.68066
57.805 9.689693
57.810 9.751543
57.815 10.277787
57.820 9.999747
57.825 9.217685
57.830 8.680444
57.835 8.873115
57.840 9.176213
57.845 9.058274
57.850 8.936866
57.855 9.183149
57.860 9.465005
57.865 9.873993
57.870 9.627039
57.875 9.146188
57.880 9.135966
57.885 8.888285
57.890 8.99827
57.895 8.960492
57.900 9.034763
57.905 9.359923
57.910 9.727367
57.915 9.94973
57.920 10.383558
57.925 10.44952
57.930 10.280274
57.935 10.235186
57.940 10.751513
57.945 10.751727
57.950 10.449119
57.955 9.859866
57.960 9.482084
57.965 9.176176
57.970 8.915812
57.975 8.275043
57.980 8.672431
57.985 8.879761
57.990 9.096128
57.995 8.931009
58.000 9.181417
58.005 9.092063
58.010 9.50366
58.015 9.205563
58.020 9.312581
58.025 9.554417
58.030 9.788204
58.035 9.608982
58.040 9.118938
58.045 9.253256
58.050 9.477487
58.055 8.98156
58.060 8.982678
58.065 9.384522
58.070 9.779441
58.075 10.161746
58.080 9.751908
58.085 9.652776
58.090 9.875752
58.095 9.994052
58.100 9.569501
58.105 9.415774
58.110 9.85182
58.115 9.953463
58.120 10.129596
58.125 9.944974
58.130 9.721387
58.135 9.683912
58.140 9.499844
58.145 9.3082
58.150 8.865231
58.155 8.675411
58.160 8.285847
58.165 8.202927
58.170 8.313181
58.175 8.062586
58.180 7.746931
58.185 8.003284
58.190 8.026004
58.195 8.209287
58.200 8.380498
58.205 8.534114
58.210 8.686342
58.215 8.91322
58.220 8.877183
58.225 8.925897
58.230 8.771312
58.235 8.977618
58.240 9.001133
58.245 8.723182
58.250 8.563947
58.255 8.843425
58.260 9.195307
58.265 9.500708
58.270 9.27035
58.275 9.365385
58.280 9.607883
58.285 9.79037
58.290 9.553783
58.295 9.686385
58.300 9.377004
58.305 9.099374
58.310 8.783051
58.315 8.826802
58.320 8.746355
58.325 8.963647
58.330 8.87435
58.335 9.266597
58.340 9.832697
58.345 10.056742
58.350 10.206638
58.355 10.094019
58.360 9.472671
58.365 9.137947
58.370 9.064084
58.375 9.008248
58.380 8.731573
58.385 8.386266
58.390 8.299824
58.395 8.872744
58.400 9.557695
58.405 9.887246
58.410 9.885866
58.415 10.262687
58.420 10.131218
58.425 10.089702
58.430 9.60654
58.435 9.145893
58.440 8.849078
58.445 9.280069
58.450 9.274649
58.455 9.552938
58.460 9.900824
58.465 9.970932
58.470 10.054839
58.475 10.029389
58.480 9.668149
58.485 9.969077
58.490 10.260524
58.495 10.165829
58.500 10.347641
58.505 10.1396
58.510 10.24453
58.515 10.121277
58.520 9.828334
58.525 9.973387
58.530 9.758505
58.535 9.541638
58.540 9.588826
58.545 9.518924
58.550 9.555127
58.555 9.110294
58.560 8.656154
58.565 8.740413
58.570 8.7564
58.575 8.661255
58.580 8.483531
58.585 8.719739
58.590 9.230515
58.595 9.600863
58.600 9.810421
58.605 9.748263
58.610 9.883011
58.615 9.669516
58.620 9.348003
58.625 9.356945
58.630 9.246728
58.635 9.127611
58.640 9.086948
58.645 8.721506
58.650 8.866927
58.655 9.060684
58.660 9.192613
58.665 9.240629
58.670 9.144988
58.675 9.248986
58.680 9.64257
58.685 9.394668
58.690 9.105906
58.695 8.77283
58.700 8.61902
58.705 8.422559
58.710 8.49509
58.715 8.260484
