!@!!GADDS PLOTSO FILE: Chi integration type
!@!!Title/SampleName: map-148
!@!!Comment: ?
!@!!User: Bruker Instrument Administrator
!@!!Site: University of Illinois Chicago
!@!!Frame: map-148_01_000.gfrm
!@!!Wavelengths    1.54184   1.54056   1.54439
!@!!Frame angles: 2Theta: 63.000 Omega: 50.000 Phi: 0.000 Chi: 90.000
!@!!Integration range: 2Theta: 53.000 to 73.000  Gamma: -105.000 to -75.000
!@!!Integration method: bin normalized
!@!N
!@!SS
!@!M
!@!L 0.0 0.0 0.0 0.0
!@!XDegrees
!@!YCounts
53.000 8.455956
53.005 8.437653
53.010 8.423569
53.015 8.496733
53.020 8.67729
53.025 8.721144
53.030 8.894053
53.035 8.872842
53.040 8.834792
53.045 8.695019
53.050 8.40703
53.055 8.268366
53.060 8.378991
53.065 8.133629
53.070 8.269698
53.075 8.524786
53.080 8.535426
53.085 8.493589
53.090 8.425743
53.095 7.96931
53.100 8.150619
53.105 8.138221
53.110 8.162503
53.115 7.937417
53.120 7.832331
53.125 7.960068
53.130 8.548083
53.135 8.483054
53.140 8.106368
53.145 7.919123
53.150 8.252379
53.155 8.48173
53.160 8.510519
53.165 7.847772
53.170 8.122513
53.175 8.460796
53.180 8.869429
53.185 8.583645
53.190 8.636789
53.195 8.560895
53.200 9.118694
53.205 8.837586
53.210 8.552934
53.215 8.690533
53.220 9.216602
53.225 9.35553
53.230 9.028833
53.235 8.695247
53.240 8.713046
53.245 8.422422
53.250 7.885292
53.255 7.376052
53.260 7.620576
53.265 7.797067
53.270 7.901369
53.275 8.025112
53.280 8.065629
53.285 8.423944
53.290 8.589893
53.295 8.190842
53.300 8.369928
53.305 8.393806
53.310 8.544868
53.315 8.594668
53.320 8.080754
53.325 7.759844
53.330 7.815097
53.335 7.417432
53.340 7.192096
53.345 7.30302
53.350 7.620918
53.355 8.142089
53.360 8.441371
53.365 8.571249
53.370 8.808057
53.375 8.988025
53.380 8.725105
53.385 8.407086
53.390 8.326662
53.395 8.319268
53.400 8.526054
53.405 8.599474
53.410 8.703118
53.415 8.83032
53.420 8.419064
53.425 8.754664
53.430 8.996935
53.435 9.058507
53.440 8.785365
53.445 8.588091
53.450 8.816809
53.455 9.311067
53.460 8.863002
53.465 8.593444
53.470 8.583493
53.475 8.79875
53.480 9.135855
53.485 9.167916
53.490 9.126472
53.495 9.069173
53.500 9.698947
53.505 9.935293
53.510 9.553068
53.515 9.266096
53.520 8.813468
53.525 8.731877
53.530 9.061751
53.535 8.11676
53.540 8.05142
53.545 8.404579
53.550 8.749609
53.555 9.409002
53.560 9.259987
53.565 8.92395
53.570 8.844801
53.575 8.792666
53.580 8.937227
53.585 8.750211
53.590 8.498389
53.595 8.838658
53.600 8.950795
53.605 9.175176
53.610 9.114599
53.615 8.710899
53.620 8.768995
53.625 8.99116
53.630 8.910932
53.635 9.84031
53.640 10.024804
53.645 10.03743
53.650 10.059171
53.655 10.126615
53.660 10.160932
53.665 10.200463
53.670 9.717172
53.675 9.700331
53.680 9.743453
53.685 9.794568
53.690 9.287182
53.695 8.700065
53.700 8.603801
53.705 8.791238
53.710 9.228299
53.715 9.450131
53.720 9.378199
53.725 9.87466
53.730 9.869395
53.735 10.09287
53.740 10.457694
53.745 10.430492
53.750 10.424107
53.755 10.418015
53.760 10.440771
53.765 10.51811
53.770 9.928702
53.775 9.405182
53.780 9.638994
53.785 9.343819
53.790 9.371751
53.795 9.475799
53.800 9.502749
53.805 9.436942
53.810 9.283939
53.815 9.057083
53.820 9.29183
53.825 8.955831
53.830 8.466512
53.835 8.538664
53.840 8.648149
53.845 8.213328
53.850 8.017351
53.855 7.964619
53.860 8.276033
53.865 8.764899
53.870 8.956669
53.875 9.108403
53.880 9.348188
53.885 9.69472
53.890 9.792722
53.895 9.945551
53.900 9.734204
53.905 9.368943
53.910 9.13709
53.915 8.939819
53.920 9.035548
53.925 9.462519
53.930 9.628963
53.935 9.643498
53.940 9.744199
53.945 10.134693
53.950 10.153214
53.955 9.866098
53.960 9.765865
53.965 9.849545
53.970 10.055173
53.975 9.692696
53.980 9.42138
53.985 9.243547
53.990 9.114907
53.995 8.841577
54.000 8.76163
54.005 9.143682
54.010 9.705032
54.015 10.028422
54.020 10.100439
54.025 10.097254
54.030 10.111689
54.035 9.981176
54.040 9.768594
54.045 9.588629
54.050 9.773402
54.055 9.630417
54.060 9.471672
54.065 9.00589
54.070 9.163445
54.075 9.223964
54.080 9.265002
54.085 9.530155
54.090 9.892382
54.095 10.37443
54.100 10.755821
54.105 10.493752
54.110 10.548511
54.115 10.218147
54.120 9.805338
54.125 9.564834
54.130 9.237701
54.135 9.063564
54.140 9.024299
54.145 8.963907
54.150 9.061351
54.155 9.450525
54.160 9.41622
54.165 9.534603
54.170 9.588645
54.175 9.265907
54.180 9.283869
54.185 9.050873
54.190 8.723721
54.195 9.061261
54.200 9.270341
54.205 9.317456
54.210 9.415467
54.215 9.271898
54.220 9.35397
54.225 9.459288
54.230 9.370441
54.235 9.317582
54.240 9.442423
54.245 9.778777
54.250 9.857884
54.255 10.028667
54.260 10.000078
54.265 10.112261
54.270 10.129621
54.275 9.811071
54.280 9.657798
54.285 9.510972
54.290 9.562891
54.295 9.427204
54.300 9.034882
54.305 9.678165
54.310 10.034114
54.315 10.248606
54.320 10.493675
54.325 10.297317
54.330 10.695317
54.335 10.646536
54.340 10.089007
54.345 10.070624
54.350 10.414846
54.355 10.454858
54.360 10.939617
54.365 10.794468
54.370 10.799112
54.375 10.782426
54.380 10.321362
54.385 9.916421
54.390 9.469602
54.395 8.973566
54.400 9.192872
54.405 9.380926
54.410 9.976813
54.415 10.156021
54.420 10.606487
54.425 11.07098
54.430 11.082035
54.435 10.77275
54.440 10.548549
54.445 10.341913
54.450 10.348945
54.455 9.936661
54.460 9.937634
54.465 10.11239
54.470 10.720445
54.475 10.889447
54.480 10.607682
54.485 10.423084
54.490 10.822585
54.495 11.000354
54.500 10.879907
54.505 10.485149
54.510 10.433238
54.515 10.643375
54.520 10.880748
54.525 10.464486
54.530 10.464205
54.535 10.762194
54.540 10.754147
54.545 10.903174
54.550 10.622103
54.555 10.590574
54.560 10.491935
54.565 10.153659
54.570 9.800887
54.575 9.600271
54.580 9.800941
54.585 9.945908
54.590 9.90323
54.595 9.745957
54.600 9.5614
54.605 10.008841
54.610 10.269677
54.615 10.28626
54.620 10.539801
54.625 10.326992
54.630 10.396903
54.635 10.344146
54.640 9.557527
54.645 9.242147
54.650 9.479315
54.655 9.579768
54.660 9.670045
54.665 9.779542
54.670 9.97496
54.675 10.36545
54.680 10.606072
54.685 10.237079
54.690 10.038933
54.695 10.567269
54.700 10.792049
54.705 10.742074
54.710 10.669615
54.715 10.028275
54.720 10.063076
54.725 10.106726
54.730 9.933063
54.735 9.858003
54.740 9.760408
54.745 9.786306
54.750 10.203612
54.755 10.21126
54.760 10.128814
54.765 9.694488
54.770 9.340739
54.775 9.329244
54.780 9.262756
54.785 9.027015
54.790 9.201697
54.795 9.588988
54.800 10.144251
54.805 9.979937
54.810 9.764602
54.815 10.112346
54.820 10.246993
54.825 10.307393
54.830 10.168257
54.835 10.183018
54.840 10.456467
54.845 10.788564
54.850 10.638925
54.855 10.072243
54.860 9.702293
54.865 9.470568
54.870 9.605312
54.875 9.70428
54.880 9.472321
54.885 9.593992
54.890 10.023161
54.895 10.533392
54.900 11.051122
54.905 11.092142
54.910 11.35346
54.915 11.429892
54.920 11.350661
54.925 11.110918
54.930 10.662978
54.935 10.554293
54.940 10.620764
54.945 10.644014
54.950 10.721931
54.955 10.647389
54.960 10.581796
54.965 10.107141
54.970 10.011657
54.975 10.217724
54.980 10.328047
54.985 10.754758
54.990 11.012376
54.995 11.335693
55.000 11.704843
55.005 11.761435
55.010 12.149636
55.015 12.073956
55.020 11.866998
55.025 11.492328
55.030 11.366756
55.035 11.196657
55.040 10.926628
55.045 10.570721
55.050 10.289693
55.055 10.465801
55.060 10.819403
55.065 11.050891
55.070 11.357423
55.075 11.30521
55.080 11.523227
55.085 11.764883
55.090 11.984889
55.095 11.911519
55.100 11.793957
55.105 11.476649
55.110 11.078661
55.115 10.806793
55.120 11.395015
55.125 11.633616
55.130 11.966488
55.135 11.765164
55.140 11.755525
55.145 11.69491
55.150 11.835374
55.155 11.138182
55.160 10.920315
55.165 10.763172
55.170 11.02351
55.175 11.331591
55.180 12.216408
55.185 12.249804
55.190 12.0928
55.195 12.297925
55.200 12.204067
55.205 12.173174
55.210 12.114037
55.215 11.288075
55.220 10.964026
55.225 10.775706
55.230 10.437431
55.235 10.36956
55.240 10.865692
55.245 11.090075
55.250 11.456226
55.255 11.508987
55.260 11.092277
55.265 11.259728
55.270 11.375336
55.275 10.60462
55.280 10.391091
55.285 10.550218
55.290 10.855575
55.295 11.498237
55.300 11.386165
55.305 11.376143
55.310 11.727255
55.315 11.645598
55.320 11.603139
55.325 12.28085
55.330 12.154789
55.335 12.56094
55.340 12.760476
55.345 12.58024
55.350 12.40501
55.355 12.086527
55.360 11.458222
55.365 11.624801
55.370 11.271567
55.375 10.839418
55.380 11.070198
55.385 11.451949
55.390 11.675596
55.395 11.672271
55.400 11.590379
55.405 11.600783
55.410 11.779545
55.415 11.376866
55.420 10.961321
55.425 10.678855
55.430 10.534547
55.435 10.534695
55.440 10.481075
55.445 10.256054
55.450 10.563511
55.455 10.748761
55.460 10.58054
55.465 10.709805
55.470 10.345388
55.475 10.413988
55.480 10.456377
55.485 10.633785
55.490 10.419661
55.495 10.273735
55.500 10.281076
55.505 10.571731
55.510 10.721813
55.515 10.750531
55.520 10.986547
55.525 11.00585
55.530 10.906781
55.535 10.955901
55.540 11.045741
55.545 11.207855
55.550 11.206817
55.555 11.024645
55.560 11.286435
55.565 11.812452
55.570 12.033687
55.575 12.096505
55.580 12.090912
55.585 11.871121
55.590 11.755462
55.595 12.010275
55.600 12.076358
55.605 12.011145
55.610 11.845296
55.615 11.878822
55.620 12.219245
55.625 12.900391
55.630 12.545994
55.635 12.150054
55.640 12.003992
55.645 12.256586
55.650 12.233152
55.655 11.839391
55.660 11.330726
55.665 11.376378
55.670 11.317885
55.675 11.124965
55.680 10.980791
55.685 11.296904
55.690 11.642154
55.695 11.600375
55.700 12.046216
55.705 12.058651
55.710 12.161177
55.715 12.084894
55.720 12.27831
55.725 12.27232
55.730 12.209215
55.735 12.18641
55.740 12.20309
55.745 12.03838
55.750 11.833369
55.755 11.22086
55.760 10.869805
55.765 10.255054
55.770 9.875059
55.775 10.42893
55.780 10.473133
55.785 10.366456
55.790 10.580168
55.795 11.184759
55.800 12.130343
55.805 12.725995
55.810 12.298775
55.815 12.629425
55.820 13.071615
55.825 13.260724
55.830 13.286153
55.835 13.161376
55.840 12.998322
55.845 13.091903
55.850 12.968133
55.855 12.798831
55.860 12.432416
55.865 11.779111
55.870 11.642463
55.875 11.816291
55.880 11.877148
55.885 12.008991
55.890 11.546678
55.895 11.579697
55.900 11.970762
55.905 11.72308
55.910 12.1662
55.915 11.63761
55.920 11.026686
55.925 10.886526
55.930 10.9206
55.935 11.184697
55.940 11.645752
55.945 11.390696
55.950 11.616446
55.955 12.114216
55.960 12.295716
55.965 12.12179
55.970 11.626673
55.975 11.086131
55.980 10.876394
55.985 11.328658
55.990 11.056133
55.995 11.024049
56.000 11.058371
56.005 11.184993
56.010 11.281319
56.015 11.262386
56.020 11.280397
56.025 11.929935
56.030 12.19826
56.035 12.345047
56.040 12.384583
56.045 12.408956
56.050 12.741555
56.055 13.241945
56.060 13.131221
56.065 13.035627
56.070 12.963063
56.075 13.125369
56.080 12.637826
56.085 11.989464
56.090 10.910963
56.095 10.281528
56.100 10.542899
56.105 10.435769
56.110 9.970073
56.115 10.040036
56.120 10.270705
56.125 11.033875
56.130 11.208241
56.135 10.535651
56.140 10.739887
56.145 11.122171
56.150 11.032341
56.155 10.981334
56.160 10.643355
56.165 10.746873
56.170 11.388433
56.175 11.451943
56.180 11.974526
56.185 11.885784
56.190 11.674163
56.195 11.814671
56.200 11.927567
56.205 12.060084
56.210 12.357831
56.215 12.81772
56.220 13.531549
56.225 13.602354
56.230 13.377814
56.235 13.019273
56.240 12.782055
56.245 12.465964
56.250 12.006598
56.255 11.810872
56.260 12.106081
56.265 12.738278
56.270 12.389072
56.275 12.023754
56.280 11.816191
56.285 11.623057
56.290 11.252046
56.295 11.062554
56.300 11.051963
56.305 11.505806
56.310 11.6245
56.315 11.821199
56.320 11.985205
56.325 12.286853
56.330 12.113667
56.335 12.215799
56.340 12.450967
56.345 12.702723
56.350 13.043719
56.355 13.302649
56.360 12.728703
56.365 12.692462
56.370 12.674685
56.375 12.553596
56.380 12.45431
56.385 11.753227
56.390 11.431607
56.395 12.238686
56.400 12.190581
56.405 12.128868
56.410 12.023944
56.415 11.512869
56.420 12.072053
56.425 12.281532
56.430 12.590335
56.435 12.599998
56.440 12.356028
56.445 12.704844
56.450 12.995585
56.455 12.70448
56.460 12.272932
56.465 11.857491
56.470 12.297336
56.475 12.532187
56.480 12.412192
56.485 12.413258
56.490 12.99889
56.495 13.762815
56.500 13.783255
56.505 13.474618
56.510 13.795753
56.515 13.559445
56.520 13.319728
56.525 13.042018
56.530 12.61055
56.535 12.738383
56.540 12.643505
56.545 12.319301
56.550 12.318999
56.555 12.36066
56.560 12.601147
56.565 12.841143
56.570 13.196184
56.575 13.618757
56.580 14.082933
56.585 14.126502
56.590 14.348282
56.595 14.200299
56.600 14.311803
56.605 14.419737
56.610 13.987985
56.615 13.508598
56.620 13.812762
56.625 13.461651
56.630 13.331871
56.635 12.759969
56.640 12.070724
56.645 12.507713
56.650 12.998631
56.655 13.03779
56.660 13.16023
56.665 12.749814
56.670 12.652635
56.675 12.316203
56.680 12.133199
56.685 11.929713
56.690 11.774097
56.695 11.289347
56.700 11.066938
56.705 11.757983
56.710 11.855842
56.715 11.589848
56.720 11.630246
56.725 11.649235
56.730 12.341351
56.735 12.688953
56.740 12.936465
56.745 13.472785
56.750 13.763826
56.755 13.826022
56.760 14.19817
56.765 14.254205
56.770 14.474397
56.775 14.787879
56.780 15.399817
56.785 15.633202
56.790 15.654128
56.795 15.474819
56.800 15.099777
56.805 14.958789
56.810 14.017933
56.815 13.081715
56.820 12.431951
56.825 12.304511
56.830 12.317111
56.835 12.370638
56.840 12.125414
56.845 12.104949
56.850 12.295514
56.855 12.179367
56.860 11.811365
56.865 11.607418
56.870 12.159312
56.875 12.308524
56.880 12.397637
56.885 12.706085
56.890 13.138398
56.895 13.528795
56.900 14.01251
56.905 13.479919
56.910 13.071258
56.915 12.824082
56.920 13.020123
56.925 13.155395
56.930 12.891809
56.935 12.459446
56.940 12.49757
56.945 12.859624
56.950 12.775501
56.955 12.376007
56.960 12.417842
56.965 12.51979
56.970 12.408082
56.975 12.213778
56.980 11.712873
56.985 11.600419
56.990 11.631063
56.995 11.417645
57.000 11.502631
57.005 11.743893
57.010 12.249386
57.015 13.047457
57.020 13.256891
57.025 13.360544
57.030 13.40689
57.035 14.086139
57.040 14.339997
57.045 14.246841
57.050 14.289618
57.055 13.983513
57.060 14.084878
57.065 14.25697
57.070 13.365623
57.075 13.413164
57.080 13.16569
57.085 12.692526
57.090 12.662433
57.095 12.438166
57.100 12.405019
57.105 12.636465
57.110 12.186156
57.115 12.656343
57.120 13.281884
57.125 13.360586
57.130 13.559489
57.135 13.943631
57.140 14.138685
57.145 14.167146
57.150 14.204858
57.155 14.143433
57.160 14.12606
57.165 13.969489
57.170 13.840832
57.175 13.413299
57.180 13.214106
57.185 12.561356
57.190 12.567405
57.195 12.569804
57.200 12.483651
57.205 12.288615
57.210 12.455293
57.215 12.455892
57.220 12.704203
57.225 12.273549
57.230 12.135983
57.235 12.119971
57.240 12.055606
57.245 12.260652
57.250 12.247266
57.255 12.561276
57.260 12.95025
57.265 12.833373
57.270 12.487522
57.275 12.466137
57.280 12.410302
57.285 12.211375
57.290 12.189156
57.295 12.446902
57.300 13.291393
57.305 13.72991
57.310 14.199805
57.315 14.92365
57.320 15.410006
57.325 15.596435
57.330 15.415519
57.335 14.807429
57.340 14.467019
57.345 13.920206
57.350 13.724661
57.355 13.195669
57.360 12.826893
57.365 12.44153
57.370 12.788869
57.375 12.922015
57.380 13.041467
57.385 12.959608
57.390 13.335472
57.395 13.854793
57.400 13.891953
57.405 13.71762
57.410 13.819834
57.415 13.701457
57.420 13.061325
57.425 12.578211
57.430 12.629448
57.435 12.911463
57.440 12.961728
57.445 13.559546
57.450 14.367019
57.455 15.162329
57.460 15.684972
57.465 15.503929
57.470 15.622808
57.475 15.601921
57.480 14.971904
57.485 14.202518
57.490 13.700018
57.495 13.347194
57.500 13.656947
57.505 13.349757
57.510 13.063404
57.515 12.87343
57.520 12.722998
57.525 12.764947
57.530 12.57098
57.535 12.501483
57.540 13.018444
57.545 13.105439
57.550 13.302557
57.555 13.746177
57.560 13.443839
57.565 13.310809
57.570 13.192644
57.575 13.170306
57.580 13.057831
57.585 13.231119
57.590 13.074656
57.595 13.41855
57.600 13.477652
57.605 12.922461
57.610 13.011215
57.615 13.160108
57.620 13.546582
57.625 13.681883
57.630 13.736705
57.635 14.259237
57.640 14.514697
57.645 14.108112
57.650 14.103598
57.655 13.548736
57.660 13.542084
57.665 13.385919
57.670 12.889201
57.675 12.853362
57.680 13.000817
57.685 12.538404
57.690 12.364191
57.695 12.704671
57.700 12.983582
57.705 13.337891
57.710 13.353361
57.715 13.217323
57.720 13.454197
57.725 13.769853
57.730 13.590098
57.735 13.265349
57.740 13.111816
57.745 12.689835
57.750 12.373136
57.755 12.401657
57.760 12.208583
57.765 12.197451
57.770 12.512065
57.775 12.351233
57.780 12.693674
57.785 13.276532
57.790 13.449098
57.795 13.241485
57.800 12.670718
57.805 12.365679
57.810 12.598164
57.815 13.106565
57.820 13.16842
57.825 13.456608
57.830 13.368745
57.835 13.144143
57.840 13.239576
57.845 12.897758
57.850 12.074974
57.855 11.225894
57.860 10.73772
57.865 11.126702
57.870 11.222503
57.875 11.504962
57.880 11.975735
57.885 12.658422
57.890 12.874974
57.895 12.877723
57.900 13.100505
57.905 13.789511
57.910 12.995758
57.915 12.853937
57.920 13.199596
57.925 13.54741
57.930 13.583694
57.935 13.326985
57.940 13.395925
57.945 14.20157
57.950 14.748342
57.955 14.337955
57.960 14.301633
57.965 14.374663
57.970 14.639786
57.975 14.667184
57.980 14.354962
57.985 13.955783
57.990 13.74246
57.995 13.72217
58.000 13.974451
58.005 14.161429
58.010 14.082689
58.015 14.173891
58.020 14.285608
58.025 14.613304
58.030 14.715167
58.035 13.985806
58.040 13.876204
58.045 13.839293
58.050 13.792082
58.055 13.620451
58.060 13.653785
58.065 13.408703
58.070 13.924776
58.075 13.969824
58.080 13.988825
58.085 14.420753
58.090 14.91308
58.095 15.052216
58.100 15.579965
58.105 15.069173
58.110 14.902039
58.115 14.702648
58.120 13.944036
58.125 13.314388
58.130 13.325637
58.135 12.912729
58.140 13.347857
58.145 13.910925
58.150 14.393785
58.155 14.368761
58.160 14.641921
58.165 14.407552
58.170 14.972342
58.175 15.236615
58.180 14.841605
58.185 14.442129
58.190 14.892329
58.195 14.59606
58.200 14.650908
58.205 14.40734
58.210 13.98371
58.215 13.549184
58.220 13.098648
58.225 13.228645
58.230 12.941154
58.235 12.928973
58.240 12.873302
58.245 12.856412
58.250 13.551218
58.255 14.481079
58.260 14.441754
58.265 14.742138
58.270 14.639651
58.275 14.534265
58.280 14.35342
58.285 14.193
58.290 13.107419
58.295 13.28651
58.300 13.395457
58.305 13.360146
58.310 12.827901
58.315 12.419067
58.320 12.587351
58.325 13.238132
58.330 12.976877
58.335 13.317327
58.340 13.561257
58.345 13.916005
58.350 14.404141
58.355 14.388057
58.360 14.569856
58.365 15.375525
58.370 15.267591
58.375 15.552857
58.380 15.384367
58.385 14.97513
58.390 14.885325
58.395 14.938483
58.400 14.523208
58.405 14.469858
58.410 14.10547
58.415 14.409289
58.420 15.082314
58.425 15.323442
58.430 15.22569
58.435 15.213281
58.440 15.799151
58.445 16.337383
58.450 16.750029
58.455 16.785776
58.460 16.392963
58.465 15.998146
58.470 15.463857
58.475 15.050821
58.480 14.950377
58.485 14.326568
58.490 13.53834
58.495 13.629166
58.500 14.031341
58.505 14.035647
58.510 13.878632
58.515 13.784612
