!@!!GADDS PLOTSO FILE: Chi integration type
!@!!Title/SampleName: map-90
!@!!Comment: ?
!@!!User: Bruker Instrument Administrator
!@!!Site: University of Illinois Chicago
!@!!Frame: map-90_01_000.gfrm
!@!!Wavelengths    1.54184   1.54056   1.54439
!@!!Frame angles: 2Theta: 63.000 Omega: 50.000 Phi: 0.000 Chi: 90.000
!@!!Integration range: 2Theta: 53.000 to 73.000  Gamma: -105.000 to -75.000
!@!!Integration method: bin normalized
!@!N
!@!SS
!@!M
!@!L 0.0 0.0 0.0 0.0
!@!XDegrees
!@!YCounts
53.000 7.339704
53.005 7.249748
53.010 6.779405
53.015 6.220292
53.020 6.046867
53.025 6.166749
53.030 6.133383
53.035 6.27899
53.040 6.780499
53.045 7.562963
53.050 8.122185
53.055 8.375229
53.060 8.376755
53.065 8.378996
53.070 8.525246
53.075 8.158246
53.080 7.541661
53.085 7.458544
53.090 7.450711
53.095 7.727758
53.100 7.517469
53.105 7.562088
53.110 8.004919
53.115 8.218069
53.120 8.183404
53.125 8.05766
53.130 7.785419
53.135 7.700529
53.140 7.613497
53.145 7.467827
53.150 7.490324
53.155 7.767667
53.160 8.195579
53.165 8.542997
53.170 8.780054
53.175 8.637535
53.180 8.636531
53.185 8.472068
53.190 8.327269
53.195 8.111502
53.200 8.125341
53.205 8.51316
53.210 8.420247
53.215 8.649743
53.220 9.271074
53.225 10.114768
53.230 10.248497
53.235 10.287568
53.240 10.208515
53.245 10.199026
53.250 10.303178
53.255 9.556494
53.260 8.830252
53.265 8.95645
53.270 9.086703
53.275 9.375263
53.280 9.462564
53.285 9.213678
53.290 9.294648
53.295 9.258899
53.300 8.786445
53.305 8.217839
53.310 8.035742
53.315 8.212645
53.320 7.945049
53.325 7.905418
53.330 8.123612
53.335 8.275858
53.340 8.443063
53.345 8.163134
53.350 7.724042
53.355 8.208694
53.360 8.269847
53.365 7.881375
53.370 7.815006
53.375 8.222262
53.380 8.642558
53.385 8.993326
53.390 8.795484
53.395 8.720112
53.400 9.379792
53.405 9.749914
53.410 9.269246
53.415 8.815721
53.420 8.833706
53.425 8.941549
53.430 8.911074
53.435 8.740933
53.440 8.449699
53.445 8.541362
53.450 8.700096
53.455 8.421564
53.460 8.421207
53.465 8.07564
53.470 7.796365
53.475 8.086731
53.480 8.277415
53.485 8.245722
53.490 8.125
53.495 8.26704
53.500 8.261128
53.505 8.071623
53.510 7.673516
53.515 7.360914
53.520 7.717358
53.525 7.676179
53.530 7.555635
53.535 7.730853
53.540 7.656625
53.545 7.867259
53.550 8.235663
53.555 8.280293
53.560 8.724788
53.565 8.888762
53.570 8.982171
53.575 9.095935
53.580 9.310791
53.585 8.903008
53.590 9.308654
53.595 9.150794
53.600 8.999219
53.605 8.955169
53.610 8.440407
53.615 8.185725
53.620 8.197508
53.625 8.005878
53.630 8.184592
53.635 8.273137
53.640 8.253649
53.645 8.413717
53.650 8.567177
53.655 8.235639
53.660 8.487216
53.665 8.669342
53.670 9.04974
53.675 9.08702
53.680 9.102104
53.685 9.439999
53.690 10.140381
53.695 9.664693
53.700 9.400803
53.705 9.270627
53.710 9.685567
53.715 9.568778
53.720 9.72455
53.725 9.682744
53.730 9.847499
53.735 9.658669
53.740 9.662501
53.745 9.374666
53.750 9.324082
53.755 8.815505
53.760 8.644551
53.765 9.531437
53.770 9.621325
53.775 9.65448
53.780 10.001025
53.785 10.32862
53.790 10.404642
53.795 9.885803
53.800 9.420923
53.805 9.279425
53.810 9.252727
53.815 9.219623
53.820 8.987394
53.825 8.499125
53.830 8.37211
53.835 8.699447
53.840 8.803967
53.845 8.380196
53.850 8.311048
53.855 8.515345
53.860 9.026325
53.865 9.007454
53.870 8.647644
53.875 8.797014
53.880 8.965212
53.885 8.923772
53.890 8.610017
53.895 8.572058
53.900 8.662905
53.905 8.533323
53.910 8.107052
53.915 8.184381
53.920 8.115281
53.925 8.401891
53.930 8.715179
53.935 8.310044
53.940 8.53767
53.945 8.843163
53.950 8.777344
53.955 8.914532
53.960 8.77327
53.965 8.968902
53.970 9.32639
53.975 9.683402
53.980 9.779359
53.985 9.700056
53.990 9.640281
53.995 9.346044
54.000 9.026168
54.005 9.314966
54.010 9.418429
54.015 9.827313
54.020 10.077725
54.025 9.834354
54.030 10.079906
54.035 10.119275
54.040 9.843781
54.045 9.529655
54.050 9.000271
54.055 8.714899
54.060 8.650407
54.065 8.708119
54.070 8.809688
54.075 8.480794
54.080 8.896824
54.085 9.395087
54.090 9.474016
54.095 9.426136
54.100 9.335324
54.105 9.399408
54.110 9.631904
54.115 9.336581
54.120 9.346677
54.125 9.745986
54.130 9.912183
54.135 10.028552
54.140 10.315596
54.145 10.439478
54.150 10.315924
54.155 10.398109
54.160 10.513093
54.165 10.566076
54.170 10.358257
54.175 10.352333
54.180 10.026092
54.185 9.812521
54.190 9.657649
54.195 9.75965
54.200 9.949243
54.205 9.926293
54.210 10.113038
54.215 10.343237
54.220 10.18344
54.225 10.299536
54.230 10.449142
54.235 10.463503
54.240 10.082803
54.245 9.963943
54.250 10.315568
54.255 10.526729
54.260 10.218913
54.265 9.818157
54.270 10.040487
54.275 10.400481
54.280 10.048774
54.285 9.481827
54.290 9.35899
54.295 9.31358
54.300 8.911713
54.305 8.280299
54.310 7.852389
54.315 8.30226
54.320 8.54873
54.325 8.323794
54.330 8.197888
54.335 8.462686
54.340 8.70917
54.345 8.827808
54.350 8.61651
54.355 8.719827
54.360 9.045835
54.365 9.393363
54.370 9.787001
54.375 10.008336
54.380 9.894032
54.385 10.051081
54.390 10.293402
54.395 10.423529
54.400 10.327326
54.405 10.092355
54.410 9.989808
54.415 10.175192
54.420 9.788811
54.425 9.42035
54.430 9.202982
54.435 9.222651
54.440 9.680331
54.445 9.808622
54.450 10.047063
54.455 10.325879
54.460 10.438658
54.465 10.402388
54.470 10.54375
54.475 10.354302
54.480 10.169984
54.485 9.718313
54.490 9.824408
54.495 10.035858
54.500 10.108639
54.505 9.667234
54.510 9.84059
54.515 10.128556
54.520 10.106437
54.525 9.544139
54.530 9.224919
54.535 9.149485
54.540 8.748973
54.545 8.167913
54.550 8.08061
54.555 8.310447
54.560 8.730257
54.565 8.848473
54.570 8.730375
54.575 8.925819
54.580 9.093848
54.585 8.770753
54.590 8.569236
54.595 8.662507
54.600 8.835755
54.605 9.152618
54.610 9.735834
54.615 9.757343
54.620 9.963936
54.625 10.045074
54.630 9.87946
54.635 10.056516
54.640 9.802298
54.645 9.651541
54.650 10.168407
54.655 10.287884
54.660 10.195851
54.665 10.431256
54.670 10.446144
54.675 10.662177
54.680 10.73042
54.685 10.735619
54.690 10.986365
54.695 10.798844
54.700 10.244754
54.705 9.804902
54.710 9.31904
54.715 9.152903
54.720 8.564478
54.725 8.305705
54.730 8.399292
54.735 8.558969
54.740 9.00734
54.745 9.534522
54.750 9.547345
54.755 10.092401
54.760 10.327965
54.765 10.590276
54.770 11.111293
54.775 11.006042
54.780 10.894862
54.785 10.72146
54.790 10.652518
54.795 10.715652
54.800 10.289253
54.805 10.170814
54.810 10.277
54.815 10.212337
54.820 10.27469
54.825 10.169641
54.830 10.26071
54.835 10.868395
54.840 10.606156
54.845 10.736222
54.850 10.654313
54.855 10.889235
54.860 10.644588
54.865 10.314778
54.870 9.648905
54.875 9.687786
54.880 9.404918
54.885 9.228358
54.890 9.19805
54.895 9.84088
54.900 10.118557
54.905 10.26078
54.910 10.156031
54.915 9.936794
54.920 10.053292
54.925 9.93827
54.930 9.610664
54.935 9.387425
54.940 9.125197
54.945 9.111517
54.950 9.659388
54.955 9.814002
54.960 9.801505
54.965 9.680045
54.970 9.482098
54.975 9.27272
54.980 9.160985
54.985 8.964353
54.990 8.857762
54.995 8.822014
55.000 8.886978
55.005 9.377113
55.010 9.856298
55.015 9.749207
55.020 9.78961
55.025 9.964765
55.030 9.961324
55.035 10.032074
55.040 9.872932
55.045 9.982187
55.050 10.254782
55.055 9.773315
55.060 9.822783
55.065 9.914577
55.070 10.034166
55.075 10.325531
55.080 10.763388
55.085 10.809508
55.090 10.735491
55.095 10.529493
55.100 10.53335
55.105 10.646997
55.110 10.372087
55.115 9.991926
55.120 10.012322
55.125 10.758821
55.130 10.873673
55.135 10.862556
55.140 10.670719
55.145 10.55357
55.150 10.369257
55.155 9.840908
55.160 9.538581
55.165 9.267052
55.170 9.07246
55.175 8.844501
55.180 9.134349
55.185 9.48189
55.190 10.284521
55.195 10.100054
55.200 10.37852
55.205 10.582615
55.210 10.538895
55.215 10.37335
55.220 10.168747
55.225 10.145767
55.230 10.401571
55.235 10.568609
55.240 10.306673
55.245 10.192797
55.250 10.238579
55.255 10.173968
55.260 9.941175
55.265 9.573155
55.270 9.39695
55.275 9.633725
55.280 9.670882
55.285 9.548873
55.290 9.231256
55.295 9.18334
55.300 9.702955
55.305 10.068991
55.310 10.083216
55.315 10.355547
55.320 9.98369
55.325 10.62842
55.330 10.387656
55.335 9.970148
55.340 10.293275
55.345 10.677108
55.350 10.931723
55.355 11.139743
55.360 10.809216
55.365 11.058366
55.370 10.784849
55.375 10.109859
55.380 9.47672
55.385 9.361326
55.390 9.469648
55.395 9.280012
55.400 9.671126
55.405 9.985816
55.410 10.659968
55.415 10.803162
55.420 10.776607
55.425 10.902719
55.430 11.00605
55.435 10.391032
55.440 9.994958
55.445 9.755738
55.450 9.932038
55.455 10.012892
55.460 10.406707
55.465 10.370726
55.470 10.635114
55.475 10.80581
55.480 10.702336
55.485 11.087147
55.490 11.078744
55.495 11.030198
55.500 11.080937
55.505 11.525946
55.510 11.873199
55.515 11.64599
55.520 11.796162
55.525 11.897269
55.530 11.930395
55.535 11.929324
55.540 11.524725
55.545 11.552274
55.550 11.511248
55.555 10.816475
55.560 10.498717
55.565 10.623786
55.570 10.629889
55.575 10.357744
55.580 10.209754
55.585 9.990509
55.590 10.416237
55.595 10.553189
55.600 10.298473
55.605 10.262293
55.610 10.130447
55.615 10.15324
55.620 10.443232
55.625 10.152913
55.630 10.028994
55.635 9.991229
55.640 10.022483
55.645 10.023281
55.650 10.628819
55.655 10.728731
55.660 10.50523
55.665 10.340457
55.670 10.743574
55.675 10.85649
55.680 11.027254
55.685 10.466862
55.690 10.468841
55.695 10.830265
55.700 10.544298
55.705 10.09973
55.710 9.670851
55.715 9.440297
55.720 9.326991
55.725 9.241302
55.730 9.026063
55.735 9.178686
55.740 9.433661
55.745 10.091226
55.750 10.311435
55.755 10.11315
55.760 10.401676
55.765 10.999013
55.770 12.009331
55.775 11.93624
55.780 11.990616
55.785 12.347026
55.790 12.915514
55.795 12.965587
55.800 12.607667
55.805 11.863756
55.810 11.666967
55.815 11.734967
55.820 11.311687
55.825 10.93089
55.830 10.888591
55.835 11.210989
55.840 11.666146
55.845 11.621381
55.850 12.062267
55.855 12.768975
55.860 13.126346
55.865 12.899702
55.870 12.60247
55.875 12.227983
55.880 12.155471
55.885 11.915669
55.890 11.573439
55.895 11.164692
55.900 10.814
55.905 11.141279
55.910 11.592093
55.915 11.729472
55.920 11.619828
55.925 11.863259
55.930 12.34987
55.935 12.80332
55.940 12.641988
55.945 12.491726
55.950 11.981743
55.955 11.335134
55.960 10.983029
55.965 10.709399
55.970 10.630712
55.975 10.525351
55.980 10.452319
55.985 10.894864
55.990 11.268836
55.995 10.766154
56.000 10.846541
56.005 10.763038
56.010 10.804151
56.015 10.914707
56.020 10.65777
56.025 10.348647
56.030 10.69541
56.035 10.529443
56.040 10.154296
56.045 9.455822
56.050 9.009153
56.055 9.363972
56.060 9.163649
56.065 9.068177
56.070 8.964536
56.075 9.673278
56.080 10.261238
56.085 10.391759
56.090 10.472803
56.095 11.295903
56.100 11.720771
56.105 11.853765
56.110 11.627043
56.115 11.699836
56.120 11.438463
56.125 11.429743
56.130 11.046564
56.135 10.930634
56.140 10.935863
56.145 10.925032
56.150 10.531959
56.155 10.438485
56.160 10.556035
56.165 10.865732
56.170 10.932856
56.175 10.780506
56.180 11.13905
56.185 11.55314
56.190 11.365442
56.195 10.626043
56.200 10.251199
56.205 10.363111
56.210 10.550225
56.215 11.234201
56.220 11.042637
56.225 11.47585
56.230 12.262349
56.235 12.593252
56.240 12.199982
56.245 11.989714
56.250 11.516172
56.255 12.07629
56.260 12.25318
56.265 12.562783
56.270 12.063549
56.275 12.506572
56.280 12.403009
56.285 11.900978
56.290 11.878314
56.295 11.559751
56.300 10.989055
56.305 11.459073
56.310 11.359524
56.315 11.496812
56.320 11.809395
56.325 12.068819
56.330 12.254982
56.335 12.371017
56.340 12.4755
56.345 12.542202
56.350 12.586726
56.355 12.675098
56.360 12.647476
56.365 12.431038
56.370 12.219883
56.375 11.880725
56.380 11.803589
56.385 11.95961
56.390 11.771948
56.395 11.408425
56.400 11.236655
56.405 11.390272
56.410 11.550646
56.415 11.560236
56.420 11.076577
56.425 10.99414
56.430 11.287513
56.435 11.295162
56.440 11.046027
56.445 10.716535
56.450 10.621424
56.455 10.943936
56.460 10.533855
56.465 10.143043
56.470 10.343473
56.475 10.733953
56.480 10.892491
56.485 10.858558
56.490 11.46645
56.495 11.72307
56.500 11.970999
56.505 11.839565
56.510 11.549448
56.515 11.047933
56.520 11.035649
56.525 10.586561
56.530 10.664622
56.535 10.903902
56.540 10.844838
56.545 10.702431
56.550 11.421289
56.555 11.653377
56.560 11.819375
56.565 11.53941
56.570 11.592652
56.575 11.857845
56.580 11.885206
56.585 11.93879
56.590 11.733112
56.595 11.69448
56.600 11.872098
56.605 11.350122
56.610 11.222827
56.615 11.101147
56.620 10.876409
56.625 10.554031
56.630 10.779064
56.635 10.821083
56.640 10.792023
56.645 10.855475
56.650 10.851743
56.655 10.776443
56.660 10.658282
56.665 10.139832
56.670 10.041155
56.675 10.441208
56.680 10.907195
56.685 10.970679
56.690 11.26084
56.695 11.638678
56.700 11.763823
56.705 11.762656
56.710 11.441355
56.715 10.940248
56.720 10.752222
56.725 10.477493
56.730 10.645801
56.735 10.774992
56.740 10.610854
56.745 11.107158
56.750 12.273324
56.755 12.722946
56.760 13.32698
56.765 12.949877
56.770 13.398448
56.775 13.851257
56.780 13.797649
56.785 13.274003
56.790 12.960872
56.795 12.802388
56.800 13.119697
56.805 12.86656
56.810 12.842306
56.815 12.240734
56.820 11.962393
56.825 12.181213
56.830 12.572021
56.835 13.26972
56.840 13.36688
56.845 13.173436
56.850 13.050473
56.855 12.843704
56.860 12.457607
56.865 12.055941
56.870 11.830263
56.875 11.658856
56.880 11.710175
56.885 11.544557
56.890 12.004727
56.895 12.734361
56.900 12.573241
56.905 12.498987
56.910 12.859142
56.915 12.982897
56.920 13.055903
56.925 12.875704
56.930 12.467606
56.935 12.241215
56.940 11.975647
56.945 11.840296
56.950 12.237638
56.955 12.374202
56.960 12.170285
56.965 11.881064
56.970 11.920322
56.975 12.354345
56.980 12.525014
56.985 12.864067
56.990 13.144309
56.995 13.265575
57.000 13.337529
57.005 13.652964
57.010 13.952765
57.015 13.887154
57.020 13.713885
57.025 13.811618
57.030 14.120081
57.035 14.148771
57.040 13.715391
57.045 13.102493
57.050 13.174819
57.055 12.995865
57.060 12.661142
57.065 12.45244
57.070 12.419512
57.075 12.818038
57.080 13.04588
57.085 12.971511
57.090 13.087863
57.095 13.07937
57.100 12.623527
57.105 12.612934
57.110 12.021819
57.115 12.052582
57.120 12.120005
57.125 12.269622
57.130 12.732805
57.135 13.377616
57.140 13.705631
57.145 13.656611
57.150 13.403458
57.155 13.033154
57.160 12.676229
57.165 12.072613
57.170 11.989189
57.175 12.094169
57.180 11.861259
57.185 11.92383
57.190 12.195884
57.195 12.358761
57.200 12.634035
57.205 12.360089
57.210 11.871709
57.215 11.731741
57.220 11.888517
57.225 11.633602
57.230 11.655941
57.235 11.512835
57.240 11.42487
57.245 11.930035
57.250 12.12734
57.255 12.125662
57.260 12.487095
57.265 13.085227
57.270 12.768967
57.275 12.449916
57.280 12.534022
57.285 12.836321
57.290 12.435708
57.295 12.222898
57.300 12.358814
57.305 12.823553
57.310 13.236586
57.315 13.317838
57.320 13.608557
57.325 14.455194
57.330 14.552789
57.335 14.190487
57.340 14.044055
57.345 14.020085
57.350 13.685369
57.355 13.350726
57.360 12.880583
57.365 12.691169
57.370 12.983819
57.375 13.107124
57.380 13.170391
57.385 13.083934
57.390 12.986841
57.395 13.029972
57.400 13.025583
57.405 12.642454
57.410 12.255241
57.415 11.883643
57.420 12.12929
57.425 12.671282
57.430 12.731512
57.435 12.712872
57.440 13.10043
57.445 13.610972
57.450 14.079136
57.455 14.862048
57.460 14.301073
57.465 14.17372
57.470 13.965838
57.475 13.87184
57.480 14.121937
57.485 14.00946
57.490 13.230547
57.495 13.251362
57.500 13.19213
57.505 13.094744
57.510 12.999824
57.515 12.340047
57.520 12.096155
57.525 12.161031
57.530 12.563353
57.535 12.688887
57.540 12.611777
57.545 12.976927
57.550 13.177151
57.555 13.365533
57.560 13.277805
57.565 13.104463
57.570 13.257865
57.575 13.358931
57.580 13.016339
57.585 13.385068
57.590 13.597613
57.595 14.217052
57.600 14.318699
57.605 14.298329
57.610 14.32465
57.615 14.235666
57.620 13.735546
57.625 13.745628
57.630 13.517342
57.635 13.477706
57.640 13.406023
57.645 13.659142
57.650 13.95443
57.655 13.87042
57.660 13.488303
57.665 13.532578
57.670 13.430108
57.675 13.663624
57.680 13.587834
57.685 13.502672
57.690 13.876149
57.695 13.714249
57.700 13.663814
57.705 13.491961
57.710 13.354214
57.715 13.214506
57.720 13.487421
57.725 13.629426
57.730 13.862
57.735 13.796304
57.740 14.214294
57.745 14.511168
57.750 14.67574
57.755 14.591237
57.760 14.291189
57.765 13.987903
57.770 13.902334
57.775 13.909023
57.780 13.665302
57.785 13.502275
57.790 13.377128
57.795 13.300045
57.800 13.417941
57.805 13.39339
57.810 13.039411
57.815 12.884976
57.820 12.947142
57.825 12.614574
57.830 12.566835
57.835 12.874788
57.840 13.434503
57.845 13.872126
57.850 14.29418
57.855 14.343445
57.860 14.639906
57.865 15.003439
57.870 15.151891
57.875 15.501665
57.880 15.171182
57.885 15.332883
57.890 15.389263
57.895 15.331371
57.900 15.491301
57.905 14.540141
57.910 13.734499
57.915 14.165329
57.920 13.927299
57.925 14.222194
57.930 14.425263
57.935 14.447878
57.940 14.889961
57.945 14.566357
57.950 14.1366
57.955 13.763162
57.960 13.534233
57.965 13.409833
57.970 13.58361
57.975 13.667318
57.980 14.728886
57.985 15.167761
57.990 15.328119
57.995 15.265696
58.000 14.961895
58.005 14.730047
58.010 14.519679
58.015 14.108349
58.020 14.124534
58.025 14.400559
58.030 14.805835
58.035 14.985888
58.040 14.573887
58.045 15.031009
58.050 14.709464
58.055 14.37046
58.060 13.960238
58.065 13.933086
58.070 14.394292
58.075 14.682927
58.080 14.377575
58.085 14.768848
58.090 14.815463
58.095 15.181437
58.100 14.816258
58.105 14.390492
58.110 14.331146
58.115 14.409573
58.120 14.213522
58.125 14.27493
58.130 14.19397
58.135 15.247276
58.140 15.775121
58.145 16.073895
58.150 16.228527
58.155 16.60836
58.160 16.567423
58.165 16.579006
58.170 16.450142
58.175 16.284567
58.180 16.167332
58.185 16.422544
58.190 16.888977
58.195 16.827583
58.200 16.643597
58.205 16.038992
58.210 15.976981
58.215 16.085314
58.220 16.117142
58.225 16.00407
58.230 16.035906
58.235 15.842776
58.240 15.932829
58.245 15.802042
58.250 15.353985
58.255 14.730405
58.260 13.962822
58.265 14.563074
58.270 15.271364
58.275 15.33689
58.280 15.633958
58.285 16.189692
58.290 16.508566
58.295 17.095049
58.300 16.877583
58.305 16.579914
58.310 16.263435
58.315 16.016756
58.320 15.676948
58.325 15.344065
58.330 14.947076
58.335 15.028952
58.340 15.441834
58.345 15.72758
58.350 16.131104
58.355 16.409798
58.360 17.075899
58.365 17.996197
58.370 17.766762
58.375 18.015545
58.380 18.177088
58.385 18.395533
58.390 19.298561
58.395 19.392843
58.400 18.629055
58.405 18.561522
58.410 19.343132
58.415 19.719702
58.420 19.936846
58.425 19.523796
58.430 20.130892
58.435 20.958019
58.440 21.507263
58.445 21.5966
58.450 22.181007
58.455 22.257652
58.460 23.193739
58.465 23.754837
58.470 24.545811
58.475 24.571556
58.480 24.42948
58.485 24.839493
58.490 25.435198
58.495 25.201303
58.500 25.321453
58.505 25.321589
58.510 25.467144
58.515 25.183699
58.520 25.24721
58.525 25.854849
58.530 26.10338
58.535 26.863432
58.540 27.380129
58.545 27.721601
