!@!!GADDS PLOTSO FILE: Chi integration type
!@!!Title/SampleName: map-4e
!@!!Comment: ?
!@!!User: Bruker Instrument Administrator
!@!!Site: University of Illinois Chicago
!@!!Frame: map-4e_01_000.gfrm
!@!!Wavelengths    1.54184   1.54056   1.54439
!@!!Frame angles: 2Theta: 63.000 Omega: 50.000 Phi: 0.000 Chi: 90.000
!@!!Integration range: 2Theta: 53.000 to 73.000  Gamma: -105.000 to -75.000
!@!!Integration method: bin normalized
!@!N
!@!SS
!@!M
!@!L 0.0 0.0 0.0 0.0
!@!XDegrees
!@!YCounts
53.000 11.190854
53.005 10.887076
53.010 10.678281
53.015 10.494855
53.020 10.237599
53.025 10.25266
53.030 10.008523
53.035 9.994776
53.040 10.208556
53.045 10.451679
53.050 10.940977
53.055 11.010252
53.060 10.764993
53.065 10.196514
53.070 9.555445
53.075 8.988395
53.080 8.863873
53.085 8.985723
53.090 8.964165
53.095 8.993009
53.100 9.460825
53.105 9.742235
53.110 9.654324
53.115 9.757774
53.120 9.984733
53.125 10.279113
53.130 10.586796
53.135 10.486774
53.140 10.696358
53.145 10.737543
53.150 10.517817
53.155 10.359686
53.160 10.3107
53.165 10.179096
53.170 10.595276
53.175 10.920755
53.180 10.616138
53.185 10.429786
53.190 10.60614
53.195 10.474823
53.200 10.142734
53.205 10.143907
53.210 10.109395
53.215 10.291235
53.220 10.018374
53.225 10.243012
53.230 10.139778
53.235 10.152232
53.240 9.815564
53.245 10.048304
53.250 10.377008
53.255 10.316844
53.260 10.228494
53.265 10.412303
53.270 10.602412
53.275 10.761324
53.280 11.086676
53.285 11.563362
53.290 11.777134
53.295 11.835799
53.300 11.953994
53.305 11.725028
53.310 11.656686
53.315 11.098013
53.320 10.342052
53.325 10.256788
53.330 10.271
53.335 10.055105
53.340 10.171468
53.345 10.372561
53.350 10.722834
53.355 11.11043
53.360 11.333033
53.365 11.590326
53.370 12.068948
53.375 11.843925
53.380 11.692312
53.385 11.585602
53.390 11.347267
53.395 10.983185
53.400 10.847907
53.405 10.660464
53.410 10.550565
53.415 10.339569
53.420 10.698927
53.425 10.750857
53.430 10.845322
53.435 10.797079
53.440 10.6832
53.445 10.597244
53.450 10.497648
53.455 10.278794
53.460 10.045784
53.465 10.372911
53.470 10.470462
53.475 10.780807
53.480 10.976048
53.485 10.828555
53.490 10.708445
53.495 10.676298
53.500 10.760826
53.505 10.611271
53.510 10.285937
53.515 10.145524
53.520 10.165672
53.525 10.354814
53.530 9.794375
53.535 9.680263
53.540 10.237728
53.545 10.228435
53.550 10.277965
53.555 10.293909
53.560 10.514832
53.565 10.650061
53.570 10.431493
53.575 10.115049
53.580 10.312916
53.585 10.756489
53.590 10.910847
53.595 11.257633
53.600 11.502884
53.605 11.510941
53.610 11.879043
53.615 11.669537
53.620 11.279151
53.625 10.924232
53.630 10.731844
53.635 10.516344
53.640 10.588109
53.645 10.466201
53.650 10.310187
53.655 10.474688
53.660 10.596798
53.665 11.069306
53.670 11.479116
53.675 11.52859
53.680 11.569026
53.685 11.607391
53.690 11.656073
53.695 11.410748
53.700 11.190412
53.705 10.882167
53.710 10.295798
53.715 10.376765
53.720 10.469026
53.725 10.52094
53.730 11.022331
53.735 10.694746
53.740 10.859884
53.745 11.434529
53.750 11.46921
53.755 11.429098
53.760 11.184739
53.765 10.966202
53.770 11.186213
53.775 11.30185
53.780 11.261721
53.785 11.20412
53.790 11.496861
53.795 11.96063
53.800 11.65697
53.805 11.552021
53.810 11.307034
53.815 11.110854
53.820 11.426636
53.825 11.212136
53.830 10.990979
53.835 11.400599
53.840 11.519605
53.845 12.053167
53.850 12.38403
53.855 12.609821
53.860 13.033111
53.865 12.687291
53.870 12.537579
53.875 12.608323
53.880 12.549203
53.885 12.448628
53.890 12.091745
53.895 12.06487
53.900 12.253862
53.905 12.330396
53.910 12.044374
53.915 12.239666
53.920 12.227264
53.925 12.063571
53.930 12.013107
53.935 11.997529
53.940 11.525362
53.945 11.435879
53.950 11.208549
53.955 11.448148
53.960 11.374305
53.965 11.300603
53.970 11.013426
53.975 11.105927
53.980 10.574187
53.985 9.939319
53.990 10.140823
53.995 10.324891
54.000 10.602921
54.005 11.600102
54.010 12.217634
54.015 12.626182
54.020 12.60643
54.025 12.454253
54.030 12.49101
54.035 12.271048
54.040 11.5636
54.045 11.41734
54.050 11.574079
54.055 11.451143
54.060 10.846749
54.065 10.122403
54.070 10.657072
54.075 10.650277
54.080 10.56571
54.085 10.622106
54.090 10.946001
54.095 11.50305
54.100 12.203956
54.105 11.803378
54.110 11.83203
54.115 11.831162
54.120 11.75517
54.125 11.855895
54.130 11.98274
54.135 11.285134
54.140 11.284972
54.145 11.064015
54.150 11.017537
54.155 10.954134
54.160 10.723414
54.165 10.124964
54.170 10.578896
54.175 10.812661
54.180 11.133539
54.185 11.048059
54.190 10.818791
54.195 11.094948
54.200 11.476171
54.205 11.465842
54.210 11.55348
54.215 11.689013
54.220 12.056
54.225 12.260335
54.230 12.106284
54.235 12.188426
54.240 11.737391
54.245 11.307849
54.250 11.15923
54.255 11.098207
54.260 10.903924
54.265 10.901702
54.270 10.952404
54.275 10.669835
54.280 11.020828
54.285 10.932202
54.290 10.892687
54.295 10.895811
54.300 11.062257
54.305 11.527817
54.310 12.085682
54.315 11.67352
54.320 12.048296
54.325 12.397881
54.330 12.774076
54.335 12.758769
54.340 12.3657
54.345 12.646815
54.350 13.067551
54.355 12.895844
54.360 12.700794
54.365 12.187146
54.370 11.987112
54.375 11.780737
54.380 11.780468
54.385 11.581734
54.390 11.204606
54.395 11.045133
54.400 11.153817
54.405 11.133484
54.410 10.940241
54.415 11.237499
54.420 11.604935
54.425 11.619348
54.430 11.979955
54.435 12.058073
54.440 12.518978
54.445 12.817419
54.450 12.413585
54.455 12.194294
54.460 12.310745
54.465 12.18884
54.470 11.926507
54.475 11.821408
54.480 11.855777
54.485 12.153734
54.490 12.462878
54.495 12.140035
54.500 11.904283
54.505 12.12233
54.510 11.988434
54.515 11.297284
54.520 10.619274
54.525 10.296378
54.530 10.397135
54.535 10.529289
54.540 10.759089
54.545 11.253623
54.550 11.562531
54.555 11.840026
54.560 12.381438
54.565 12.920012
54.570 12.856603
54.575 12.259531
54.580 12.060833
54.585 12.214858
54.590 11.835207
54.595 11.536016
54.600 11.32434
54.605 11.08713
54.610 11.116152
54.615 10.758934
54.620 10.847757
54.625 10.983228
54.630 11.042297
54.635 10.941916
54.640 11.173222
54.645 11.00187
54.650 11.026363
54.655 11.116865
54.660 11.257447
54.665 11.308068
54.670 11.470264
54.675 11.816919
54.680 11.898765
54.685 11.450483
54.690 11.601978
54.695 11.387836
54.700 11.209328
54.705 11.073623
54.710 10.792243
54.715 10.960015
54.720 11.093898
54.725 10.892045
54.730 10.941926
54.735 11.048549
54.740 11.416539
54.745 11.786737
54.750 11.779305
54.755 11.873753
54.760 12.039634
54.765 12.21288
54.770 12.112227
54.775 11.782783
54.780 12.077711
54.785 12.63995
54.790 12.870739
54.795 12.688794
54.800 12.994772
54.805 13.388226
54.810 13.416843
54.815 12.722642
54.820 12.411844
54.825 12.320372
54.830 12.293301
54.835 12.100571
54.840 11.597495
54.845 11.312826
54.850 11.735828
54.855 12.064303
54.860 12.183896
54.865 11.891636
54.870 11.579811
54.875 11.75267
54.880 12.357802
54.885 12.302348
54.890 12.096055
54.895 12.217474
54.900 12.284251
54.905 12.581016
54.910 12.538521
54.915 12.147856
54.920 11.662626
54.925 11.764347
54.930 11.656309
54.935 11.634348
54.940 11.001644
54.945 10.819983
54.950 11.715855
54.955 12.000909
54.960 11.648224
54.965 11.275032
54.970 11.207238
54.975 11.500659
54.980 11.839925
54.985 11.252013
54.990 11.40939
54.995 11.543245
55.000 11.88876
55.005 11.98323
55.010 11.866649
55.015 11.149144
55.020 10.671309
55.025 10.598183
55.030 11.255425
55.035 11.978673
55.040 12.28615
55.045 12.477902
55.050 12.454811
55.055 12.818272
55.060 12.407767
55.065 11.406333
55.070 11.187783
55.075 11.149838
55.080 11.339763
55.085 11.722986
55.090 11.375824
55.095 11.350345
55.100 11.566453
55.105 11.199991
55.110 11.008276
55.115 10.935898
55.120 10.337504
55.125 10.772874
55.130 10.721733
55.135 10.648164
55.140 10.521104
55.145 10.203415
55.150 10.623558
55.155 10.809832
55.160 10.958054
55.165 11.138034
55.170 11.2584
55.175 11.844053
55.180 12.184154
55.185 12.130415
55.190 12.1114
55.195 11.52127
55.200 11.424908
55.205 11.302992
55.210 10.67001
55.215 10.254752
55.220 10.223162
55.225 10.82997
55.230 11.222413
55.235 12.266373
55.240 12.491289
55.245 13.022791
55.250 13.315786
55.255 12.885792
55.260 12.528327
55.265 12.601933
55.270 11.65736
55.275 11.486267
55.280 11.265598
55.285 11.255405
55.290 12.036486
55.295 12.545588
55.300 12.380677
55.305 12.711767
55.310 12.819156
55.315 13.016088
55.320 13.113859
55.325 12.99363
55.330 12.481212
55.335 12.505757
55.340 12.171561
55.345 12.008508
55.350 11.994451
55.355 11.936427
55.360 11.849921
55.365 11.591491
55.370 11.331099
55.375 11.305507
55.380 11.064051
55.385 11.025687
55.390 11.244711
55.395 11.170714
55.400 11.262742
55.405 11.267615
55.410 11.401274
55.415 11.893665
55.420 11.580609
55.425 11.088289
55.430 11.389306
55.435 11.794495
55.440 12.458929
55.445 12.680605
55.450 12.91631
55.455 13.014138
55.460 13.316236
55.465 13.353086
55.470 13.174417
55.475 13.146369
55.480 13.04219
55.485 12.721898
55.490 12.760785
55.495 12.811118
55.500 12.60673
55.505 12.828028
55.510 12.829273
55.515 13.030695
55.520 13.410855
55.525 13.372482
55.530 13.011145
55.535 13.500017
55.540 13.127851
55.545 12.976209
55.550 12.425499
55.555 12.283122
55.560 12.31248
55.565 12.339023
55.570 11.919951
55.575 11.66513
55.580 11.68075
55.585 11.952668
55.590 12.666246
55.595 13.164871
55.600 13.433496
55.605 13.393041
55.610 13.579677
55.615 13.796836
55.620 14.116989
55.625 13.643872
55.630 13.578395
55.635 13.643793
55.640 13.9123
55.645 14.209076
55.650 14.579567
55.655 14.194969
55.660 14.032316
55.665 14.027891
55.670 14.019549
55.675 13.648491
55.680 13.181306
55.685 12.829706
55.690 12.888254
55.695 13.211987
55.700 12.531673
55.705 12.201564
55.710 11.855091
55.715 11.808615
55.720 11.693418
55.725 11.497726
55.730 11.391762
55.735 11.871163
55.740 12.075222
55.745 12.410932
55.750 12.452628
55.755 12.756279
55.760 12.859349
55.765 12.617301
55.770 12.48058
55.775 12.93321
55.780 13.015553
55.785 13.165051
55.790 13.214971
55.795 13.285994
55.800 13.376742
55.805 13.621767
55.810 13.208841
55.815 13.557047
55.820 13.743423
55.825 13.521226
55.830 13.431095
55.835 13.308505
55.840 12.896268
55.845 13.503948
55.850 12.988596
55.855 12.624489
55.860 12.491687
55.865 12.575047
55.870 12.46648
55.875 12.631334
55.880 12.416155
55.885 12.916049
55.890 12.863119
55.895 12.692307
55.900 12.751763
55.905 12.469362
55.910 12.335397
55.915 12.301751
55.920 12.200179
55.925 12.729021
55.930 13.099675
55.935 13.713968
55.940 14.799089
55.945 15.206688
55.950 15.110831
55.955 15.316692
55.960 14.959734
55.965 14.710095
55.970 13.73441
55.975 12.924014
55.980 12.503839
55.985 12.427115
55.990 11.734765
55.995 11.916387
56.000 12.066179
56.005 12.553948
56.010 12.705944
56.015 12.615105
56.020 12.247847
56.025 12.537254
56.030 12.541297
56.035 12.363529
56.040 12.389001
56.045 12.531564
56.050 12.487704
56.055 13.185895
56.060 13.21888
56.065 13.101726
56.070 13.280569
56.075 13.622384
56.080 14.122654
56.085 14.246002
56.090 13.586302
56.095 12.993179
56.100 13.01143
56.105 12.791183
56.110 12.858332
56.115 12.542861
56.120 12.927609
56.125 13.502982
56.130 13.841382
56.135 13.670628
56.140 13.800014
56.145 13.31116
56.150 13.632045
56.155 13.049667
56.160 12.678416
56.165 12.846352
56.170 13.275896
56.175 13.010427
56.180 13.097452
56.185 13.047066
56.190 13.512439
56.195 13.66061
56.200 14.101397
56.205 13.843027
56.210 14.069951
56.215 14.529919
56.220 14.015644
56.225 14.255449
56.230 14.468606
56.235 14.670117
56.240 15.36097
56.245 15.226769
56.250 14.744159
56.255 14.946333
56.260 15.038543
56.265 15.152969
56.270 14.473402
56.275 14.085203
56.280 14.539431
56.285 14.446989
56.290 14.326498
56.295 14.135373
56.300 13.963429
56.305 13.681254
56.310 13.17447
56.315 12.870864
56.320 13.601958
56.325 13.762845
56.330 13.591407
56.335 13.964161
56.340 14.355133
56.345 14.858448
56.350 14.871801
56.355 14.660288
56.360 14.465888
56.365 14.629768
56.370 14.317138
56.375 14.324287
56.380 13.618685
56.385 13.712192
56.390 13.548308
56.395 13.492282
56.400 13.41751
56.405 13.269916
56.410 13.422976
56.415 13.84038
56.420 13.406992
56.425 13.497744
56.430 14.143683
56.435 13.895337
56.440 13.448581
56.445 13.469204
56.450 13.952061
56.455 14.297374
56.460 14.269941
56.465 13.680229
56.470 14.018325
56.475 14.328596
56.480 13.874852
56.485 13.537019
56.490 13.864455
56.495 14.257874
56.500 14.319972
56.505 14.309276
56.510 14.412669
56.515 14.368073
56.520 14.317347
56.525 14.05468
56.530 13.903334
56.535 14.171932
56.540 14.40017
56.545 14.634091
56.550 14.868178
56.555 14.64828
56.560 14.43074
56.565 13.930939
56.570 13.978377
56.575 13.694311
56.580 13.667976
56.585 13.902977
56.590 13.899662
56.595 13.903443
56.600 13.978155
56.605 13.409736
56.610 13.590069
56.615 13.813121
56.620 13.752135
56.625 13.789257
56.630 13.842994
56.635 13.595344
56.640 13.658127
56.645 13.780305
56.650 13.272965
56.655 12.761677
56.660 12.826127
56.665 12.44422
56.670 13.235763
56.675 13.800865
56.680 14.159667
56.685 14.593792
56.690 15.100062
56.695 14.90891
56.700 14.558315
56.705 14.012112
56.710 13.589787
56.715 13.139865
56.720 13.241906
56.725 12.922803
56.730 13.426953
56.735 13.933464
56.740 14.021207
56.745 14.223794
56.750 14.213435
56.755 14.086038
56.760 14.193635
56.765 14.463111
56.770 14.842811
56.775 14.599549
56.780 14.722702
56.785 14.683977
56.790 15.019651
56.795 15.065344
56.800 14.480223
56.805 14.658378
56.810 15.226585
56.815 14.887978
56.820 14.725211
56.825 14.515941
56.830 14.565065
56.835 14.995103
56.840 14.478451
56.845 14.30131
56.850 14.460929
56.855 14.508242
56.860 14.424662
56.865 14.133378
56.870 13.489948
56.875 13.502172
56.880 13.610525
56.885 13.570775
56.890 13.500067
56.895 13.840489
56.900 14.138965
56.905 14.116636
56.910 13.80886
56.915 13.761336
56.920 13.768167
56.925 13.212397
56.930 12.86552
56.935 12.752467
56.940 13.025116
56.945 13.463591
56.950 12.948651
56.955 13.159695
56.960 13.927812
56.965 14.171745
56.970 14.363614
56.975 14.448572
56.980 14.607031
56.985 15.169114
56.990 14.925092
56.995 14.484072
57.000 13.995275
57.005 14.089392
57.010 14.059443
57.015 13.951392
57.020 14.174198
57.025 14.540215
57.030 15.050811
57.035 15.637826
57.040 15.289605
57.045 14.911755
57.050 14.734735
57.055 14.556104
57.060 13.988441
57.065 13.736564
57.070 13.50437
57.075 13.38438
57.080 13.476852
57.085 12.947793
57.090 12.964286
57.095 13.054859
57.100 12.742427
57.105 12.815866
57.110 12.824186
57.115 12.545195
57.120 12.979876
57.125 13.423877
57.130 13.80264
57.135 13.977595
57.140 14.409686
57.145 14.56169
57.150 14.819139
57.155 14.424245
57.160 13.965972
57.165 13.942034
57.170 14.330809
57.175 14.576011
57.180 14.798646
57.185 15.384929
57.190 16.021948
57.195 16.478502
57.200 16.294533
57.205 15.926863
57.210 16.22357
57.215 16.150686
57.220 15.733706
57.225 15.481079
57.230 15.804675
57.235 15.891515
57.240 15.917546
57.245 15.615028
57.250 15.764444
57.255 15.616865
57.260 15.262432
57.265 15.294919
57.270 15.201144
57.275 14.839754
57.280 14.429326
57.285 14.941199
57.290 15.195906
57.295 15.044532
57.300 15.051813
57.305 15.227642
57.310 15.720201
57.315 15.319612
57.320 14.610369
57.325 14.343132
57.330 14.286528
57.335 14.066718
57.340 14.041636
57.345 13.765293
57.350 14.029367
57.355 14.131997
57.360 14.596586
57.365 14.391252
57.370 14.685758
57.375 14.780981
57.380 15.572758
57.385 15.671009
57.390 15.742245
57.395 15.986656
57.400 16.592426
57.405 16.147108
57.410 15.650866
57.415 15.405113
57.420 15.2487
57.425 15.366686
57.430 15.416059
57.435 15.100948
57.440 15.026047
57.445 14.967743
57.450 14.78536
57.455 15.12084
57.460 14.80759
57.465 14.362483
57.470 14.15656
57.475 14.695273
57.480 14.431072
57.485 14.479561
57.490 14.766672
57.495 15.13526
57.500 15.494246
57.505 15.174284
57.510 15.388621
57.515 15.763632
57.520 15.390687
57.525 14.313038
57.530 14.070926
57.535 14.434733
57.540 15.106565
57.545 14.714236
57.550 15.026251
57.555 16.181211
57.560 16.901701
57.565 16.87505
57.570 16.706408
57.575 16.317959
57.580 16.163105
57.585 15.795877
57.590 14.654967
57.595 14.54909
57.600 14.429191
57.605 14.298765
57.610 14.10921
57.615 14.401453
57.620 14.871197
57.625 15.047166
57.630 14.724566
57.635 14.984167
57.640 15.201586
57.645 15.753481
57.650 15.945039
57.655 16.078972
57.660 16.379179
57.665 16.251421
57.670 16.415407
57.675 16.921036
57.680 17.176289
57.685 17.007624
57.690 17.366653
57.695 17.398525
57.700 18.014004
57.705 17.847179
57.710 17.952656
57.715 17.655455
57.720 17.636532
57.725 17.269346
57.730 17.327963
57.735 17.389517
57.740 16.968393
57.745 16.14768
57.750 16.276815
57.755 16.177153
57.760 16.05501
57.765 16.430286
57.770 16.32963
57.775 16.668842
57.780 17.072639
57.785 17.143494
57.790 16.998198
57.795 16.71483
57.800 16.721992
57.805 17.305424
57.810 17.105236
57.815 16.499044
57.820 15.982715
57.825 16.317204
57.830 16.426613
57.835 15.783216
57.840 14.817624
57.845 14.873381
57.850 14.837591
57.855 14.704253
57.860 14.729987
57.865 14.727107
57.870 14.931357
57.875 15.425944
57.880 15.710958
57.885 16.129297
57.890 16.673267
57.895 17.055693
57.900 17.412935
57.905 17.540026
57.910 17.011307
57.915 16.806604
57.920 16.980843
57.925 16.568136
57.930 15.898376
57.935 14.700083
57.940 14.723839
57.945 15.191234
57.950 15.622656
57.955 15.778035
57.960 15.687249
57.965 16.017456
57.970 17.574341
57.975 17.303917
57.980 16.877558
57.985 16.404263
57.990 15.929953
57.995 16.76733
58.000 16.667835
58.005 16.086124
58.010 16.333862
58.015 16.428976
58.020 17.002707
58.025 17.454599
58.030 17.066164
58.035 16.988461
58.040 16.969151
58.045 16.531469
58.050 16.538105
58.055 16.819284
58.060 16.98667
58.065 16.570105
58.070 16.301058
58.075 16.897116
58.080 17.327618
58.085 17.277176
58.090 16.77054
58.095 16.483364
58.100 16.991781
58.105 17.451269
58.110 16.947601
58.115 17.391775
58.120 17.034958
58.125 17.400463
58.130 17.504583
58.135 17.489592
58.140 17.897694
58.145 17.679302
58.150 17.566761
58.155 18.173595
58.160 17.372663
58.165 17.221987
58.170 17.172739
58.175 16.969944
58.180 17.450502
58.185 17.616568
58.190 17.885254
58.195 18.217571
58.200 18.590157
58.205 18.759348
58.210 18.626289
58.215 18.387491
58.220 18.17889
58.225 18.023617
58.230 17.992863
58.235 18.557163
58.240 18.666828
58.245 19.532188
58.250 19.530127
58.255 19.858582
58.260 19.851372
58.265 20.096354
58.270 20.446064
58.275 20.402866
58.280 20.605675
58.285 21.188206
58.290 21.527994
58.295 21.771517
58.300 21.768133
58.305 21.145344
58.310 21.433857
58.315 20.975393
58.320 20.530846
58.325 20.079744
58.330 19.579823
58.335 19.465866
58.340 19.626286
58.345 19.650904
58.350 20.265394
58.355 20.888643
58.360 22.063831
58.365 22.392258
58.370 22.291462
58.375 22.493372
58.380 22.612104
58.385 22.470057
58.390 22.752247
58.395 22.764906
58.400 23.36717
58.405 24.122768
58.410 24.40564
58.415 24.364901
58.420 25.543306
58.425 26.184072
58.430 27.064819
58.435 27.434053
58.440 27.462963
58.445 28.23423
