!@!!GADDS PLOTSO FILE: Chi integration type
!@!!Title/SampleName: map-128
!@!!Comment: ?
!@!!User: Bruker Instrument Administrator
!@!!Site: University of Illinois Chicago
!@!!Frame: map-128_01_000.gfrm
!@!!Wavelengths    1.54184   1.54056   1.54439
!@!!Frame angles: 2Theta: 63.000 Omega: 50.000 Phi: 0.000 Chi: 90.000
!@!!Integration range: 2Theta: 53.000 to 73.000  Gamma: -105.000 to -75.000
!@!!Integration method: bin normalized
!@!N
!@!SS
!@!M
!@!L 0.0 0.0 0.0 0.0
!@!XDegrees
!@!YCounts
53.000 5.4201
53.005 5.77742
53.010 6.112528
53.015 6.642784
53.020 6.581044
53.025 6.282883
53.030 6.203805
53.035 6.136089
53.040 5.748723
53.045 5.324814
53.050 4.863024
53.055 4.856894
53.060 5.122742
53.065 5.324494
53.070 5.580819
53.075 5.763657
53.080 6.036603
53.085 6.26895
53.090 6.622039
53.095 6.654727
53.100 6.295665
53.105 6.131414
53.110 5.932856
53.115 5.618885
53.120 5.555146
53.125 5.117078
53.130 4.883198
53.135 4.717936
53.140 4.669259
53.145 4.805738
53.150 4.779435
53.155 5.058251
53.160 5.359861
53.165 5.62573
53.170 5.52947
53.175 5.358414
53.180 5.365871
53.185 5.145691
53.190 4.744675
53.195 4.498193
53.200 4.46584
53.205 4.81598
53.210 4.944324
53.215 4.641086
53.220 5.010346
53.225 5.512978
53.230 5.844712
53.235 5.617947
53.240 5.341423
53.245 5.401058
53.250 5.199155
53.255 4.754979
53.260 4.741739
53.265 4.519249
53.270 4.399486
53.275 4.484817
53.280 4.612114
53.285 5.049349
53.290 5.145271
53.295 5.009988
53.300 5.024601
53.305 5.261388
53.310 5.267488
53.315 4.970589
53.320 4.604123
53.325 4.367503
53.330 4.400723
53.335 4.604519
53.340 4.56197
53.345 4.217796
53.350 4.415453
53.355 4.410675
53.360 4.488946
53.365 4.421053
53.370 4.754835
53.375 5.000463
53.380 5.346228
53.385 5.619144
53.390 5.879155
53.395 6.322126
53.400 6.28721
53.405 5.954401
53.410 5.748211
53.415 5.702592
53.420 5.474312
53.425 5.353938
53.430 5.24177
53.435 5.329808
53.440 5.515916
53.445 5.586947
53.450 5.348258
53.455 5.460578
53.460 5.624846
53.465 5.561006
53.470 5.332399
53.475 5.276913
53.480 5.730069
53.485 6.349877
53.490 6.615555
53.495 6.288704
53.500 6.230608
53.505 6.110183
53.510 6.127849
53.515 6.268997
53.520 5.858689
53.525 5.667169
53.530 5.99802
53.535 6.081942
53.540 6.216315
53.545 6.060268
53.550 5.657543
53.555 6.00292
53.560 6.376417
53.565 5.85592
53.570 5.87308
53.575 5.976493
53.580 6.192397
53.585 6.16056
53.590 5.957158
53.595 5.991882
53.600 6.22186
53.605 6.155487
53.610 6.2365
53.615 6.057377
53.620 6.168649
53.625 6.092707
53.630 6.189438
53.635 6.429817
53.640 6.51343
53.645 6.381116
53.650 6.514541
53.655 6.522768
53.660 6.54985
53.665 6.268826
53.670 6.074892
53.675 5.680256
53.680 5.684612
53.685 5.678213
53.690 5.477116
53.695 5.517794
53.700 5.776117
53.705 5.823951
53.710 5.976122
53.715 5.672596
53.720 5.662882
53.725 5.959867
53.730 5.660671
53.735 5.769927
53.740 5.642151
53.745 5.658259
53.750 5.654565
53.755 5.586689
53.760 5.284967
53.765 5.289799
53.770 5.271524
53.775 5.46605
53.780 5.332233
53.785 5.327217
53.790 5.129555
53.795 5.288277
53.800 5.278813
53.805 5.473239
53.810 5.330964
53.815 5.440298
53.820 5.784284
53.825 6.180091
53.830 6.551478
53.835 6.585198
53.840 6.584521
53.845 6.733494
53.850 6.861561
53.855 6.617523
53.860 6.444176
53.865 6.069118
53.870 5.960759
53.875 5.59296
53.880 5.657921
53.885 5.647839
53.890 5.572099
53.895 5.618041
53.900 5.568014
53.905 5.813743
53.910 5.810024
53.915 5.59587
53.920 5.427387
53.925 5.723465
53.930 5.885626
53.935 5.993886
53.940 6.01688
53.945 6.016089
53.950 5.978167
53.955 5.867104
53.960 5.575891
53.965 5.260277
53.970 5.270998
53.975 5.528456
53.980 5.730827
53.985 6.024693
53.990 5.757827
53.995 5.541978
54.000 5.538196
54.005 5.324501
54.010 5.417988
54.015 5.450915
54.020 5.384275
54.025 5.850739
54.030 6.210453
54.035 6.143703
54.040 5.87038
54.045 5.674131
54.050 5.594642
54.055 5.800975
54.060 5.526453
54.065 5.390621
54.070 5.968182
54.075 6.213851
54.080 6.40134
54.085 6.350387
54.090 6.507847
54.095 6.375639
54.100 6.091045
54.105 5.777076
54.110 6.073371
54.115 6.27758
54.120 6.517903
54.125 6.255139
54.130 6.583815
54.135 6.713947
54.140 6.723399
54.145 6.494594
54.150 6.366066
54.155 6.407383
54.160 6.997171
54.165 7.352518
54.170 7.100747
54.175 6.819317
54.180 6.549356
54.185 6.650409
54.190 6.625551
54.195 6.089855
54.200 6.068372
54.205 6.194426
54.210 6.204108
54.215 6.027649
54.220 5.758955
54.225 5.780236
54.230 5.747521
54.235 5.525682
54.240 5.44054
54.245 5.918769
54.250 6.256663
54.255 6.120254
54.260 5.935939
54.265 5.992129
54.270 6.360653
54.275 6.782413
54.280 6.299375
54.285 6.26486
54.290 6.090045
54.295 5.993349
54.300 6.103142
54.305 6.291849
54.310 6.486149
54.315 6.699621
54.320 6.82743
54.325 7.151373
54.330 7.432889
54.335 7.264416
54.340 6.391747
54.345 6.087029
54.350 5.65288
54.355 5.242992
54.360 4.909203
54.365 4.653265
54.370 4.813138
54.375 4.909891
54.380 4.923386
54.385 5.299991
54.390 5.491785
54.395 5.389132
54.400 4.949932
54.405 5.019975
54.410 5.229962
54.415 5.482297
54.420 5.402512
54.425 5.535628
54.430 6.304648
54.435 6.823383
54.440 6.732232
54.445 6.510546
54.450 6.269878
54.455 6.482814
54.460 6.532554
54.465 6.010174
54.470 5.850637
54.475 5.700057
54.480 5.867968
54.485 5.839859
54.490 5.829936
54.495 5.740612
54.500 5.623454
54.505 5.448775
54.510 5.683195
54.515 5.789062
54.520 6.085844
54.525 6.052457
54.530 5.949485
54.535 6.106743
54.540 6.525132
54.545 6.735024
54.550 6.896013
54.555 6.334124
54.560 6.322449
54.565 6.527884
54.570 6.345551
54.575 5.686689
54.580 5.352709
54.585 5.481392
54.590 5.801298
54.595 5.81724
54.600 5.623729
54.605 6.000617
54.610 6.223274
54.615 6.291526
54.620 6.35334
54.625 6.123904
54.630 6.099995
54.635 6.302755
54.640 6.1953
54.645 6.376284
54.650 5.881001
54.655 5.863553
54.660 6.434598
54.665 6.706536
54.670 6.518513
54.675 6.756355
54.680 6.682514
54.685 7.097958
54.690 6.843018
54.695 6.601814
54.700 6.723184
54.705 7.109575
54.710 6.935337
54.715 6.875722
54.720 6.825006
54.725 6.848036
54.730 6.518383
54.735 6.235487
54.740 6.005043
54.745 6.260755
54.750 6.637661
54.755 6.504179
54.760 6.827177
54.765 6.939097
54.770 7.255259
54.775 6.954245
54.780 6.630557
54.785 6.634178
54.790 6.734893
54.795 6.536296
54.800 6.625583
54.805 6.552882
54.810 6.928897
54.815 7.186184
54.820 7.096033
54.825 7.334974
54.830 7.148974
54.835 6.99079
54.840 6.826918
54.845 6.851609
54.850 6.908173
54.855 6.976466
54.860 6.730014
54.865 6.710081
54.870 6.933707
54.875 6.900923
54.880 6.654665
54.885 6.496245
54.890 6.882657
54.895 6.948946
54.900 6.762218
54.905 6.357149
54.910 6.702397
54.915 6.541728
54.920 6.175191
54.925 5.584041
54.930 5.524333
54.935 5.749789
54.940 5.897673
54.945 5.864714
54.950 6.331992
54.955 6.291689
54.960 6.686574
54.965 6.612833
54.970 6.612599
54.975 6.544203
54.980 6.472425
54.985 6.503757
54.990 6.851587
54.995 6.766746
55.000 6.792791
55.005 6.771869
55.010 6.96695
55.015 7.13469
55.020 7.161349
55.025 7.216281
55.030 7.363888
55.035 7.636966
55.040 7.61682
55.045 7.245215
55.050 6.898664
55.055 6.623089
55.060 6.687129
55.065 6.945
55.070 6.749429
55.075 6.576267
55.080 6.652188
55.085 6.963347
55.090 6.930879
55.095 6.870702
55.100 6.550907
55.105 7.116261
55.110 7.431536
55.115 7.601704
55.120 7.471279
55.125 7.215563
55.130 7.163416
55.135 7.017316
55.140 6.586695
55.145 6.754554
55.150 6.957189
55.155 7.168851
55.160 7.143728
55.165 7.229208
55.170 7.307855
55.175 7.556175
55.180 7.558527
55.185 7.765591
55.190 8.024654
55.195 8.045605
55.200 7.754263
55.205 7.702348
55.210 7.634582
55.215 7.323867
55.220 6.369524
55.225 6.118749
55.230 6.007926
55.235 5.833163
55.240 5.661612
55.245 5.613817
55.250 5.565299
55.255 6.056583
55.260 6.37241
55.265 6.630091
55.270 6.905942
55.275 7.056532
55.280 6.917106
55.285 6.963866
55.290 6.65639
55.295 6.279404
55.300 5.882423
55.305 5.638428
55.310 5.474926
55.315 5.541187
55.320 5.792807
55.325 5.828619
55.330 5.726402
55.335 6.116742
55.340 6.287065
55.345 6.459685
55.350 6.192691
55.355 5.861324
55.360 6.261868
55.365 6.53372
55.370 6.518671
55.375 6.77625
55.380 7.131275
55.385 7.276178
55.390 7.389003
55.395 7.359649
55.400 7.1977
55.405 7.037207
55.410 6.72319
55.415 6.202886
55.420 6.185266
55.425 6.053448
55.430 6.03317
55.435 6.003105
55.440 5.845736
55.445 6.279912
55.450 6.434259
55.455 6.44375
55.460 6.212535
55.465 6.24232
55.470 6.415437
55.475 6.546769
55.480 6.131736
55.485 6.119128
55.490 6.254344
55.495 6.229053
55.500 6.37254
55.505 6.775887
55.510 7.053359
55.515 7.012587
55.520 6.88152
55.525 6.79542
55.530 7.029696
55.535 6.773896
55.540 6.263453
55.545 5.901001
55.550 6.232778
55.555 6.498975
55.560 6.327011
55.565 6.292178
55.570 6.529517
55.575 6.821721
55.580 6.96825
55.585 6.977859
55.590 6.914702
55.595 7.515953
55.600 7.732537
55.605 7.860525
55.610 7.999829
55.615 7.881025
55.620 7.854417
55.625 7.799183
55.630 7.236608
55.635 6.520764
55.640 6.2297
55.645 6.006934
55.650 5.853074
55.655 5.81905
55.660 5.585292
55.665 6.005599
55.670 6.515735
55.675 6.254862
55.680 6.462832
55.685 6.817358
55.690 6.726835
55.695 7.064137
55.700 6.668365
55.705 6.663619
55.710 7.318505
55.715 7.300723
55.720 7.203456
55.725 7.629566
55.730 7.715435
55.735 7.985697
55.740 7.331415
55.745 6.71821
55.750 6.522982
55.755 6.397363
55.760 6.003342
55.765 5.948213
55.770 6.210765
55.775 7.055611
55.780 7.015087
55.785 7.067475
55.790 7.108911
55.795 6.873114
55.800 6.787885
55.805 6.631162
55.810 6.032449
55.815 6.163538
55.820 6.424433
55.825 6.302842
55.830 6.409255
55.835 6.690982
55.840 6.899204
55.845 7.530187
55.850 8.013624
55.855 7.626094
55.860 7.799916
55.865 7.659473
55.870 7.122653
55.875 7.205755
55.880 6.745558
55.885 6.281133
55.890 6.65373
55.895 6.899355
55.900 7.264236
55.905 7.566545
55.910 7.664846
55.915 7.817185
55.920 7.583044
55.925 7.453779
55.930 7.539596
55.935 7.388725
55.940 6.883098
55.945 7.311824
55.950 7.88326
55.955 8.189384
55.960 7.97006
55.965 7.86158
55.970 7.727514
55.975 7.510482
55.980 6.655127
55.985 6.031275
55.990 5.881781
55.995 5.791088
56.000 5.324613
56.005 5.69392
56.010 6.136674
56.015 6.764112
56.020 6.982564
56.025 6.935063
56.030 7.41377
56.035 7.942878
56.040 7.540487
56.045 7.223268
56.050 6.719974
56.055 6.411442
56.060 6.489685
56.065 6.297678
56.070 6.200672
56.075 6.290797
56.080 6.520665
56.085 6.566831
56.090 6.837315
56.095 6.853826
56.100 7.296857
56.105 7.284796
56.110 7.698278
56.115 7.653428
56.120 7.762074
56.125 7.620445
56.130 7.40716
56.135 6.828529
56.140 6.676411
56.145 5.907427
56.150 5.467832
56.155 5.598251
56.160 5.875712
56.165 6.1801
56.170 6.377146
56.175 6.501166
56.180 6.417311
56.185 6.380797
56.190 6.325494
56.195 6.233219
56.200 6.136033
56.205 6.135309
56.210 6.21851
56.215 6.764282
56.220 7.243269
56.225 7.05105
56.230 6.887629
56.235 6.971903
56.240 7.061217
56.245 7.380772
56.250 7.242741
56.255 7.123507
56.260 7.647745
56.265 8.116824
56.270 7.786136
56.275 7.748087
56.280 7.666196
56.285 7.941419
56.290 7.952923
56.295 7.738631
56.300 7.608424
56.305 7.979884
56.310 7.77146
56.315 7.773566
56.320 7.528129
56.325 7.47389
56.330 7.457633
56.335 7.372875
56.340 7.174816
56.345 7.084781
56.350 6.992878
56.355 7.425755
56.360 7.405165
56.365 7.182556
56.370 7.564764
56.375 7.371531
56.380 7.550373
56.385 7.297267
56.390 6.769214
56.395 6.771558
56.400 6.662599
56.405 6.561528
56.410 6.907513
56.415 6.999579
56.420 7.027741
56.425 7.375985
56.430 7.527205
56.435 7.669806
56.440 7.51053
56.445 7.429603
56.450 7.463778
56.455 7.09404
56.460 6.791795
56.465 6.758432
56.470 6.684849
56.475 6.698537
56.480 6.624588
56.485 6.593847
56.490 7.31877
56.495 7.47092
56.500 7.471475
56.505 7.881577
56.510 7.876787
56.515 8.12934
56.520 8.062527
56.525 8.036923
56.530 8.072145
56.535 7.601374
56.540 7.406924
56.545 7.239569
56.550 7.051918
56.555 6.872683
56.560 6.845313
56.565 7.041337
56.570 7.237925
56.575 7.031294
56.580 7.42816
56.585 7.510194
56.590 7.519644
56.595 7.294526
56.600 7.144846
56.605 7.564698
56.610 8.009728
56.615 7.87424
56.620 8.11818
56.625 8.145416
56.630 8.245237
56.635 8.361217
56.640 7.781251
56.645 7.457788
56.650 7.241877
56.655 7.319444
56.660 7.542288
56.665 7.439364
56.670 7.745016
56.675 7.779864
56.680 7.590799
56.685 7.70794
56.690 7.610555
56.695 7.298346
56.700 7.462319
56.705 6.796428
56.710 6.973225
56.715 7.431411
56.720 7.463792
56.725 7.166059
56.730 7.223773
56.735 7.150765
56.740 7.452263
56.745 7.480042
56.750 7.206575
56.755 7.152124
56.760 7.443287
56.765 7.626842
56.770 7.786498
56.775 7.739988
56.780 8.190099
56.785 8.671755
56.790 8.881757
56.795 8.863772
56.800 8.864211
56.805 9.123178
56.810 9.019509
56.815 8.237666
56.820 7.874637
56.825 7.894239
56.830 7.783275
56.835 7.596387
56.840 7.157248
56.845 7.410584
56.850 7.943461
56.855 8.131943
56.860 7.863733
56.865 7.766986
56.870 8.069909
56.875 8.20155
56.880 7.921831
56.885 7.47194
56.890 7.207209
56.895 7.784521
56.900 8.180762
56.905 8.281695
56.910 8.209162
56.915 8.555535
56.920 9.1252
56.925 9.108702
56.930 8.5388
56.935 8.146434
56.940 8.030542
56.945 7.988595
56.950 7.409363
56.955 6.863523
56.960 6.897322
56.965 7.119131
56.970 7.250833
56.975 6.954514
56.980 7.275949
56.985 7.570238
56.990 7.702107
56.995 7.681678
57.000 7.551387
57.005 7.216158
57.010 7.594539
57.015 7.830798
57.020 8.069407
57.025 8.3606
57.030 8.425717
57.035 8.7279
57.040 8.717861
57.045 8.374567
57.050 8.088057
57.055 8.20268
57.060 7.964097
57.065 7.857988
57.070 8.098069
57.075 8.59437
57.080 8.532586
57.085 8.294852
57.090 7.725569
57.095 7.420648
57.100 7.55309
57.105 7.454587
57.110 7.414121
57.115 7.557714
57.120 7.450956
57.125 8.097012
57.130 8.554991
57.135 8.483759
57.140 8.237436
57.145 8.024263
57.150 8.479028
57.155 8.728878
57.160 8.430719
57.165 7.87771
57.170 7.809909
57.175 8.353226
57.180 8.067612
57.185 7.904671
57.190 8.404442
57.195 9.101979
57.200 9.855937
57.205 9.869432
57.210 9.498828
57.215 9.78754
57.220 9.656533
57.225 9.091382
57.230 8.529131
57.235 8.180388
57.240 7.9885
57.245 8.074759
57.250 7.948636
57.255 7.772249
57.260 7.625092
57.265 7.353495
57.270 7.428337
57.275 7.486835
57.280 7.757777
57.285 7.88781
57.290 8.139649
57.295 8.299657
57.300 8.986876
57.305 8.887733
57.310 8.870967
57.315 8.936793
57.320 8.89748
57.325 8.773759
57.330 8.842424
57.335 8.699399
57.340 9.164296
57.345 9.187047
57.350 8.761445
57.355 9.022979
57.360 9.150162
57.365 8.990425
57.370 8.649597
57.375 8.242691
57.380 8.394529
57.385 8.475546
57.390 8.468824
57.395 8.262449
57.400 8.294754
57.405 8.257316
57.410 8.34032
57.415 8.034191
57.420 8.152906
57.425 8.264952
57.430 8.111569
57.435 7.884035
57.440 8.132321
57.445 8.179457
57.450 8.025528
57.455 7.658978
57.460 7.167063
57.465 7.412168
57.470 8.00937
57.475 8.07192
57.480 8.303072
57.485 8.460402
57.490 8.710972
57.495 8.884086
57.500 9.00639
57.505 8.68928
57.510 8.577743
57.515 8.573893
57.520 8.829329
57.525 8.980692
57.530 9.185239
57.535 9.159235
57.540 8.792962
57.545 8.875587
57.550 8.590251
57.555 8.807679
57.560 8.467224
57.565 8.453333
57.570 8.529972
57.575 8.85323
57.580 8.829645
57.585 8.841154
57.590 8.391351
57.595 8.898726
57.600 8.898718
57.605 8.92519
57.610 8.955091
57.615 8.954124
57.620 9.243423
57.625 9.461012
57.630 9.058001
57.635 9.501884
57.640 9.770815
57.645 10.021823
57.650 9.95928
57.655 9.9433
57.660 9.530906
57.665 9.463977
57.670 8.981091
57.675 8.643411
57.680 8.603084
57.685 8.916181
57.690 8.857371
57.695 9.276148
57.700 9.029209
57.705 8.662346
57.710 8.294017
57.715 7.760697
57.720 7.516008
57.725 7.767018
57.730 7.563844
57.735 7.777705
57.740 8.289642
57.745 8.922643
57.750 9.458352
57.755 9.279978
57.760 9.225294
57.765 9.357573
57.770 9.163168
57.775 8.864867
57.780 8.684942
57.785 8.34207
57.790 8.545941
57.795 8.535721
57.800 8.255083
57.805 8.436831
57.810 8.729876
57.815 8.426827
57.820 7.995367
57.825 7.668365
57.830 7.501423
57.835 7.716187
57.840 7.677789
57.845 7.516868
57.850 7.785296
57.855 8.064031
57.860 8.425337
57.865 8.504237
57.870 8.320405
57.875 8.118142
57.880 8.148007
57.885 8.027424
57.890 8.0969
57.895 8.162761
57.900 8.749406
57.905 9.191417
57.910 9.674478
57.915 9.757849
57.920 10.369907
57.925 10.521218
57.930 10.348367
57.935 10.324339
57.940 9.93909
57.945 9.478621
57.950 9.061831
57.955 8.260746
57.960 8.044281
57.965 7.701268
57.970 7.437134
57.975 7.882272
57.980 8.536416
57.985 9.016185
57.990 9.771585
57.995 9.838342
58.000 9.88953
58.005 9.366918
58.010 8.800364
58.015 8.603124
58.020 8.605457
58.025 8.098009
58.030 8.118341
58.035 8.370599
58.040 8.660377
58.045 8.966342
58.050 8.961716
58.055 8.918522
58.060 9.039981
58.065 9.002371
58.070 9.172513
58.075 9.607601
58.080 9.523666
58.085 9.704925
58.090 9.836498
58.095 10.206036
58.100 10.55469
58.105 10.431265
58.110 10.286438
58.115 10.501668
58.120 10.167961
58.125 10.15155
58.130 9.907023
58.135 9.613837
58.140 9.860503
58.145 9.668823
58.150 9.273137
58.155 8.849178
58.160 8.48647
58.165 8.737592
58.170 8.795033
58.175 8.325735
58.180 8.664865
58.185 9.335546
58.190 9.859595
58.195 10.025312
58.200 10.033291
58.205 10.31869
58.210 10.907559
58.215 10.656515
58.220 10.136044
58.225 9.920634
58.230 9.646461
58.235 9.515416
58.240 8.862602
58.245 8.677717
58.250 8.943737
58.255 9.094579
58.260 9.205332
58.265 9.510995
58.270 10.017882
58.275 10.155927
58.280 10.042181
58.285 10.020814
58.290 9.958829
58.295 10.191617
58.300 10.377282
58.305 10.26666
58.310 10.080166
58.315 10.185888
58.320 9.795133
58.325 9.451908
58.330 9.331839
58.335 9.16752
58.340 8.752503
58.345 8.989962
58.350 9.267054
58.355 10.295407
58.360 10.912487
58.365 10.6892
58.370 10.696838
58.375 11.322049
58.380 11.61323
58.385 11.49264
58.390 11.330621
58.395 11.931611
58.400 13.00346
58.405 13.203597
58.410 13.529724
58.415 13.768519
58.420 13.751173
58.425 13.559936
58.430 13.363894
58.435 13.646727
58.440 13.673388
58.445 13.102486
58.450 12.895903
58.455 13.075978
58.460 13.278749
58.465 13.452855
58.470 13.438555
58.475 13.704637
58.480 13.914886
58.485 13.769546
58.490 13.954822
58.495 13.634635
58.500 13.260762
58.505 12.848839
58.510 12.56201
58.515 12.643826
58.520 13.011982
58.525 13.266679
58.530 13.31458
58.535 13.299564
58.540 13.616524
58.545 13.643813
58.550 13.898017
58.555 14.183882
58.560 14.619197
58.565 14.965681
58.570 14.896321
58.575 15.183427
58.580 15.092933
58.585 14.907289
58.590 14.82967
58.595 14.631009
58.600 14.839156
58.605 15.507102
58.610 15.844777
58.615 16.546925
58.620 16.627287
58.625 16.823063
58.630 17.202015
58.635 18.30374
58.640 18.308956
58.645 17.783695
58.650 17.98284
58.655 18.480814
58.660 18.322601
58.665 18.165344
58.670 17.660818
58.675 17.96586
58.680 18.480764
58.685 18.163183
58.690 18.018269
58.695 18.84481
58.700 18.713438
58.705 18.075485
58.710 17.793972
58.715 17.937786
58.720 17.961023
58.725 18.046015
58.730 17.215712
58.735 16.980003
