!@!!GADDS PLOTSO FILE: Chi integration type
!@!!Title/SampleName: map-fd
!@!!Comment: ?
!@!!User: Bruker Instrument Administrator
!@!!Site: University of Illinois Chicago
!@!!Frame: map-fd_01_000.gfrm
!@!!Wavelengths    1.54184   1.54056   1.54439
!@!!Frame angles: 2Theta: 63.000 Omega: 50.000 Phi: 0.000 Chi: 90.000
!@!!Integration range: 2Theta: 53.000 to 73.000  Gamma: -105.000 to -75.000
!@!!Integration method: bin normalized
!@!N
!@!SS
!@!M
!@!L 0.0 0.0 0.0 0.0
!@!XDegrees
!@!YCounts
53.000 5.064714
53.005 5.166066
53.010 4.997498
53.015 4.835234
53.020 4.944163
53.025 4.90762
53.030 4.944903
53.035 4.943434
53.040 4.772512
53.045 4.623102
53.050 5.013749
53.055 4.958884
53.060 4.986231
53.065 4.71592
53.070 4.447446
53.075 4.462198
53.080 4.85957
53.085 4.529978
53.090 4.199431
53.095 4.326344
53.100 4.910801
53.105 4.905018
53.110 4.791468
53.115 4.473508
53.120 4.71687
53.125 5.178045
53.130 4.790661
53.135 4.751252
53.140 5.172685
53.145 4.999733
53.150 5.044438
53.155 5.022186
53.160 4.850985
53.165 5.085514
53.170 4.687107
53.175 4.599971
53.180 4.576141
53.185 4.42833
53.190 4.424074
53.195 4.684552
53.200 4.904769
53.205 5.295995
53.210 5.414049
53.215 6.173503
53.220 6.519319
53.225 6.759981
53.230 6.696136
53.235 6.757452
53.240 7.35562
53.245 7.175919
53.250 6.653412
53.255 6.535151
53.260 6.204466
53.265 5.957281
53.270 5.261793
53.275 4.867329
53.280 5.222629
53.285 5.580434
53.290 5.872898
53.295 6.407332
53.300 6.7999
53.305 6.975493
53.310 7.023115
53.315 7.07985
53.320 7.029424
53.325 6.901519
53.330 6.70025
53.335 6.72075
53.340 6.568375
53.345 6.17619
53.350 5.913446
53.355 5.565969
53.360 5.535601
53.365 5.695693
53.370 5.824399
53.375 5.886275
53.380 6.098398
53.385 6.00197
53.390 5.968152
53.395 5.763654
53.400 5.651052
53.405 5.495423
53.410 5.297572
53.415 5.376782
53.420 5.586766
53.425 5.727923
53.430 5.589774
53.435 5.498463
53.440 5.732866
53.445 5.86969
53.450 6.038466
53.455 5.929259
53.460 6.023976
53.465 6.27533
53.470 6.16846
53.475 6.06881
53.480 6.004226
53.485 6.156341
53.490 5.821309
53.495 5.446335
53.500 5.355578
53.505 5.468977
53.510 5.907669
53.515 6.369655
53.520 6.568139
53.525 6.762683
53.530 6.884166
53.535 6.835029
53.540 6.672268
53.545 6.337292
53.550 5.646125
53.555 5.243923
53.560 5.296716
53.565 5.327266
53.570 5.262579
53.575 5.40397
53.580 5.609662
53.585 6.042135
53.590 6.055205
53.595 5.947906
53.600 6.038444
53.605 6.161124
53.610 6.126619
53.615 5.952743
53.620 6.089167
53.625 6.420056
53.630 6.6047
53.635 6.521495
53.640 6.442754
53.645 6.668517
53.650 6.638651
53.655 6.539857
53.660 6.201192
53.665 6.215719
53.670 6.523193
53.675 6.340095
53.680 5.997187
53.685 5.920838
53.690 6.396074
53.695 6.777864
53.700 6.816716
53.705 6.617878
53.710 6.570237
53.715 6.732749
53.720 6.703211
53.725 6.389522
53.730 6.480804
53.735 6.531075
53.740 6.576913
53.745 6.623777
53.750 6.830531
53.755 6.998018
53.760 6.984318
53.765 7.265183
53.770 7.345412
53.775 7.669229
53.780 7.691523
53.785 7.503942
53.790 7.029619
53.795 6.774691
53.800 6.32321
53.805 6.159733
53.810 5.878419
53.815 5.661672
53.820 5.651853
53.825 5.866293
53.830 5.782784
53.835 5.96875
53.840 6.456643
53.845 6.813831
53.850 7.053483
53.855 7.024261
53.860 6.960285
53.865 6.919785
53.870 6.81389
53.875 6.803754
53.880 7.155138
53.885 7.064425
53.890 7.17777
53.895 7.446415
53.900 7.583354
53.905 7.38516
53.910 7.061777
53.915 6.414307
53.920 6.349354
53.925 6.29186
53.930 6.047711
53.935 5.869597
53.940 5.903615
53.945 6.151452
53.950 6.487803
53.955 6.261085
53.960 6.147082
53.965 6.090213
53.970 6.006651
53.975 5.906008
53.980 5.83037
53.985 6.081639
53.990 6.207943
53.995 6.000023
54.000 6.040938
54.005 6.363423
54.010 7.017362
54.015 6.885883
54.020 6.840986
54.025 6.958581
54.030 7.306907
54.035 7.317456
54.040 7.158898
54.045 6.956789
54.050 6.950586
54.055 6.49315
54.060 6.64757
54.065 6.853333
54.070 7.220545
54.075 7.321712
54.080 7.444541
54.085 7.459099
54.090 8.010077
54.095 8.276001
54.100 7.798897
54.105 7.351534
54.110 6.779525
54.115 6.620928
54.120 6.634507
54.125 5.978335
54.130 6.216649
54.135 6.64487
54.140 6.747146
54.145 6.80762
54.150 6.595006
54.155 6.505389
54.160 6.551198
54.165 6.287263
54.170 6.207361
54.175 6.349054
54.180 6.581507
54.185 7.184132
54.190 7.440334
54.195 7.672659
54.200 7.713961
54.205 7.635607
54.210 7.331254
54.215 6.934899
54.220 6.577119
54.225 6.595925
54.230 6.705662
54.235 6.983697
54.240 7.086341
54.245 7.391583
54.250 7.660744
54.255 7.550746
54.260 7.355145
54.265 7.232476
54.270 7.071795
54.275 6.877282
54.280 6.693099
54.285 6.701546
54.290 6.883008
54.295 7.024453
54.300 6.807188
54.305 6.485074
54.310 6.887898
54.315 6.764881
54.320 6.810771
54.325 6.717227
54.330 6.901764
54.335 7.670952
54.340 8.194298
54.345 8.487637
54.350 8.646309
54.355 8.568957
54.360 8.478471
54.365 7.893126
54.370 7.171031
54.375 6.7728
54.380 6.247526
54.385 5.999151
54.390 5.666304
54.395 5.477
54.400 5.354921
54.405 5.364233
54.410 5.330542
54.415 5.491257
54.420 5.781536
54.425 6.016006
54.430 6.241502
54.435 6.729674
54.440 6.922422
54.445 7.087764
54.450 6.847491
54.455 6.676066
54.460 6.538832
54.465 6.427129
54.470 5.955153
54.475 5.845788
54.480 6.037097
54.485 6.142756
54.490 6.531645
54.495 6.851882
54.500 7.070914
54.505 7.291344
54.510 7.126923
54.515 7.153537
54.520 7.072063
54.525 7.05546
54.530 7.04872
54.535 6.901772
54.540 7.291527
54.545 7.573954
54.550 8.053448
54.555 8.162325
54.560 8.374653
54.565 8.478554
54.570 8.52032
54.575 8.010028
54.580 8.105162
54.585 8.282848
54.590 8.062582
54.595 7.721185
54.600 7.78652
54.605 7.986631
54.610 8.337035
54.615 8.101464
54.620 7.693469
54.625 7.507182
54.630 7.478191
54.635 7.125682
54.640 7.138647
54.645 7.263391
54.650 7.337543
54.655 7.547396
54.660 7.708368
54.665 7.489679
54.670 7.533181
54.675 7.037823
54.680 7.060296
54.685 7.257785
54.690 7.749082
54.695 7.783543
54.700 8.030064
54.705 8.265303
54.710 8.615128
54.715 8.319876
54.720 7.945256
54.725 7.39933
54.730 7.496485
54.735 7.585997
54.740 7.749511
54.745 7.506166
54.750 7.322984
54.755 7.284326
54.760 7.043528
54.765 6.775268
54.770 6.712676
54.775 6.522827
54.780 6.301807
54.785 6.370373
54.790 6.498942
54.795 6.711978
54.800 7.255889
54.805 7.060988
54.810 7.181198
54.815 7.565457
54.820 7.566131
54.825 7.971385
54.830 8.383876
54.835 8.223668
54.840 8.142961
54.845 8.002188
54.850 7.910958
54.855 8.155067
54.860 7.755957
54.865 7.524465
54.870 7.071385
54.875 7.260055
54.880 7.46237
54.885 7.51315
54.890 7.331884
54.895 7.254143
54.900 7.647322
54.905 8.069171
54.910 7.972473
54.915 7.754112
54.920 7.631056
54.925 7.451061
54.930 7.149372
54.935 6.862009
54.940 6.759166
54.945 6.668452
54.950 7.26181
54.955 7.411453
54.960 7.807662
54.965 8.313038
54.970 8.402067
54.975 8.468325
54.980 8.553784
54.985 8.171296
54.990 8.037887
54.995 7.653905
55.000 7.537947
55.005 7.696424
55.010 7.736368
55.015 7.721542
55.020 7.758251
55.025 7.72108
55.030 7.722957
55.035 7.823997
55.040 7.542569
55.045 7.123379
55.050 6.798192
55.055 7.02601
55.060 7.221541
55.065 7.175611
55.070 7.158369
55.075 7.20438
55.080 7.692456
55.085 8.21249
55.090 8.184877
55.095 8.482011
55.100 8.662591
55.105 8.304862
55.110 8.282755
55.115 8.120359
55.120 7.563549
55.125 7.43921
55.130 7.539129
55.135 7.941603
55.140 8.6368
55.145 9.130269
55.150 9.816426
55.155 10.116754
55.160 9.932354
55.165 9.358384
55.170 9.173891
55.175 9.035869
55.180 8.900681
55.185 8.515288
55.190 8.463523
55.195 8.615019
55.200 8.614407
55.205 8.282747
55.210 8.308879
55.215 8.26397
55.220 7.967691
55.225 7.966545
55.230 7.925489
55.235 7.946504
55.240 7.957304
55.245 7.926879
55.250 8.003477
55.255 8.097214
55.260 8.163672
55.265 8.134447
55.270 8.258823
55.275 8.109998
55.280 7.840328
55.285 7.490698
55.290 7.569356
55.295 7.392102
55.300 7.505238
55.305 7.603379
55.310 7.70294
55.315 7.336019
55.320 7.590609
55.325 7.71543
55.330 8.129174
55.335 8.06573
55.340 8.064528
55.345 8.165017
55.350 8.380262
55.355 8.153242
55.360 8.27849
55.365 8.098761
55.370 8.160938
55.375 8.190197
55.380 8.217623
55.385 8.45808
55.390 8.655271
55.395 8.347522
55.400 8.499043
55.405 8.750152
55.410 8.426859
55.415 8.104322
55.420 7.686314
55.425 7.749679
55.430 7.956027
55.435 7.60443
55.440 7.786911
55.445 8.260846
55.450 8.627201
55.455 8.593234
55.460 8.583916
55.465 8.917707
55.470 9.078466
55.475 8.461915
55.480 8.031973
55.485 8.155818
55.490 8.018929
55.495 8.036921
55.500 7.53966
55.505 7.414007
55.510 7.294499
55.515 7.707098
55.520 7.522768
55.525 7.79039
55.530 7.602767
55.535 7.385356
55.540 7.536134
55.545 7.421094
55.550 6.956307
55.555 6.546411
55.560 6.316297
55.565 6.546578
55.570 6.839429
55.575 7.133973
55.580 7.271664
55.585 7.603474
55.590 7.997347
55.595 8.261554
55.600 8.49481
55.605 8.48309
55.610 8.676441
55.615 9.147269
55.620 9.431602
55.625 9.528249
55.630 9.356141
55.635 9.332584
55.640 9.391141
55.645 8.954359
55.650 8.57598
55.655 8.41663
55.660 8.381594
55.665 8.197538
55.670 7.822073
55.675 7.787479
55.680 8.298722
55.685 8.441742
55.690 8.150268
55.695 8.097946
55.700 8.358379
55.705 8.679792
55.710 8.767512
55.715 8.430188
55.720 8.453374
55.725 8.615661
55.730 8.774255
55.735 9.241053
55.740 9.17489
55.745 9.034673
55.750 8.92537
55.755 8.774358
55.760 8.926659
55.765 8.838996
55.770 8.606377
55.775 8.43168
55.780 8.625083
55.785 8.795372
55.790 8.99571
55.795 8.576095
55.800 7.788447
55.805 7.711509
55.810 7.914482
55.815 7.678557
55.820 7.798016
55.825 7.751321
55.830 8.008105
55.835 8.345299
55.840 8.472827
55.845 8.765026
55.850 8.712746
55.855 8.660011
55.860 8.736159
55.865 8.953156
55.870 8.920457
55.875 8.921071
55.880 9.130536
55.885 9.330669
55.890 9.373653
55.895 9.570955
55.900 9.289277
55.905 9.230556
55.910 8.662118
55.915 8.508734
55.920 8.747765
55.925 8.821778
55.930 8.944165
55.935 9.293115
55.940 9.243162
55.945 9.418496
55.950 9.468012
55.955 9.298035
55.960 9.081589
55.965 8.88227
55.970 8.949641
55.975 9.536153
55.980 9.416271
55.985 9.344428
55.990 9.282928
55.995 9.721931
56.000 9.70322
56.005 9.279962
56.010 9.130415
56.015 8.964941
56.020 8.57461
56.025 8.332411
56.030 7.887569
56.035 7.88934
56.040 7.860463
56.045 7.737096
56.050 8.02438
56.055 8.423596
56.060 8.643461
56.065 8.718884
56.070 8.645651
56.075 8.88964
56.080 8.725725
56.085 8.640203
56.090 8.591772
56.095 8.461201
56.100 8.564892
56.105 8.860399
56.110 8.80995
56.115 8.704984
56.120 8.753604
56.125 8.670559
56.130 8.763273
56.135 8.500403
56.140 8.654902
56.145 8.724228
56.150 8.797191
56.155 8.830921
56.160 8.796283
56.165 9.010342
56.170 9.092651
56.175 9.007645
56.180 9.156071
56.185 9.132081
56.190 9.048705
56.195 9.037913
56.200 9.337878
56.205 9.291086
56.210 8.938477
56.215 8.884607
56.220 8.786657
56.225 9.171692
56.230 9.626838
56.235 9.605369
56.240 10.060826
56.245 10.655473
56.250 11.160694
56.255 12.030554
56.260 11.496422
56.265 10.937676
56.270 10.560564
56.275 9.917455
56.280 9.694283
56.285 9.580504
56.290 9.204823
56.295 9.693029
56.300 10.147123
56.305 10.68273
56.310 10.647862
56.315 10.729483
56.320 10.810407
56.325 10.956955
56.330 10.462345
56.335 9.82432
56.340 9.089616
56.345 9.227772
56.350 9.064619
56.355 8.598577
56.360 8.46297
56.365 8.754603
56.370 8.838131
56.375 9.236347
56.380 9.253737
56.385 9.241191
56.390 9.342001
56.395 8.814286
56.400 8.504313
56.405 8.337231
56.410 8.034883
56.415 8.259778
56.420 8.354138
56.425 8.563862
56.430 9.18003
56.435 9.311107
56.440 9.74376
56.445 10.259531
56.450 10.176167
56.455 10.190155
56.460 10.270052
56.465 9.793338
56.470 9.983923
56.475 9.933873
56.480 9.621249
56.485 9.171446
56.490 8.950889
56.495 8.978415
56.500 9.238094
56.505 9.13935
56.510 9.245923
56.515 9.609812
56.520 9.609239
56.525 9.680382
56.530 9.147953
56.535 9.039052
56.540 9.090762
56.545 8.888117
56.550 8.573238
56.555 8.778554
56.560 8.879645
56.565 8.92919
56.570 8.937025
56.575 8.904623
56.580 9.015241
56.585 9.316165
56.590 8.954801
56.595 8.971329
56.600 9.314539
56.605 9.410121
56.610 9.319052
56.615 9.549665
56.620 9.785411
56.625 10.656643
56.630 10.967587
56.635 10.961926
56.640 11.094438
56.645 11.073301
56.650 10.964179
56.655 11.100546
56.660 10.903383
56.665 10.705412
56.670 10.342926
56.675 10.318749
56.680 10.36473
56.685 10.406924
56.690 10.130684
56.695 10.304595
56.700 10.433402
56.705 10.7033
56.710 10.789017
56.715 10.691675
56.720 10.399687
56.725 10.331853
56.730 10.341544
56.735 10.493814
56.740 10.401538
56.745 10.57016
56.750 10.656855
56.755 10.694547
56.760 10.636106
56.765 10.012421
56.770 9.857512
56.775 9.853342
56.780 9.312192
56.785 9.046545
56.790 8.950854
56.795 8.817551
56.800 8.694157
56.805 8.502376
56.810 8.898615
56.815 9.942808
56.820 10.287468
56.825 10.624969
56.830 11.068209
56.835 11.47539
56.840 11.864912
56.845 11.402745
56.850 10.818252
56.855 10.851302
56.860 10.51701
56.865 10.330298
56.870 10.249176
56.875 9.693625
56.880 9.878552
56.885 9.730652
56.890 9.38285
56.895 9.307217
56.900 9.648853
56.905 9.815491
56.910 9.774625
56.915 9.813452
56.920 9.863033
56.925 9.870205
56.930 10.351468
56.935 10.418651
56.940 10.096772
56.945 10.234752
56.950 10.102739
56.955 10.348702
56.960 10.681094
56.965 10.41157
56.970 10.152122
56.975 10.28355
56.980 10.48473
56.985 10.54016
56.990 10.832231
56.995 10.580901
57.000 10.964079
57.005 11.248873
57.010 11.022932
57.015 10.861807
57.020 10.594729
57.025 9.934554
57.030 9.817512
57.035 9.348212
57.040 9.145503
57.045 9.273242
57.050 9.538937
57.055 10.023538
57.060 10.548937
57.065 10.857781
57.070 10.959513
57.075 11.256439
57.080 11.000982
57.085 10.601021
57.090 9.893594
57.095 9.360172
57.100 9.120504
57.105 9.004601
57.110 8.893924
57.115 9.058386
57.120 9.275794
57.125 9.44514
57.130 9.445816
57.135 9.330029
57.140 9.242769
57.145 9.109724
57.150 9.202628
57.155 9.069294
57.160 9.49369
57.165 9.641267
57.170 10.100533
57.175 10.610829
57.180 10.779247
57.185 10.916306
57.190 11.311755
57.195 11.354831
57.200 11.394008
57.205 11.075461
57.210 10.647249
57.215 10.74604
57.220 10.271721
57.225 10.166821
57.230 10.212916
57.235 10.116089
57.240 10.382347
57.245 10.355631
57.250 10.217921
57.255 10.080898
57.260 9.47401
57.265 9.312241
57.270 9.531953
57.275 9.581168
57.280 9.608863
57.285 9.944526
57.290 9.808719
57.295 10.184667
57.300 10.148721
57.305 9.94032
57.310 9.837936
57.315 10.115896
57.320 10.582868
57.325 11.077756
57.330 11.149021
57.335 11.130726
57.340 10.698571
57.345 10.77607
57.350 10.694799
57.355 10.394441
57.360 10.227287
57.365 10.046598
57.370 10.462627
57.375 10.827248
57.380 10.770503
57.385 10.611603
57.390 10.741688
57.395 11.32886
57.400 11.528211
57.405 11.351956
57.410 11.349492
57.415 11.366208
57.420 11.442324
57.425 11.475969
57.430 11.17335
57.435 11.083686
57.440 11.135367
57.445 11.155166
57.450 11.338507
57.455 11.675185
57.460 11.834123
57.465 11.4145
57.470 11.394186
57.475 11.173973
57.480 10.823131
57.485 10.18143
57.490 9.663904
57.495 9.669663
57.500 10.178797
57.505 10.500968
57.510 10.760947
57.515 11.092577
57.520 11.529514
57.525 11.736412
57.530 11.603921
57.535 11.300862
57.540 10.894249
57.545 10.51164
57.550 10.137929
57.555 10.414385
57.560 10.108591
57.565 9.598726
57.570 9.640671
57.575 10.096699
57.580 10.428491
57.585 10.938491
57.590 10.97578
57.595 11.390492
57.600 11.813179
57.605 11.729646
57.610 11.497233
57.615 11.630306
57.620 11.391314
57.625 11.247832
57.630 11.129741
57.635 11.214023
57.640 11.187332
57.645 11.30517
57.650 11.095463
57.655 11.221718
57.660 11.025911
57.665 10.904037
57.670 11.02962
57.675 11.090296
57.680 10.913543
57.685 10.925625
57.690 11.234166
57.695 11.498698
57.700 11.819043
57.705 11.732786
57.710 11.984303
57.715 12.06754
57.720 12.217472
57.725 12.023712
57.730 12.295025
57.735 11.989644
57.740 12.019315
57.745 11.749273
57.750 11.699713
57.755 12.115808
57.760 12.098377
57.765 12.03789
57.770 12.670819
57.775 12.602074
57.780 12.413861
57.785 12.503829
57.790 12.100942
57.795 11.95429
57.800 11.714646
57.805 10.78628
57.810 10.519441
57.815 10.700651
57.820 10.796832
57.825 10.818903
57.830 11.051451
57.835 11.205912
57.840 11.652213
57.845 12.148953
57.850 12.230803
57.855 11.840467
57.860 11.936165
57.865 11.615642
57.870 11.821507
57.875 11.959884
57.880 11.959218
57.885 12.311532
57.890 12.640775
57.895 12.805336
57.900 13.219633
57.905 13.030307
57.910 13.303063
57.915 13.034304
57.920 12.627968
57.925 12.366143
57.930 12.163493
57.935 11.732407
57.940 11.851667
57.945 12.032292
57.950 12.445004
57.955 12.740823
57.960 12.763697
57.965 13.321727
57.970 13.784439
57.975 14.116275
57.980 14.145948
57.985 13.99129
57.990 14.091848
57.995 14.540277
58.000 14.145583
58.005 13.588121
58.010 13.548206
58.015 13.424973
58.020 13.065437
58.025 12.762679
58.030 12.742134
58.035 13.099147
58.040 13.11932
58.045 12.428601
58.050 12.307715
58.055 12.60134
58.060 12.790049
58.065 12.317202
58.070 12.193065
58.075 12.648504
58.080 13.252063
58.085 13.3013
58.090 13.329415
58.095 13.023398
58.100 12.775243
58.105 13.065801
58.110 12.993797
58.115 12.862596
58.120 12.765461
58.125 12.92239
58.130 13.580398
58.135 14.233574
58.140 13.903381
58.145 13.849871
58.150 13.184068
58.155 12.753569
58.160 12.670944
58.165 12.344166
58.170 11.709361
58.175 11.572178
58.180 11.575785
58.185 12.358012
58.190 12.725883
58.195 12.504343
58.200 12.745629
58.205 13.030779
58.210 13.36244
58.215 13.523088
58.220 13.336263
58.225 13.549519
58.230 13.525066
58.235 13.795513
58.240 13.976315
58.245 13.649347
58.250 14.223284
58.255 14.572405
58.260 14.467359
58.265 14.600913
58.270 14.431097
58.275 14.168574
58.280 14.169793
58.285 13.016565
58.290 12.588583
58.295 12.850264
58.300 12.529876
58.305 12.637201
58.310 12.581619
58.315 12.694642
58.320 13.306568
58.325 13.104681
58.330 12.770283
58.335 13.436195
58.340 13.740725
58.345 13.955739
58.350 13.990704
58.355 14.423361
58.360 14.717359
58.365 14.964622
58.370 14.640489
58.375 14.652331
58.380 15.042655
58.385 15.273487
58.390 14.769086
58.395 15.019466
58.400 15.465059
58.405 15.613469
58.410 15.873203
58.415 15.896227
58.420 16.139446
58.425 16.911892
58.430 17.301031
58.435 17.251963
58.440 17.570263
58.445 17.849991
58.450 17.859484
58.455 18.306267
58.460 18.796392
58.465 18.977068
58.470 19.063963
58.475 19.267612
58.480 19.621422
58.485 19.940954
58.490 19.927794
58.495 20.428923
58.500 21.072428
58.505 21.200762
58.510 21.349087
58.515 21.376125
58.520 21.777014
58.525 21.928753
58.530 21.199516
58.535 20.847218
58.540 21.19175
58.545 21.996658
58.550 22.608864
58.555 22.894304
58.560 23.34292
58.565 24.235107
58.570 24.737751
58.575 25.298649
58.580 25.251928
58.585 25.206106
58.590 25.464155
58.595 25.959721
58.600 26.538321
58.605 26.331875
58.610 25.885986
58.615 25.711594
58.620 25.49819
58.625 25.723513
58.630 26.134096
58.635 25.903992
58.640 26.457056
58.645 26.481443
58.650 26.853445
