!@!!GADDS PLOTSO FILE: Chi integration type
!@!!Title/SampleName: map-b3
!@!!Comment: ?
!@!!User: Bruker Instrument Administrator
!@!!Site: University of Illinois Chicago
!@!!Frame: map-b3_01_000.gfrm
!@!!Wavelengths    1.54184   1.54056   1.54439
!@!!Frame angles: 2Theta: 63.000 Omega: 50.000 Phi: 0.000 Chi: 90.000
!@!!Integration range: 2Theta: 53.000 to 73.000  Gamma: -105.000 to -75.000
!@!!Integration method: bin normalized
!@!N
!@!SS
!@!M
!@!L 0.0 0.0 0.0 0.0
!@!XDegrees
!@!YCounts
53.000 8.176527
53.005 8.254877
53.010 8.038108
53.015 7.746068
53.020 7.764814
53.025 7.868911
53.030 8.036781
53.035 7.776937
53.040 7.790535
53.045 8.030641
53.050 8.047084
53.055 7.939784
53.060 7.659306
53.065 7.126083
53.070 6.908422
53.075 6.845113
53.080 7.133469
53.085 7.176449
53.090 7.315615
53.095 7.537198
53.100 7.859752
53.105 8.266819
53.110 8.285499
53.115 8.40222
53.120 8.725661
53.125 8.475993
53.130 8.557084
53.135 8.592232
53.140 8.241763
53.145 8.025736
53.150 7.36141
53.155 7.469568
53.160 7.970857
53.165 7.684352
53.170 7.8708
53.175 8.234119
53.180 8.624938
53.185 9.26824
53.190 8.883705
53.195 8.528955
53.200 8.482106
53.205 8.154794
53.210 8.236454
53.215 7.866594
53.220 7.556403
53.225 7.946896
53.230 8.117027
53.235 8.250108
53.240 8.455039
53.245 8.247934
53.250 8.759939
53.255 8.855639
53.260 8.781763
53.265 9.044458
53.270 9.352476
53.275 9.132648
53.280 9.053662
53.285 8.731853
53.290 8.74143
53.295 8.717781
53.300 8.541752
53.305 8.451792
53.310 8.55598
53.315 8.580947
53.320 8.204417
53.325 8.081645
53.330 8.02973
53.335 7.899429
53.340 7.550414
53.345 7.566009
53.350 7.738965
53.355 8.028908
53.360 7.81236
53.365 7.655068
53.370 7.859437
53.375 7.981952
53.380 7.830356
53.385 7.696118
53.390 7.576344
53.395 7.751253
53.400 8.001719
53.405 8.148599
53.410 8.115657
53.415 7.845671
53.420 7.991808
53.425 8.512935
53.430 8.593361
53.435 8.789145
53.440 8.405043
53.445 8.474049
53.450 8.546095
53.455 8.066111
53.460 7.915917
53.465 7.935987
53.470 8.079588
53.475 8.640992
53.480 8.873857
53.485 9.13975
53.490 9.319584
53.495 9.535666
53.500 9.480855
53.505 9.113574
53.510 8.962462
53.515 9.111965
53.520 8.997578
53.525 8.679235
53.530 8.307789
53.535 8.312042
53.540 8.413614
53.545 8.552534
53.550 8.388981
53.555 8.642628
53.560 8.936384
53.565 8.984376
53.570 9.381471
53.575 9.536619
53.580 9.232202
53.585 9.234083
53.590 8.609697
53.595 8.336617
53.600 8.133845
53.605 7.70715
53.610 7.465629
53.615 7.828582
53.620 7.885957
53.625 8.100513
53.630 8.385936
53.635 8.654658
53.640 8.788979
53.645 8.837477
53.650 8.766696
53.655 8.876876
53.660 9.697536
53.665 10.20555
53.670 10.158855
53.675 9.81513
53.680 9.902555
53.685 9.655197
53.690 10.267153
53.695 9.35027
53.700 8.887468
53.705 9.028295
53.710 8.85981
53.715 8.741733
53.720 8.881274
53.725 8.514768
53.730 8.880322
53.735 8.733328
53.740 8.707014
53.745 9.22694
53.750 9.217381
53.755 8.926434
53.760 8.814717
53.765 8.873318
53.770 9.126836
53.775 9.817505
53.780 9.809132
53.785 9.842137
53.790 10.056858
53.795 9.918233
53.800 9.502866
53.805 8.92829
53.810 7.96862
53.815 7.834582
53.820 8.110582
53.825 7.996434
53.830 8.329278
53.835 8.437737
53.840 8.822502
53.845 8.994928
53.850 8.592648
53.855 8.582278
53.860 8.597899
53.865 8.108714
53.870 8.390461
53.875 8.546214
53.880 8.941077
53.885 9.302807
53.890 9.490924
53.895 9.440728
53.900 9.599263
53.905 9.290978
53.910 8.96183
53.915 8.67072
53.920 7.967023
53.925 7.320848
53.930 7.575713
53.935 7.789438
53.940 8.327825
53.945 8.531551
53.950 8.757248
53.955 9.365307
53.960 9.70205
53.965 9.651525
53.970 9.479242
53.975 9.159481
53.980 9.069379
53.985 9.080288
53.990 8.827102
53.995 8.682091
54.000 8.475698
54.005 8.55184
54.010 8.465352
54.015 8.505957
54.020 8.131802
54.025 8.315597
54.030 8.408311
54.035 8.801658
54.040 8.998519
54.045 9.25721
54.050 9.431145
54.055 9.969481
54.060 10.179068
54.065 10.262997
54.070 10.129773
54.075 9.964035
54.080 9.805747
54.085 10.085333
54.090 10.079854
54.095 10.2203
54.100 10.178741
54.105 10.373424
54.110 10.508924
54.115 10.864445
54.120 10.985327
54.125 10.910709
54.130 10.601487
54.135 10.039331
54.140 9.278678
54.145 9.165583
54.150 8.715838
54.155 8.60469
54.160 8.456166
54.165 8.587201
54.170 9.42426
54.175 9.499762
54.180 9.249118
54.185 8.913295
54.190 8.687468
54.195 8.879955
54.200 9.035324
54.205 8.942531
54.210 9.30317
54.215 9.703707
54.220 9.983242
54.225 10.061278
54.230 9.832809
54.235 9.724293
54.240 10.018886
54.245 9.821742
54.250 9.88222
54.255 9.987564
54.260 9.76915
54.265 9.957531
54.270 9.947541
54.275 10.058438
54.280 10.269127
54.285 9.686056
54.290 9.190689
54.295 9.083665
54.300 9.023666
54.305 8.858259
54.310 8.826678
54.315 8.738248
54.320 8.832312
54.325 9.033572
54.330 9.040461
54.335 9.049083
54.340 9.072663
54.345 8.630464
54.350 8.788882
54.355 9.031961
54.360 9.036154
54.365 8.984544
54.370 8.881175
54.375 8.603765
54.380 8.559186
54.385 8.784911
54.390 8.87825
54.395 8.716392
54.400 8.823138
54.405 8.69887
54.410 8.74894
54.415 8.832075
54.420 8.639712
54.425 8.966217
54.430 9.28173
54.435 9.220929
54.440 9.223845
54.445 9.50703
54.450 9.564096
54.455 9.704717
54.460 9.53349
54.465 9.868781
54.470 9.761742
54.475 9.597307
54.480 9.249824
54.485 9.391169
54.490 9.251838
54.495 9.241343
54.500 9.082622
54.505 9.514406
54.510 9.754339
54.515 9.686403
54.520 9.354108
54.525 9.066263
54.530 9.094457
54.535 8.935792
54.540 8.968201
54.545 9.429624
54.550 9.716933
54.555 10.335918
54.560 10.787068
54.565 10.919074
54.570 10.83543
54.575 10.341679
54.580 9.601254
54.585 9.288709
54.590 8.965637
54.595 8.525534
54.600 8.262653
54.605 8.683389
54.610 9.10377
54.615 9.055806
54.620 9.033259
54.625 9.302524
54.630 9.314936
54.635 9.168763
54.640 8.598065
54.645 8.525037
54.650 8.884608
54.655 8.798098
54.660 8.953145
54.665 9.220546
54.670 9.388502
54.675 9.361761
54.680 9.355059
54.685 9.042496
54.690 9.045732
54.695 8.927175
54.700 8.784949
54.705 9.33386
54.710 9.658452
54.715 9.865361
54.720 9.712819
54.725 9.670379
54.730 9.626363
54.735 9.757338
54.740 9.311459
54.745 9.22038
54.750 9.528915
54.755 9.893786
54.760 9.917631
54.765 9.8037
54.770 9.926135
54.775 10.06496
54.780 10.600084
54.785 10.550976
54.790 10.639592
54.795 10.649542
54.800 10.407458
54.805 9.960564
54.810 10.282925
54.815 10.116749
54.820 9.980697
54.825 9.855092
54.830 9.830646
54.835 10.120045
54.840 10.111928
54.845 9.671134
54.850 9.901811
54.855 10.005544
54.860 9.55245
54.865 9.415806
54.870 9.393318
54.875 9.688577
54.880 9.475879
54.885 9.247581
54.890 9.091194
54.895 9.611505
54.900 9.48313
54.905 9.226648
54.910 8.786573
54.915 9.085838
54.920 9.029881
54.925 9.206883
54.930 9.609427
54.935 10.233504
54.940 10.503251
54.945 10.808264
54.950 10.668109
54.955 10.652761
54.960 10.528511
54.965 9.94062
54.970 9.410266
54.975 9.377047
54.980 9.337824
54.985 9.512238
54.990 9.635654
54.995 9.538038
55.000 9.88635
55.005 10.241673
55.010 10.465202
55.015 10.432891
55.020 10.289929
55.025 10.746922
55.030 11.206275
55.035 10.985129
55.040 10.825482
55.045 10.711107
55.050 10.536092
55.055 10.317974
55.060 9.839623
55.065 9.311406
55.070 9.466104
55.075 9.291795
55.080 9.34455
55.085 9.622362
55.090 9.423131
55.095 9.139699
55.100 9.168625
55.105 9.093393
55.110 9.327721
55.115 9.356379
55.120 9.236615
55.125 9.605731
55.130 9.843399
55.135 9.938926
55.140 9.857535
55.145 9.835648
55.150 9.655806
55.155 9.490491
55.160 9.577195
55.165 9.576725
55.170 9.899431
55.175 9.997394
55.180 10.08279
55.185 10.291171
55.190 10.353202
55.195 10.416855
55.200 10.32019
55.205 10.337976
55.210 10.471366
55.215 10.463785
55.220 10.730907
55.225 10.631116
55.230 10.600822
55.235 10.560057
55.240 10.447625
55.245 10.766439
55.250 10.848528
55.255 10.714849
55.260 10.77786
55.265 10.707603
55.270 10.387341
55.275 9.9394
55.280 9.908437
55.285 9.564818
55.290 9.556293
55.295 9.559454
55.300 9.423017
55.305 9.87962
55.310 10.195879
55.315 9.946276
55.320 10.262294
55.325 9.954393
55.330 10.15353
55.335 10.357301
55.340 10.184359
55.345 9.884885
55.350 9.771104
55.355 9.889456
55.360 10.278604
55.365 10.087655
55.370 9.987497
55.375 9.608968
55.380 9.895608
55.385 9.909068
55.390 9.822698
55.395 10.099971
55.400 9.9131
55.405 10.171339
55.410 10.600317
55.415 10.422421
55.420 10.386065
55.425 10.9355
55.430 11.05629
55.435 11.528728
55.440 11.810558
55.445 12.496302
55.450 13.297072
55.455 13.526512
55.460 13.044919
55.465 12.925168
55.470 13.047852
55.475 12.842068
55.480 11.862253
55.485 11.092952
55.490 11.011834
55.495 10.647783
55.500 10.614311
55.505 10.713337
55.510 10.670711
55.515 10.53826
55.520 10.515637
55.525 10.202681
55.530 10.191319
55.535 10.165165
55.540 10.04757
55.545 9.983929
55.550 10.026601
55.555 9.955898
55.560 10.096732
55.565 10.418526
55.570 9.936331
55.575 9.955301
55.580 10.1537
55.585 10.48317
55.590 10.661515
55.595 10.907861
55.600 10.407717
55.605 10.392078
55.610 9.74368
55.615 9.908065
55.620 10.078561
55.625 9.685569
55.630 9.189138
55.635 9.454145
55.640 10.202446
55.645 10.487077
55.650 10.262712
55.655 10.436337
55.660 10.645078
55.665 11.11455
55.670 11.135199
55.675 11.075474
55.680 10.906302
55.685 11.052287
55.690 10.874318
55.695 11.134054
55.700 10.533754
55.705 9.914109
55.710 9.658255
55.715 9.655776
55.720 9.483287
55.725 9.308969
55.730 9.12605
55.735 9.098426
55.740 9.406787
55.745 9.488777
55.750 9.632735
55.755 9.762549
55.760 10.054251
55.765 9.986669
55.770 10.307226
55.775 10.317889
55.780 10.480948
55.785 10.547616
55.790 10.210356
55.795 9.871898
55.800 10.029223
55.805 10.233597
55.810 10.278163
55.815 10.057472
55.820 10.354856
55.825 10.928491
55.830 11.295525
55.835 11.716676
55.840 11.5515
55.845 11.663633
55.850 11.884979
55.855 11.560073
55.860 11.407542
55.865 11.250684
55.870 10.77404
55.875 10.501959
55.880 10.526661
55.885 10.348782
55.890 10.69899
55.895 10.387047
55.900 10.239669
55.905 10.422102
55.910 10.374987
55.915 10.186393
55.920 10.275434
55.925 10.417286
55.930 10.662655
55.935 10.741493
55.940 11.347579
55.945 12.532366
55.950 13.019272
55.955 12.712899
55.960 12.550501
55.965 12.518433
55.970 12.524654
55.975 11.889036
55.980 11.304729
55.985 10.879651
55.990 10.398379
55.995 10.655928
56.000 10.69674
56.005 11.006363
56.010 11.05383
56.015 10.521729
56.020 10.729652
56.025 11.009662
56.030 10.559451
56.035 10.042994
56.040 9.603535
56.045 9.284871
56.050 9.559724
56.055 9.136242
56.060 9.502781
56.065 10.067483
56.070 10.340474
56.075 10.562653
56.080 11.279013
56.085 11.511944
56.090 11.898964
56.095 11.519039
56.100 11.507492
56.105 11.602777
56.110 11.292108
56.115 10.609578
56.120 10.211924
56.125 9.881938
56.130 9.612795
56.135 9.622797
56.140 10.043622
56.145 10.437565
56.150 10.911514
56.155 11.324536
56.160 11.297696
56.165 11.273559
56.170 10.959892
56.175 10.806751
56.180 10.623869
56.185 10.56194
56.190 10.439985
56.195 10.557052
56.200 11.047343
56.205 11.151839
56.210 11.655622
56.215 11.98699
56.220 11.920593
56.225 12.314075
56.230 12.578197
56.235 12.932569
56.240 12.574738
56.245 11.9697
56.250 12.016899
56.255 11.914652
56.260 12.108206
56.265 11.881283
56.270 11.446718
56.275 11.745493
56.280 11.498578
56.285 11.188822
56.290 11.341811
56.295 11.150522
56.300 11.343853
56.305 11.45297
56.310 11.781922
56.315 12.155856
56.320 12.724728
56.325 12.335164
56.330 12.05997
56.335 12.086228
56.340 12.366023
56.345 11.811661
56.350 11.503991
56.355 10.966753
56.360 11.201838
56.365 11.659965
56.370 11.192404
56.375 10.864058
56.380 10.867127
56.385 11.163967
56.390 11.488212
56.395 11.643284
56.400 11.670512
56.405 12.31124
56.410 12.714985
56.415 13.1346
56.420 13.300338
56.425 13.630996
56.430 13.720607
56.435 14.1389
56.440 14.139014
56.445 13.945947
56.450 13.75103
56.455 13.665262
56.460 13.412187
56.465 13.291211
56.470 12.813092
56.475 12.505663
56.480 12.411175
56.485 12.601617
56.490 12.882685
56.495 12.545272
56.500 12.309813
56.505 12.151892
56.510 11.82542
56.515 11.454997
56.520 11.338289
56.525 11.140014
56.530 11.721431
56.535 11.653715
56.540 11.712991
56.545 11.764792
56.550 11.594464
56.555 11.166034
56.560 10.550033
56.565 9.82077
56.570 9.707404
56.575 10.068663
56.580 10.68973
56.585 11.004738
56.590 11.526037
56.595 12.046147
56.600 12.383717
56.605 12.664228
56.610 12.764019
56.615 12.831182
56.620 13.309079
56.625 13.382934
56.630 13.479857
56.635 14.059045
56.640 13.916571
56.645 14.015372
56.650 14.062871
56.655 13.813307
56.660 13.906743
56.665 13.917658
56.670 13.43977
56.675 13.054946
56.680 12.576339
56.685 12.134869
56.690 11.708078
56.695 11.767373
56.700 11.995376
56.705 12.133004
56.710 12.080895
56.715 12.224676
56.720 12.623956
56.725 13.080291
56.730 12.802353
56.735 12.091731
56.740 11.955564
56.745 12.279993
56.750 12.478097
56.755 12.408293
56.760 11.627285
56.765 11.531526
56.770 12.028333
56.775 12.405396
56.780 12.188825
56.785 12.272989
56.790 12.5404
56.795 13.049742
56.800 13.147872
56.805 13.127834
56.810 13.476831
56.815 13.820144
56.820 13.767272
56.825 13.562028
56.830 13.74765
56.835 14.182803
56.840 14.074126
56.845 13.505915
56.850 13.235888
56.855 12.839231
56.860 12.537563
56.865 12.237174
56.870 12.324443
56.875 12.376348
56.880 12.171128
56.885 11.977553
56.890 12.194209
56.895 12.63923
56.900 12.168452
56.905 11.701497
56.910 11.805389
56.915 12.189097
56.920 12.27875
56.925 12.04512
56.930 11.886959
56.935 12.450838
56.940 12.308687
56.945 12.371567
56.950 12.72805
56.955 13.178898
56.960 13.568268
56.965 13.82998
56.970 13.6211
56.975 13.521683
56.980 12.890675
56.985 12.455025
56.990 12.090438
56.995 11.745584
57.000 11.824129
57.005 12.254116
57.010 12.322604
57.015 12.634462
57.020 12.307912
57.025 12.54648
57.030 12.855277
57.035 12.72259
57.040 12.534992
57.045 12.597306
57.050 12.701163
57.055 12.937594
57.060 12.765862
57.065 12.616837
57.070 12.466752
57.075 12.754805
57.080 13.056548
57.085 13.207036
57.090 13.305614
57.095 13.353606
57.100 13.14095
57.105 12.963367
57.110 12.743313
57.115 12.621693
57.120 12.802581
57.125 12.587885
57.130 12.912819
57.135 13.172874
57.140 13.347922
57.145 12.943275
57.150 12.346969
57.155 12.180449
57.160 12.124137
57.165 12.081979
57.170 12.038579
57.175 12.114089
57.180 12.449312
57.185 12.616361
57.190 12.780842
57.195 12.704719
57.200 12.301192
57.205 11.935712
57.210 11.705044
57.215 11.888163
57.220 12.342255
57.225 12.846013
57.230 13.36511
57.235 13.384397
57.240 13.683157
57.245 13.804025
57.250 13.304515
57.255 12.627258
57.260 11.823556
57.265 11.711915
57.270 11.770122
57.275 12.452881
57.280 12.471716
57.285 12.758817
57.290 13.080191
57.295 13.028843
57.300 12.936308
57.305 12.859735
57.310 12.497018
57.315 12.662827
57.320 13.030722
57.325 12.679579
57.330 12.674655
57.335 13.039063
57.340 13.151438
57.345 12.784656
57.350 12.71143
57.355 12.409827
57.360 12.828592
57.365 13.091152
57.370 12.917415
57.375 12.553317
57.380 12.658053
57.385 12.749544
57.390 12.900275
57.395 13.184021
57.400 13.428488
57.405 13.53147
57.410 13.958482
57.415 14.420536
57.420 14.474954
57.425 14.912753
57.430 14.871575
57.435 14.92911
57.440 14.983926
57.445 14.645396
57.450 14.005293
57.455 13.781172
57.460 13.413466
57.465 13.12335
57.470 13.092151
57.475 12.831548
57.480 12.569876
57.485 12.726894
57.490 12.120717
57.495 12.055859
57.500 11.871272
57.505 11.464024
57.510 11.414165
57.515 11.757849
57.520 11.742071
57.525 12.334318
57.530 12.350834
57.535 12.78765
57.540 13.078701
57.545 12.787654
57.550 13.026489
57.555 13.397503
57.560 12.967402
57.565 13.048633
57.570 12.94467
57.575 13.082621
57.580 13.41121
57.585 13.251082
57.590 13.046019
57.595 13.178494
57.600 13.408379
57.605 13.559681
57.610 13.694695
57.615 13.397119
57.620 13.888489
57.625 14.238
57.630 14.263165
57.635 13.975899
57.640 14.254327
57.645 14.199356
57.650 15.183315
57.655 14.761184
57.660 14.646674
57.665 14.758797
57.670 14.113224
57.675 13.240422
57.680 13.23181
57.685 13.229381
57.690 13.739843
57.695 14.222093
57.700 14.231713
57.705 14.386632
57.710 14.791252
57.715 14.527961
57.720 13.972811
57.725 13.370752
57.730 13.507688
57.735 13.567672
57.740 14.114534
57.745 14.462152
57.750 14.928011
57.755 15.018304
57.760 15.063695
57.765 15.317096
57.770 15.598978
57.775 15.517121
57.780 15.30749
57.785 14.984827
57.790 14.567194
57.795 14.212496
57.800 13.652352
57.805 13.651457
57.810 13.698762
57.815 13.776158
57.820 13.598972
57.825 13.876099
57.830 13.855014
57.835 14.147717
57.840 14.2586
57.845 14.079312
57.850 14.135123
57.855 14.570188
57.860 14.483362
57.865 14.38264
57.870 14.363612
57.875 13.883947
57.880 13.941357
57.885 14.425512
57.890 14.274904
57.895 14.346373
57.900 14.075763
57.905 13.824802
57.910 13.841486
57.915 13.789887
57.920 13.633241
57.925 13.807579
57.930 14.006621
57.935 14.171678
57.940 14.438693
57.945 14.790263
57.950 14.880749
57.955 14.840159
57.960 14.131924
57.965 14.349559
57.970 14.540493
57.975 14.548415
57.980 14.148932
57.985 13.853779
57.990 13.802025
57.995 14.100777
58.000 13.716082
58.005 13.689456
58.010 13.511169
58.015 14.299788
58.020 14.75401
58.025 14.585855
58.030 14.940216
58.035 15.250996
58.040 15.386015
58.045 15.154158
58.050 14.723113
58.055 14.753248
58.060 15.212399
58.065 15.385997
58.070 15.845703
58.075 15.971984
58.080 15.672856
58.085 15.900679
58.090 15.580363
58.095 15.419324
58.100 15.23926
58.105 15.225121
58.110 15.500377
58.115 15.831561
58.120 15.815257
58.125 15.63211
58.130 15.229676
58.135 14.85256
58.140 14.478633
58.145 14.597952
58.150 14.303039
58.155 14.119333
58.160 14.380965
58.165 14.429824
58.170 14.233347
58.175 13.698586
58.180 13.23877
58.185 13.87418
58.190 13.818142
58.195 14.353971
58.200 15.073241
58.205 15.42161
58.210 16.097185
58.215 16.395424
58.220 16.159155
58.225 16.059534
58.230 15.74304
58.235 15.753235
58.240 16.310163
58.245 16.360394
58.250 16.332523
58.255 16.284538
58.260 16.790443
58.265 17.330009
58.270 17.151173
58.275 16.755781
58.280 16.809517
58.285 17.235155
58.290 17.328058
58.295 16.778828
58.300 16.205763
58.305 16.719475
58.310 17.280706
58.315 16.865093
58.320 16.835989
58.325 17.569662
58.330 18.269855
58.335 18.593115
58.340 18.346973
58.345 17.979986
58.350 18.239454
58.355 18.351587
58.360 18.694376
58.365 19.176359
58.370 19.766094
58.375 19.588852
58.380 19.471619
58.385 19.692307
58.390 19.387186
58.395 18.760202
58.400 17.780872
58.405 17.645433
58.410 17.965582
58.415 18.079493
58.420 17.823008
58.425 17.393152
58.430 17.447422
58.435 18.087936
58.440 17.950575
58.445 18.153467
58.450 18.8885
58.455 20.491413
58.460 21.096827
58.465 21.360739
58.470 21.467354
58.475 21.5228
58.480 21.654118
58.485 21.679941
58.490 21.466654
58.495 21.906603
58.500 22.174097
58.505 22.229858
58.510 22.211508
58.515 22.547598
58.520 22.28969
58.525 21.582876
58.530 21.283756
58.535 20.716301
58.540 20.497263
58.545 20.149811
58.550 19.543564
58.555 19.770668
58.560 19.559671
58.565 18.811441
