!@!!GADDS PLOTSO FILE: Chi integration type
!@!!Title/SampleName: map-48
!@!!Comment: ?
!@!!User: Bruker Instrument Administrator
!@!!Site: University of Illinois Chicago
!@!!Frame: map-48_01_000.gfrm
!@!!Wavelengths    1.54184   1.54056   1.54439
!@!!Frame angles: 2Theta: 63.000 Omega: 50.000 Phi: 0.000 Chi: 90.000
!@!!Integration range: 2Theta: 53.000 to 73.000  Gamma: -105.000 to -75.000
!@!!Integration method: bin normalized
!@!N
!@!SS
!@!M
!@!L 0.0 0.0 0.0 0.0
!@!XDegrees
!@!YCounts
53.000 10.184353
53.005 10.304029
53.010 10.072495
53.015 9.645692
53.020 9.332177
53.025 9.414279
53.030 9.259858
53.035 8.804584
53.040 8.781582
53.045 8.979454
53.050 9.311283
53.055 9.224451
53.060 9.290547
53.065 9.840011
53.070 9.938766
53.075 9.904625
53.080 9.726013
53.085 9.50086
53.090 9.488577
53.095 9.872651
53.100 10.220703
53.105 10.282769
53.110 9.792355
53.115 10.323457
53.120 10.525532
53.125 9.88254
53.130 9.129617
53.135 8.760663
53.140 9.15236
53.145 9.434608
53.150 9.556271
53.155 9.492832
53.160 10.267607
53.165 10.793818
53.170 11.086086
53.175 11.148862
53.180 10.60144
53.185 10.207651
53.190 10.741662
53.195 10.421727
53.200 10.337571
53.205 10.252957
53.210 10.308243
53.215 10.381173
53.220 9.961203
53.225 9.356285
53.230 9.382084
53.235 9.319458
53.240 9.231576
53.245 9.360499
53.250 9.311256
53.255 9.310075
53.260 9.809946
53.265 9.14246
53.270 8.543064
53.275 8.290814
53.280 8.620489
53.285 9.246142
53.290 9.508902
53.295 9.371426
53.300 9.481075
53.305 10.101565
53.310 10.531291
53.315 10.592558
53.320 10.344533
53.325 10.212489
53.330 10.267895
53.335 10.153375
53.340 9.558512
53.345 9.153481
53.350 9.036583
53.355 8.732913
53.360 8.843153
53.365 9.120957
53.370 9.579541
53.375 10.137325
53.380 10.315125
53.385 10.593218
53.390 10.786609
53.395 11.247037
53.400 11.314125
53.405 11.154655
53.410 10.727831
53.415 10.602184
53.420 10.436133
53.425 10.420953
53.430 10.087734
53.435 9.968832
53.440 10.468388
53.445 10.375592
53.450 10.500935
53.455 10.462518
53.460 10.190379
53.465 10.148783
53.470 9.760794
53.475 9.211918
53.480 9.235861
53.485 8.700736
53.490 8.739896
53.495 8.889586
53.500 8.689531
53.505 9.028673
53.510 9.117533
53.515 8.987424
53.520 9.219951
53.525 8.941978
53.530 9.060456
53.535 9.423105
53.540 9.337751
53.545 9.800774
53.550 10.271829
53.555 10.767476
53.560 10.878714
53.565 10.587693
53.570 10.336349
53.575 10.34574
53.580 10.145046
53.585 10.555692
53.590 10.707132
53.595 10.618185
53.600 11.038433
53.605 11.059213
53.610 10.917512
53.615 10.8435
53.620 10.534398
53.625 10.364395
53.630 10.336189
53.635 10.503915
53.640 10.837942
53.645 10.790571
53.650 10.60194
53.655 10.050164
53.660 9.806435
53.665 9.887842
53.670 9.537133
53.675 9.76671
53.680 9.926161
53.685 10.161182
53.690 10.854879
53.695 11.240856
53.700 10.829663
53.705 10.952245
53.710 11.063155
53.715 11.040753
53.720 10.732594
53.725 10.811889
53.730 10.656413
53.735 10.642506
53.740 10.409103
53.745 9.807432
53.750 10.005715
53.755 9.788083
53.760 10.057168
53.765 10.293582
53.770 10.457567
53.775 10.779838
53.780 11.03802
53.785 11.111064
53.790 10.995451
53.795 10.475724
53.800 10.429673
53.805 10.245996
53.810 10.017155
53.815 9.658331
53.820 9.789754
53.825 9.897587
53.830 10.062285
53.835 10.248247
53.840 9.88576
53.845 10.185045
53.850 10.156088
53.855 9.702119
53.860 9.256464
53.865 9.147552
53.870 9.264256
53.875 9.682151
53.880 9.498623
53.885 9.563377
53.890 9.838632
53.895 10.586118
53.900 10.61094
53.905 10.325021
53.910 10.168281
53.915 10.372809
53.920 10.201936
53.925 9.974454
53.930 9.288787
53.935 9.376834
53.940 9.18418
53.945 8.863664
53.950 9.051902
53.955 9.047698
53.960 9.553556
53.965 10.072038
53.970 10.270872
53.975 10.897271
53.980 11.202188
53.985 11.041315
53.990 11.199077
53.995 11.334719
54.000 11.557284
54.005 11.332235
54.010 11.614787
54.015 11.28214
54.020 11.417319
54.025 11.860619
54.030 11.584977
54.035 11.242867
54.040 11.33969
54.045 11.128463
54.050 11.570765
54.055 11.275663
54.060 10.626367
54.065 10.140945
54.070 9.821763
54.075 9.850904
54.080 9.815268
54.085 9.967129
54.090 10.128472
54.095 10.423441
54.100 10.856919
54.105 11.148009
54.110 11.267499
54.115 11.381267
54.120 11.114887
54.125 11.039292
54.130 10.841072
54.135 10.740483
54.140 10.542449
54.145 10.227316
54.150 10.052566
54.155 10.088395
54.160 10.40355
54.165 10.977489
54.170 11.135586
54.175 10.957045
54.180 10.908218
54.185 10.808863
54.190 10.881618
54.195 11.085319
54.200 11.102044
54.205 11.079155
54.210 11.531187
54.215 11.404032
54.220 12.147797
54.225 12.318439
54.230 11.959732
54.235 12.181153
54.240 12.439474
54.245 12.060046
54.250 11.676932
54.255 11.198581
54.260 10.944257
54.265 11.083486
54.270 10.177403
54.275 9.6513
54.280 9.88975
54.285 9.886912
54.290 9.758748
54.295 9.619726
54.300 10.010984
54.305 10.417889
54.310 10.93247
54.315 11.227656
54.320 11.185984
54.325 10.969995
54.330 10.979508
54.335 11.504033
54.340 11.556951
54.345 11.040105
54.350 11.019243
54.355 11.156188
54.360 11.491266
54.365 11.267517
54.370 10.755635
54.375 10.873362
54.380 11.350852
54.385 11.439658
54.390 11.558411
54.395 11.493189
54.400 11.41631
54.405 11.095437
54.410 10.843239
54.415 10.504262
54.420 10.523952
54.425 10.342748
54.430 10.478803
54.435 10.549716
54.440 10.884107
54.445 11.413654
54.450 10.986264
54.455 10.837248
54.460 11.209546
54.465 11.494369
54.470 11.711456
54.475 11.713937
54.480 11.77284
54.485 12.149229
54.490 12.389424
54.495 12.319279
54.500 12.372409
54.505 12.450566
54.510 12.369568
54.515 12.6885
54.520 12.914533
54.525 12.635243
54.530 12.258544
54.535 11.735457
54.540 11.811248
54.545 11.570053
54.550 11.290676
54.555 10.919577
54.560 11.020577
54.565 10.823405
54.570 10.454874
54.575 10.266042
54.580 10.090466
54.585 10.000263
54.590 10.451864
54.595 10.824351
54.600 11.105803
54.605 11.72598
54.610 11.855719
54.615 12.255092
54.620 12.206615
54.625 11.915615
54.630 11.634784
54.635 11.540327
54.640 10.796097
54.645 10.660594
54.650 9.966256
54.655 9.890193
54.660 10.075814
54.665 10.786368
54.670 10.923253
54.675 11.260712
54.680 11.344748
54.685 11.916382
54.690 12.015504
54.695 11.679624
54.700 11.252065
54.705 11.444191
54.710 11.318998
54.715 11.269287
54.720 11.204408
54.725 11.209211
54.730 11.450817
54.735 11.339205
54.740 11.702504
54.745 12.314616
54.750 12.383832
54.755 12.876933
54.760 12.793979
54.765 12.575102
54.770 12.487956
54.775 12.307481
54.780 12.028281
54.785 11.69722
54.790 11.189836
54.795 11.21293
54.800 11.128454
54.805 11.014296
54.810 10.844057
54.815 10.992498
54.820 10.867622
54.825 11.139114
54.830 11.067684
54.835 11.123264
54.840 11.105533
54.845 11.127662
54.850 11.000066
54.855 10.590321
54.860 10.242201
54.865 10.138441
54.870 10.101793
54.875 10.252647
54.880 10.18871
54.885 10.193906
54.890 10.818792
54.895 11.227651
54.900 11.581856
54.905 11.627526
54.910 11.404193
54.915 11.55486
54.920 11.403365
54.925 11.52784
54.930 11.48832
54.935 11.94187
54.940 12.388282
54.945 13.550906
54.950 14.178255
54.955 14.089467
54.960 13.893827
54.965 13.400228
54.970 12.780775
54.975 11.962671
54.980 11.223934
54.985 10.714142
54.990 10.891789
54.995 11.044908
55.000 10.783222
55.005 10.919474
55.010 10.733223
55.015 10.394159
55.020 11.474273
55.025 11.867345
55.030 12.083599
55.035 12.163224
55.040 12.022218
55.045 12.21125
55.050 12.236722
55.055 11.566344
55.060 11.268617
55.065 11.452523
55.070 11.784866
55.075 12.112796
55.080 12.370768
55.085 12.206755
55.090 11.7994
55.095 11.798723
55.100 11.679654
55.105 11.691175
55.110 11.866553
55.115 11.963284
55.120 11.983511
55.125 12.220858
55.130 12.230396
55.135 12.178817
55.140 12.407907
55.145 12.420187
55.150 12.398636
55.155 12.602464
55.160 12.040685
55.165 11.858709
55.170 11.567004
55.175 11.249873
55.180 11.432392
55.185 11.268706
55.190 11.56269
55.195 11.91326
55.200 12.25426
55.205 12.657833
55.210 12.889526
55.215 12.519666
55.220 12.581151
55.225 12.866216
55.230 12.54199
55.235 12.453118
55.240 12.277252
55.245 12.289924
55.250 12.801922
55.255 12.537146
55.260 12.323872
55.265 12.56018
55.270 12.188844
55.275 12.182439
55.280 12.007621
55.285 11.985696
55.290 12.384939
55.295 12.695535
55.300 12.807227
55.305 12.676162
55.310 11.965785
55.315 11.666251
55.320 10.929279
55.325 10.616043
55.330 9.939127
55.335 9.438267
55.340 10.036538
55.345 10.493753
55.350 10.458931
55.355 10.426806
55.360 10.32609
55.365 10.682323
55.370 11.262513
55.375 10.733801
55.380 10.585699
55.385 11.03908
55.390 11.149861
55.395 11.007067
55.400 10.583616
55.405 10.926959
55.410 11.383182
55.415 11.568195
55.420 11.080483
55.425 10.969295
55.430 11.034603
55.435 10.981247
55.440 10.635454
55.445 10.20924
55.450 10.016298
55.455 10.328067
55.460 10.62278
55.465 10.871247
55.470 11.353589
55.475 11.59634
55.480 12.024199
55.485 11.933888
55.490 11.629994
55.495 12.302669
55.500 12.054635
55.505 12.371167
55.510 12.586475
55.515 12.678889
55.520 12.875727
55.525 12.934457
55.530 12.878267
55.535 12.672881
55.540 11.89578
55.545 11.351336
55.550 11.358914
55.555 11.58117
55.560 11.594133
55.565 11.699797
55.570 11.780381
55.575 12.079536
55.580 12.239078
55.585 12.246701
55.590 12.429292
55.595 12.895139
55.600 12.690008
55.605 12.443357
55.610 12.18567
55.615 12.007093
55.620 12.085431
55.625 12.110188
55.630 12.04929
55.635 12.109895
55.640 12.554549
55.645 12.922141
55.650 13.255296
55.655 13.110818
55.660 12.591944
55.665 11.665527
55.670 11.059475
55.675 10.711078
55.680 10.536231
55.685 10.158461
55.690 10.577996
55.695 11.176978
55.700 11.944
55.705 12.579858
55.710 12.742557
55.715 13.121303
55.720 13.233737
55.725 12.940736
55.730 12.736264
55.735 12.200706
55.740 12.401123
55.745 12.35796
55.750 11.954593
55.755 11.46448
55.760 10.935444
55.765 11.076839
55.770 11.078064
55.775 11.184543
55.780 11.569745
55.785 11.886147
55.790 12.176801
55.795 12.54392
55.800 12.460392
55.805 12.415494
55.810 11.88765
55.815 11.77864
55.820 12.369014
55.825 12.904409
55.830 12.82508
55.835 12.943557
55.840 12.980947
55.845 13.234269
55.850 13.171255
55.855 13.004098
55.860 12.737187
55.865 13.010295
55.870 13.340428
55.875 13.559172
55.880 13.844962
55.885 13.538447
55.890 13.224957
55.895 13.226067
55.900 13.131152
55.905 12.467113
55.910 12.103456
55.915 11.904289
55.920 11.625859
55.925 11.667048
55.930 11.798548
55.935 12.471258
55.940 12.864817
55.945 13.179205
55.950 13.744442
55.955 14.265553
55.960 14.076222
55.965 14.107488
55.970 13.605852
55.975 13.543298
55.980 13.118377
55.985 12.600798
55.990 12.29791
55.995 11.937125
56.000 11.405874
56.005 11.63251
56.010 11.833508
56.015 11.933393
56.020 12.067197
56.025 11.982942
56.030 12.55831
56.035 12.738515
56.040 12.66201
56.045 12.82065
56.050 12.939381
56.055 13.250065
56.060 13.642901
56.065 13.823236
56.070 13.921665
56.075 13.128259
56.080 12.638982
56.085 12.712803
56.090 13.085
56.095 12.867
56.100 12.4547
56.105 12.319589
56.110 13.274288
56.115 12.98323
56.120 12.338063
56.125 11.583781
56.130 11.68393
56.135 11.774118
56.140 12.387828
56.145 11.920867
56.150 12.17397
56.155 12.933626
56.160 12.825144
56.165 12.972566
56.170 13.19742
56.175 13.107122
56.180 13.595452
56.185 13.872259
56.190 13.812598
56.195 14.518307
56.200 14.636589
56.205 14.701717
56.210 14.708783
56.215 15.133926
56.220 15.442065
56.225 15.233607
56.230 15.172007
56.235 14.989444
56.240 14.437292
56.245 14.518331
56.250 13.605331
56.255 12.921005
56.260 12.661059
56.265 12.49628
56.270 12.9096
56.275 13.134527
56.280 12.875581
56.285 13.449473
56.290 13.295578
56.295 13.038431
56.300 12.471228
56.305 11.645572
56.310 11.244676
56.315 11.6277
56.320 11.32701
56.325 11.526831
56.330 12.046113
56.335 12.73995
56.340 13.115295
56.345 13.135148
56.350 12.704599
56.355 13.16002
56.360 13.401042
56.365 13.110592
56.370 13.213014
56.375 13.564062
56.380 13.661292
56.385 13.958272
56.390 13.698075
56.395 13.697521
56.400 13.63278
56.405 12.952168
56.410 12.586342
56.415 12.213727
56.420 12.12299
56.425 12.165853
56.430 12.403782
56.435 12.669886
56.440 12.900013
56.445 12.95023
56.450 13.414868
56.455 13.267752
56.460 13.245986
56.465 13.053196
56.470 12.759552
56.475 12.688398
56.480 12.381404
56.485 12.764428
56.490 12.705736
56.495 12.30163
56.500 11.879312
56.505 12.016883
56.510 11.874566
56.515 11.826414
56.520 11.267204
56.525 11.66291
56.530 12.236855
56.535 12.592918
56.540 12.791396
56.545 13.376739
56.550 13.681716
56.555 13.967945
56.560 13.67942
56.565 13.582756
56.570 13.448389
56.575 13.747419
56.580 13.452349
56.585 13.39383
56.590 13.181435
56.595 12.808473
56.600 12.915719
56.605 12.988567
56.610 12.186373
56.615 12.181541
56.620 12.021794
56.625 11.737728
56.630 11.559693
56.635 11.249666
56.640 11.147555
56.645 11.444796
56.650 11.504671
56.655 11.623209
56.660 12.125164
56.665 12.46838
56.670 12.657487
56.675 12.639325
56.680 12.96944
56.685 12.895708
56.690 13.102524
56.695 13.168157
56.700 13.028146
56.705 12.832607
56.710 13.089568
56.715 13.111723
56.720 13.289912
56.725 13.157216
56.730 13.675313
56.735 14.460385
56.740 15.027267
56.745 15.041839
56.750 14.827719
56.755 15.054007
56.760 15.224401
56.765 14.701178
56.770 14.488327
56.775 13.928821
56.780 13.743747
56.785 13.772913
56.790 13.321422
56.795 13.299194
56.800 13.551365
56.805 13.482636
56.810 13.586759
56.815 13.517857
56.820 13.272173
56.825 13.203095
56.830 13.18246
56.835 12.911631
56.840 12.670822
56.845 12.464587
56.850 12.523866
56.855 12.910845
56.860 13.12769
56.865 12.926005
56.870 12.770754
56.875 13.004599
56.880 13.827954
56.885 14.000521
56.890 14.000813
56.895 13.993061
56.900 14.392873
56.905 14.799037
56.910 14.733916
56.915 14.655058
56.920 14.346286
56.925 14.036242
56.930 13.740479
56.935 14.063627
56.940 14.084449
56.945 13.716613
56.950 13.665719
56.955 14.467794
56.960 15.037191
56.965 14.74459
56.970 13.890391
56.975 14.232203
56.980 14.449207
56.985 14.57143
56.990 13.867611
56.995 13.596989
57.000 13.342713
57.005 12.964363
57.010 12.587843
57.015 12.49847
57.020 12.238189
57.025 12.436814
57.030 12.323332
57.035 12.422727
57.040 12.648343
57.045 12.348912
57.050 12.204081
57.055 12.270125
57.060 12.129904
57.065 12.544027
57.070 13.198025
57.075 13.250143
57.080 13.391036
57.085 13.824374
57.090 13.868081
57.095 13.831171
57.100 13.939561
57.105 13.793198
57.110 13.976564
57.115 14.061457
57.120 14.003454
57.125 14.063605
57.130 13.95517
57.135 13.68733
57.140 13.510463
57.145 13.262376
57.150 12.964238
57.155 12.810851
57.160 13.303454
57.165 13.266324
57.170 13.320133
57.175 13.51632
57.180 14.154749
57.185 14.44307
57.190 14.243701
57.195 14.086575
57.200 14.558208
57.205 15.099385
57.210 15.547794
57.215 15.659714
57.220 15.987959
57.225 15.86167
57.230 15.880235
57.235 15.817455
57.240 15.65228
57.245 14.984736
57.250 13.91029
57.255 13.634587
57.260 13.382132
57.265 13.357516
57.270 13.588352
57.275 13.797331
57.280 14.262029
57.285 14.976402
57.290 14.865553
57.295 14.881738
57.300 15.146717
57.305 14.764457
57.310 14.79304
57.315 15.589474
57.320 15.173238
57.325 15.504057
57.330 16.153034
57.335 15.66566
57.340 15.530828
57.345 15.118887
57.350 14.820876
57.355 15.0768
57.360 14.795826
57.365 14.43052
57.370 14.65695
57.375 15.106256
57.380 15.184294
57.385 15.019204
57.390 15.032023
57.395 15.107297
57.400 15.45092
57.405 15.508463
57.410 14.82798
57.415 14.262694
57.420 14.254853
57.425 14.382392
57.430 14.316773
57.435 13.543461
57.440 13.903354
57.445 14.89659
57.450 15.464341
57.455 15.310972
57.460 15.060286
57.465 15.084962
57.470 14.948253
57.475 14.405516
57.480 13.665584
57.485 13.913676
57.490 13.939712
57.495 13.9455
57.500 14.121716
57.505 14.554996
57.510 14.741043
57.515 14.651578
57.520 14.343966
57.525 13.780608
57.530 13.671948
57.535 13.699864
57.540 13.818881
57.545 13.95021
57.550 14.173821
57.555 14.696963
57.560 15.66573
57.565 16.061256
57.570 15.919163
57.575 16.304918
57.580 16.594595
57.585 16.588562
57.590 16.408316
57.595 16.175442
57.600 15.8267
57.605 15.437922
57.610 15.519748
57.615 15.149039
57.620 15.049147
57.625 15.166608
57.630 15.013576
57.635 15.322047
57.640 15.359008
57.645 14.501091
57.650 14.728627
57.655 15.051147
57.660 14.890633
57.665 15.130355
57.670 14.862248
57.675 14.808341
57.680 14.552939
57.685 14.284427
57.690 14.201361
57.695 14.357404
57.700 14.945726
57.705 15.083272
57.710 15.307831
57.715 15.632117
57.720 15.532516
57.725 15.641675
57.730 15.272962
57.735 14.630107
57.740 14.929299
57.745 14.913925
57.750 15.389059
57.755 15.695946
57.760 15.424051
57.765 15.306997
57.770 15.207137
57.775 15.38049
57.780 15.178373
57.785 14.953563
57.790 14.710233
57.795 14.770455
57.800 15.051608
57.805 14.923896
57.810 15.281398
57.815 15.857083
57.820 15.648647
57.825 15.844236
57.830 16.651949
57.835 16.657339
57.840 16.849625
57.845 16.466433
57.850 16.201578
57.855 16.364267
57.860 16.165247
57.865 15.811199
57.870 16.244902
57.875 16.41844
57.880 16.463064
57.885 16.157194
57.890 16.113758
57.895 16.242149
57.900 16.17145
57.905 15.606069
57.910 15.862245
57.915 15.994681
57.920 16.664024
57.925 16.802999
57.930 16.321314
57.935 16.236795
57.940 16.608995
57.945 16.460537
57.950 16.803112
57.955 16.673174
57.960 16.284775
57.965 16.368284
57.970 16.850376
57.975 16.88431
57.980 16.819576
57.985 16.614122
57.990 16.790598
57.995 17.030006
58.000 17.481049
58.005 17.154211
58.010 16.895721
58.015 16.710003
58.020 16.390949
58.025 15.744982
58.030 15.716079
58.035 15.519764
58.040 15.206706
58.045 15.784107
58.050 15.831365
58.055 16.023226
58.060 16.742348
58.065 16.999088
58.070 17.403711
58.075 17.610678
58.080 17.559603
58.085 17.872202
58.090 18.324072
58.095 17.986069
58.100 18.009291
58.105 17.827991
58.110 17.515102
58.115 17.587669
58.120 17.434528
58.125 17.205999
58.130 17.055712
58.135 16.898205
58.140 17.15657
58.145 18.345497
58.150 18.328644
58.155 18.620155
58.160 18.527367
58.165 18.650988
58.170 18.972506
58.175 18.510502
58.180 17.807175
58.185 18.242033
58.190 18.609013
58.195 18.935678
58.200 18.966022
58.205 18.991026
58.210 19.54285
58.215 20.120661
58.220 20.353979
58.225 19.810877
58.230 19.606178
58.235 19.896717
58.240 19.785673
58.245 19.517935
58.250 19.212652
58.255 18.917051
58.260 19.144003
58.265 19.388271
58.270 19.363054
58.275 19.09664
58.280 19.654079
58.285 19.894573
58.290 19.407661
58.295 19.696579
58.300 20.277605
58.305 19.994045
58.310 20.23628
58.315 19.722019
58.320 19.826286
58.325 20.412415
58.330 20.920542
58.335 20.604918
58.340 20.557257
58.345 21.200096
58.350 21.597099
58.355 21.336987
58.360 21.284004
58.365 21.30139
58.370 21.798859
58.375 22.980139
58.380 23.375134
58.385 23.624781
58.390 23.966616
58.395 24.2679
58.400 24.130045
58.405 24.476223
58.410 23.78076
58.415 23.075743
58.420 22.983227
58.425 23.138239
58.430 23.055216
58.435 23.918339
58.440 24.181376
58.445 25.269976
58.450 26.285517
58.455 27.498417
58.460 28.194483
58.465 28.17519
58.470 28.03723
58.475 27.690338
