!@!!GADDS PLOTSO FILE: Chi integration type
!@!!Title/SampleName: map-143
!@!!Comment: ?
!@!!User: Bruker Instrument Administrator
!@!!Site: University of Illinois Chicago
!@!!Frame: map-143_01_000.gfrm
!@!!Wavelengths    1.54184   1.54056   1.54439
!@!!Frame angles: 2Theta: 63.000 Omega: 50.000 Phi: 0.000 Chi: 90.000
!@!!Integration range: 2Theta: 53.000 to 73.000  Gamma: -105.000 to -75.000
!@!!Integration method: bin normalized
!@!N
!@!SS
!@!M
!@!L 0.0 0.0 0.0 0.0
!@!XDegrees
!@!YCounts
53.000 9.3999
53.005 9.292184
53.010 9.351117
53.015 9.752988
53.020 9.439654
53.025 9.275669
53.030 8.773786
53.035 8.445715
53.040 8.459854
53.045 8.474731
53.050 8.346976
53.055 8.208725
53.060 7.978816
53.065 7.975232
53.070 8.225877
53.075 8.668391
53.080 8.463282
53.085 7.870797
53.090 7.605958
53.095 8.132505
53.100 8.43679
53.105 8.23951
53.110 7.869009
53.115 8.138726
53.120 9.158579
53.125 9.345754
53.130 8.899907
53.135 8.842032
53.140 8.679442
53.145 8.586447
53.150 8.148519
53.155 7.745632
53.160 7.640087
53.165 7.879057
53.170 8.303188
53.175 8.558357
53.180 8.607198
53.185 8.700779
53.190 8.969278
53.195 8.94531
53.200 8.652373
53.205 8.382514
53.210 8.636474
53.215 8.919816
53.220 9.557847
53.225 9.931357
53.230 10.483823
53.235 11.065322
53.240 11.319017
53.245 11.357434
53.250 10.949032
53.255 10.883159
53.260 10.622294
53.265 10.221827
53.270 9.852556
53.275 9.73106
53.280 10.150431
53.285 10.031423
53.290 9.507215
53.295 9.141578
53.300 8.954389
53.305 8.778932
53.310 8.497278
53.315 8.371811
53.320 8.451273
53.325 8.972623
53.330 9.375245
53.335 9.190564
53.340 9.140471
53.345 9.062303
53.350 8.823148
53.355 8.510942
53.360 8.061609
53.365 7.833754
53.370 8.175529
53.375 8.17054
53.380 8.260723
53.385 8.546222
53.390 9.023755
53.395 9.165449
53.400 8.906248
53.405 8.800549
53.410 8.872474
53.415 8.662752
53.420 8.451984
53.425 8.130222
53.430 8.513778
53.435 9.25758
53.440 9.404009
53.445 9.62461
53.450 9.934939
53.455 9.603744
53.460 9.5128
53.465 9.120542
53.470 9.252095
53.475 9.334182
53.480 9.423017
53.485 9.887028
53.490 10.744188
53.495 11.21549
53.500 11.211425
53.505 10.827787
53.510 11.038951
53.515 10.788193
53.520 10.503805
53.525 10.0744
53.530 9.49835
53.535 9.392951
53.540 9.153667
53.545 8.89721
53.550 8.986966
53.555 9.005924
53.560 8.95471
53.565 9.254007
53.570 9.65414
53.575 9.798737
53.580 9.860559
53.585 9.689678
53.590 9.494148
53.595 9.718459
53.600 10.089025
53.605 10.102922
53.610 9.816089
53.615 9.681397
53.620 9.901892
53.625 9.903576
53.630 9.7411
53.635 9.329341
53.640 9.203567
53.645 9.384142
53.650 9.157978
53.655 9.301437
53.660 9.488417
53.665 9.070129
53.670 9.313194
53.675 9.360524
53.680 9.529907
53.685 9.732241
53.690 9.675797
53.695 10.056578
53.700 10.10513
53.705 9.509262
53.710 9.346622
53.715 9.441669
53.720 9.734257
53.725 9.818516
53.730 9.873504
53.735 9.959514
53.740 10.630507
53.745 10.829535
53.750 10.958399
53.755 10.859603
53.760 10.291335
53.765 10.060425
53.770 10.003922
53.775 9.46857
53.780 9.334157
53.785 9.285799
53.790 9.392814
53.795 9.618014
53.800 9.818934
53.805 10.295237
53.810 10.360411
53.815 10.065696
53.820 9.755915
53.825 9.361795
53.830 9.350794
53.835 9.512954
53.840 9.415086
53.845 9.690743
53.850 10.156988
53.855 10.461009
53.860 10.972811
53.865 10.97055
53.870 10.596148
53.875 10.256252
53.880 9.84462
53.885 9.385494
53.890 9.393934
53.895 8.965835
53.900 8.518356
53.905 8.430129
53.910 8.437548
53.915 8.626011
53.920 8.693098
53.925 8.828629
53.930 9.695294
53.935 10.142382
53.940 10.556783
53.945 10.779779
53.950 10.714118
53.955 10.558141
53.960 9.68921
53.965 9.18408
53.970 9.180777
53.975 9.169007
53.980 9.633836
53.985 9.855935
53.990 9.984318
53.995 10.610518
54.000 11.018484
54.005 10.853081
54.010 10.544326
54.015 10.065735
54.020 10.22531
54.025 10.346006
54.030 10.395102
54.035 10.500666
54.040 10.714407
54.045 10.509277
54.050 10.48032
54.055 10.400688
54.060 10.29757
54.065 10.330432
54.070 9.962187
54.075 9.804937
54.080 9.759984
54.085 10.107524
54.090 10.573595
54.095 10.28121
54.100 9.723035
54.105 9.932535
54.110 10.739832
54.115 10.803414
54.120 10.386303
54.125 10.308044
54.130 10.852733
54.135 11.465939
54.140 11.140436
54.145 10.681754
54.150 11.08461
54.155 11.158247
54.160 10.764157
54.165 10.486856
54.170 10.650528
54.175 11.151411
54.180 11.666429
54.185 11.18681
54.190 11.267288
54.195 11.123855
54.200 10.568962
54.205 10.372312
54.210 10.192626
54.215 10.017713
54.220 10.215082
54.225 10.194184
54.230 10.401735
54.235 10.405015
54.240 9.914912
54.245 9.623788
54.250 9.581342
54.255 9.633595
54.260 9.775774
54.265 9.83354
54.270 10.366433
54.275 10.559093
54.280 10.508492
54.285 10.226291
54.290 10.143321
54.295 10.004613
54.300 10.329521
54.305 10.454111
54.310 10.100399
54.315 10.210461
54.320 10.283511
54.325 10.298597
54.330 10.172544
54.335 10.279054
54.340 10.403877
54.345 10.928135
54.350 10.688284
54.355 10.449677
54.360 10.14396
54.365 10.064639
54.370 9.639764
54.375 9.219934
54.380 9.468472
54.385 10.290698
54.390 11.04699
54.395 11.206909
54.400 11.082851
54.405 11.04408
54.410 11.714382
54.415 11.341276
54.420 10.68604
54.425 10.498902
54.430 10.611338
54.435 11.249335
54.440 11.141883
54.445 10.911745
54.450 11.1925
54.455 11.159482
54.460 11.484104
54.465 11.684257
54.470 11.339097
54.475 11.894889
54.480 12.359957
54.485 12.583847
54.490 12.749604
54.495 12.268799
54.500 11.985549
54.505 11.862486
54.510 11.297143
54.515 10.84798
54.520 10.428929
54.525 10.221789
54.530 10.405597
54.535 10.214478
54.540 9.626898
54.545 9.16806
54.550 9.07044
54.555 9.104539
54.560 9.046695
54.565 8.822374
54.570 9.440863
54.575 9.868561
54.580 9.571277
54.585 9.501584
54.590 9.855136
54.595 9.707352
54.600 9.401951
54.605 9.489655
54.610 10.245238
54.615 10.787631
54.620 10.801398
54.625 10.891716
54.630 11.176409
54.635 11.162666
54.640 10.682333
54.645 10.018682
54.650 9.812177
54.655 10.174526
54.660 10.635802
54.665 11.119342
54.670 11.709027
54.675 12.050782
54.680 12.94266
54.685 13.126996
54.690 12.389626
54.695 11.809502
54.700 11.323213
54.705 10.652504
54.710 10.527733
54.715 10.231111
54.720 9.898584
54.725 9.923791
54.730 9.861568
54.735 10.17494
54.740 10.659797
54.745 10.675493
54.750 11.047354
54.755 11.736834
54.760 12.126507
54.765 12.361711
54.770 12.470634
54.775 12.083691
54.780 11.768419
54.785 11.398245
54.790 11.551234
54.795 11.016289
54.800 10.882182
54.805 10.583513
54.810 10.381459
54.815 10.598083
54.820 10.479591
54.825 10.378832
54.830 10.533182
54.835 10.800744
54.840 11.025257
54.845 11.295754
54.850 10.995998
54.855 11.195971
54.860 11.121974
54.865 11.13461
54.870 11.059645
54.875 10.882044
54.880 11.051821
54.885 11.262668
54.890 11.294139
54.895 11.233589
54.900 11.403029
54.905 11.758514
54.910 11.982242
54.915 12.122278
54.920 11.763441
54.925 11.617984
54.930 11.699746
54.935 11.776645
54.940 11.456272
54.945 11.218508
54.950 10.848975
54.955 10.900377
54.960 11.240804
54.965 11.082613
54.970 10.728367
54.975 10.943954
54.980 11.051928
54.985 12.026887
54.990 12.296011
54.995 11.793105
55.000 11.978025
55.005 12.162763
55.010 12.046852
55.015 12.041974
55.020 11.351635
55.025 11.26018
55.030 11.351398
55.035 11.363086
55.040 11.511315
55.045 12.212107
55.050 12.639125
55.055 13.022565
55.060 13.229647
55.065 13.160758
55.070 13.048869
55.075 13.212234
55.080 12.89786
55.085 12.278938
55.090 12.000387
55.095 12.055113
55.100 12.177714
55.105 12.473132
55.110 11.969258
55.115 12.033961
55.120 11.816545
55.125 11.716554
55.130 11.971826
55.135 11.680251
55.140 11.469501
55.145 11.258068
55.150 11.228733
55.155 11.711896
55.160 11.458125
55.165 11.416322
55.170 11.597679
55.175 11.597838
55.180 11.509198
55.185 11.437098
55.190 11.488415
55.195 11.389375
55.200 11.790518
55.205 11.826089
55.210 11.387742
55.215 11.503335
55.220 11.198729
55.225 11.104074
55.230 11.287353
55.235 11.085975
55.240 11.184051
55.245 11.469862
55.250 11.590605
55.255 11.908515
55.260 11.630666
55.265 11.256901
55.270 11.457425
55.275 11.642542
55.280 11.353148
55.285 10.904106
55.290 11.111034
55.295 11.558281
55.300 12.010221
55.305 11.296881
55.310 11.014362
55.315 11.757713
55.320 12.111838
55.325 11.782331
55.330 11.131545
55.335 10.864509
55.340 11.277157
55.345 11.205948
55.350 10.877627
55.355 10.800409
55.360 11.484901
55.365 11.670246
55.370 11.900456
55.375 11.549911
55.380 11.578018
55.385 11.607388
55.390 11.687253
55.395 11.511857
55.400 11.484002
55.405 11.809316
55.410 11.81953
55.415 11.853925
55.420 11.499969
55.425 11.379759
55.430 12.004066
55.435 12.007318
55.440 11.652127
55.445 11.973895
55.450 12.517852
55.455 12.772083
55.460 12.067583
55.465 11.625429
55.470 12.220428
55.475 12.674766
55.480 12.24019
55.485 11.863179
55.490 12.11168
55.495 12.069387
55.500 11.504571
55.505 10.730849
55.510 10.802228
55.515 10.739076
55.520 10.394913
55.525 10.070854
55.530 10.609393
55.535 10.983189
55.540 11.104104
55.545 11.074818
55.550 11.793251
55.555 12.258353
55.560 12.700987
55.565 12.982983
55.570 13.059999
55.575 13.227199
55.580 13.142267
55.585 13.125781
55.590 12.870461
55.595 12.42502
55.600 12.335761
55.605 12.622997
55.610 12.355246
55.615 12.365805
55.620 12.149388
55.625 12.486113
55.630 12.777769
55.635 12.565824
55.640 12.466088
55.645 13.005813
55.650 13.096539
55.655 13.184385
55.660 12.836143
55.665 12.558543
55.670 12.047565
55.675 11.474877
55.680 10.752115
55.685 10.474465
55.690 10.345868
55.695 10.023445
55.700 9.759399
55.705 10.16066
55.710 10.538243
55.715 10.777783
55.720 10.928174
55.725 10.780384
55.730 11.498591
55.735 11.791376
55.740 11.817566
55.745 11.944616
55.750 12.434413
55.755 12.128014
55.760 12.040353
55.765 12.139661
55.770 11.928962
55.775 11.694647
55.780 11.320623
55.785 10.953991
55.790 11.636347
55.795 11.865479
55.800 11.702108
55.805 11.833779
55.810 11.853474
55.815 11.754856
55.820 11.675632
55.825 11.384778
55.830 11.383468
55.835 11.649797
55.840 12.170688
55.845 12.674781
55.850 12.849877
55.855 12.724066
55.860 12.714271
55.865 12.627903
55.870 12.908222
55.875 13.471504
55.880 13.38913
55.885 13.721983
55.890 13.705033
55.895 13.626113
55.900 13.484529
55.905 12.587265
55.910 11.690638
55.915 11.388179
55.920 11.130817
55.925 11.361894
55.930 11.619119
55.935 12.262815
55.940 12.771726
55.945 13.19012
55.950 13.316589
55.955 13.53766
55.960 13.116482
55.965 12.613962
55.970 12.102332
55.975 12.065036
55.980 12.237135
55.985 12.004934
55.990 11.434253
55.995 11.579252
56.000 11.591113
56.005 11.685283
56.010 10.884373
56.015 10.812865
56.020 11.429016
56.025 12.175197
56.030 12.435256
56.035 12.352763
56.040 12.340495
56.045 12.627777
56.050 13.069415
56.055 13.193223
56.060 12.897744
56.065 12.958523
56.070 12.385832
56.075 12.556699
56.080 12.434587
56.085 11.617652
56.090 11.526913
56.095 11.652724
56.100 11.65354
56.105 12.26982
56.110 11.919643
56.115 12.153484
56.120 12.544239
56.125 11.936253
56.130 11.914318
56.135 12.071042
56.140 11.854883
56.145 11.954921
56.150 11.677773
56.155 11.418731
56.160 11.532286
56.165 11.422394
56.170 11.640737
56.175 11.850972
56.180 12.290037
56.185 12.389573
56.190 12.826398
56.195 13.213383
56.200 13.663504
56.205 13.618145
56.210 13.989672
56.215 13.958323
56.220 13.893381
56.225 13.211217
56.230 13.210297
56.235 13.189306
56.240 12.927916
56.245 12.64792
56.250 12.765924
56.255 13.140804
56.260 13.268772
56.265 12.821853
56.270 12.334973
56.275 12.404925
56.280 12.38347
56.285 12.717694
56.290 12.579609
56.295 12.571649
56.300 12.984248
56.305 13.415152
56.310 13.590711
56.315 13.574917
56.320 13.146689
56.325 13.078096
56.330 13.027013
56.335 12.81036
56.340 12.5302
56.345 12.578036
56.350 12.038779
56.355 12.068181
56.360 12.570058
56.365 12.891774
56.370 12.643639
56.375 12.979843
56.380 13.311467
56.385 13.88664
56.390 13.767991
56.395 13.319116
56.400 13.654993
56.405 13.980815
56.410 13.402164
56.415 12.959234
56.420 12.869494
56.425 12.749482
56.430 12.723389
56.435 12.108407
56.440 12.008659
56.445 12.482219
56.450 12.33736
56.455 12.025105
56.460 12.489818
56.465 12.879972
56.470 13.406407
56.475 13.241055
56.480 12.749248
56.485 12.634908
56.490 12.668303
56.495 12.559368
56.500 12.424223
56.505 12.646523
56.510 12.705883
56.515 12.421816
56.520 12.507448
56.525 12.788005
56.530 13.116778
56.535 13.108513
56.540 12.40108
56.545 12.455684
56.550 12.995965
56.555 13.429498
56.560 13.719686
56.565 13.139848
56.570 12.96989
56.575 12.927067
56.580 12.658633
56.585 12.502317
56.590 12.035375
56.595 12.281438
56.600 12.97572
56.605 13.51073
56.610 13.802289
56.615 13.856481
56.620 13.994632
56.625 14.231206
56.630 13.479029
56.635 13.086743
56.640 12.382133
56.645 12.629875
56.650 13.036717
56.655 13.21548
56.660 13.128649
56.665 13.539296
56.670 14.053511
56.675 14.446218
56.680 14.560539
56.685 14.287627
56.690 14.586042
56.695 14.613304
56.700 14.481469
56.705 14.626153
56.710 14.714165
56.715 14.593289
56.720 14.80827
56.725 14.732589
56.730 14.708722
56.735 14.55608
56.740 14.382455
56.745 14.27815
56.750 14.645907
56.755 14.851224
56.760 14.596096
56.765 14.890904
56.770 14.592342
56.775 14.61224
56.780 14.261755
56.785 14.368487
56.790 13.930728
56.795 13.928457
56.800 13.707504
56.805 13.589716
56.810 14.106396
56.815 14.75081
56.820 14.587768
56.825 14.962519
56.830 14.817681
56.835 14.671189
56.840 14.588611
56.845 14.13328
56.850 13.92812
56.855 13.352758
56.860 12.969607
56.865 13.499772
56.870 14.010153
56.875 14.531649
56.880 14.328523
56.885 14.395408
56.890 15.025718
56.895 15.335095
56.900 14.948974
56.905 14.977595
56.910 14.318877
56.915 14.530301
56.920 14.459563
56.925 14.152283
56.930 14.336809
56.935 14.46953
56.940 14.065916
56.945 14.207882
56.950 13.879638
56.955 14.220148
56.960 14.580281
56.965 14.360442
56.970 14.203915
56.975 14.076308
56.980 14.184346
56.985 14.240322
56.990 14.139317
56.995 13.715689
57.000 13.678402
57.005 14.227627
57.010 14.664066
57.015 15.145522
57.020 15.148344
57.025 15.172994
57.030 15.494917
57.035 15.534019
57.040 15.167783
57.045 14.763005
57.050 14.441469
57.055 14.209326
57.060 14.034297
57.065 13.936645
57.070 14.242552
57.075 14.870247
57.080 14.923091
57.085 14.867616
57.090 15.107499
57.095 15.009056
57.100 14.919062
57.105 14.457529
57.110 14.14238
57.115 14.508878
57.120 14.476613
57.125 14.91754
57.130 14.955124
57.135 14.774075
57.140 14.66905
57.145 14.699196
57.150 14.575259
57.155 14.890163
57.160 14.874942
57.165 15.142489
57.170 15.359286
57.175 15.21931
57.180 15.40363
57.185 14.873757
57.190 14.214784
57.195 14.405578
57.200 14.260623
57.205 14.576669
57.210 14.485826
57.215 14.055966
57.220 14.570575
57.225 14.361531
57.230 14.039792
57.235 14.219466
57.240 14.341421
57.245 14.250741
57.250 14.477077
57.255 14.783257
57.260 15.056898
57.265 15.016676
57.270 14.826434
57.275 14.641624
57.280 14.447556
57.285 14.117008
57.290 14.152321
57.295 14.528042
57.300 14.574575
57.305 14.714453
57.310 14.826476
57.315 15.253065
57.320 15.29804
57.325 15.11313
57.330 14.47362
57.335 14.054447
57.340 13.959604
57.345 13.586426
57.350 13.192509
57.355 13.250351
57.360 13.666424
57.365 14.183773
57.370 14.413916
57.375 14.164729
57.380 14.731409
57.385 15.570451
57.390 15.369911
57.395 14.854218
57.400 14.944521
57.405 14.995213
57.410 14.715756
57.415 13.858207
57.420 13.405988
57.425 13.418337
57.430 14.034367
57.435 13.801921
57.440 13.809464
57.445 14.370584
57.450 14.890194
57.455 14.366581
57.460 13.859237
57.465 13.349173
57.470 13.348586
57.475 13.036539
57.480 13.100128
57.485 13.415263
57.490 14.167679
57.495 14.16692
57.500 14.305848
57.505 13.959636
57.510 14.129212
57.515 14.419813
57.520 14.131782
57.525 14.323359
57.530 14.582417
57.535 14.193095
57.540 14.53602
57.545 14.516527
57.550 14.092825
57.555 13.882373
57.560 13.887963
57.565 13.812987
57.570 13.998728
57.575 14.206443
57.580 14.116004
57.585 14.042839
57.590 14.180387
57.595 14.152043
57.600 14.31574
57.605 14.498847
57.610 14.801201
57.615 14.90993
57.620 14.75111
57.625 14.757146
57.630 14.237439
57.635 13.744821
57.640 13.866098
57.645 13.6613
57.650 13.846543
57.655 14.379793
57.660 14.350538
57.665 14.665044
57.670 14.493674
57.675 14.026809
57.680 14.222385
57.685 14.423494
57.690 14.561095
57.695 15.195044
57.700 15.982421
57.705 16.277792
57.710 16.186907
57.715 15.795187
57.720 15.833964
57.725 15.311625
57.730 14.410901
57.735 13.869905
57.740 14.024867
57.745 14.136554
57.750 14.798855
57.755 14.879972
57.760 14.934198
57.765 15.754578
57.770 15.80135
57.775 15.610373
57.780 15.339833
57.785 14.601241
57.790 14.680045
57.795 14.813127
57.800 13.942129
57.805 14.112456
57.810 14.682211
57.815 14.663911
57.820 14.654839
57.825 14.759938
57.830 14.733212
57.835 15.150591
57.840 15.512463
57.845 15.185543
57.850 15.426612
57.855 15.37828
57.860 14.91121
57.865 15.159677
57.870 15.118179
57.875 14.729255
57.880 15.08517
57.885 15.763049
57.890 16.115583
57.895 15.749435
57.900 15.841785
57.905 15.774578
57.910 15.704149
57.915 15.467389
57.920 15.206433
57.925 15.20083
57.930 15.089685
57.935 14.881069
57.940 14.795274
57.945 14.76382
57.950 14.977453
57.955 14.673676
57.960 14.621202
57.965 14.995035
57.970 14.960588
57.975 15.065042
57.980 15.0945
57.985 15.13443
57.990 15.094088
57.995 14.988362
58.000 14.948721
58.005 14.989857
58.010 15.063771
58.015 15.32366
58.020 15.253754
58.025 15.438843
58.030 15.507349
58.035 15.365349
58.040 14.779196
58.045 14.304454
58.050 13.815174
58.055 13.724916
58.060 14.277216
58.065 14.490055
58.070 14.655952
58.075 14.613227
58.080 15.098482
58.085 15.085609
58.090 15.388659
58.095 14.771104
58.100 14.550444
58.105 14.706266
58.110 15.24575
58.115 14.823452
58.120 15.381129
58.125 15.028386
58.130 15.157822
58.135 15.290929
58.140 15.219978
58.145 15.012084
58.150 15.238734
58.155 14.743303
58.160 14.882333
58.165 14.96677
58.170 15.530002
58.175 15.541016
58.180 15.643811
58.185 15.672372
58.190 15.83077
58.195 15.622914
58.200 15.348557
58.205 14.848428
58.210 14.98088
58.215 15.035635
58.220 14.627686
58.225 14.687952
58.230 14.674003
58.235 14.402424
58.240 14.591255
58.245 14.228585
58.250 14.072694
58.255 14.461139
58.260 14.629217
58.265 14.897645
58.270 15.286345
58.275 14.952715
58.280 15.713765
58.285 16.124855
58.290 16.134359
58.295 15.860574
58.300 16.00103
58.305 15.987652
58.310 15.81645
58.315 15.536752
58.320 15.329784
58.325 15.150765
58.330 14.875141
58.335 14.841389
58.340 14.733324
58.345 14.83786
58.350 15.367718
58.355 15.586887
58.360 15.945869
58.365 16.088161
58.370 16.310038
58.375 16.498428
58.380 16.270163
58.385 15.327725
58.390 14.773871
58.395 14.161208
58.400 14.554324
58.405 14.669738
58.410 14.599843
58.415 15.114116
58.420 15.509474
58.425 16.261768
58.430 16.569416
58.435 16.176708
58.440 16.081806
58.445 16.104671
58.450 16.394428
58.455 16.870409
58.460 16.37355
58.465 16.251825
58.470 16.174917
58.475 15.882152
58.480 15.533194
58.485 15.279377
58.490 15.261125
