!@!!GADDS PLOTSO FILE: Chi integration type
!@!!Title/SampleName: map-10
!@!!Comment: ?
!@!!User: Bruker Instrument Administrator
!@!!Site: University of Illinois Chicago
!@!!Frame: map-10_01_000.gfrm
!@!!Wavelengths    1.54184   1.54056   1.54439
!@!!Frame angles: 2Theta: 63.000 Omega: 50.000 Phi: 0.000 Chi: 90.000
!@!!Integration range: 2Theta: 53.000 to 73.000  Gamma: -105.000 to -75.000
!@!!Integration method: bin normalized
!@!N
!@!SS
!@!M
!@!L 0.0 0.0 0.0 0.0
!@!XDegrees
!@!YCounts
53.000 9.389359
53.005 9.698808
53.010 9.539467
53.015 9.289403
53.020 9.20883
53.025 9.178831
53.030 9.291652
53.035 9.063357
53.040 8.913444
53.045 9.384353
53.050 9.592789
53.055 9.787705
53.060 9.357512
53.065 9.268948
53.070 9.212766
53.075 9.233587
53.080 8.888288
53.085 8.43859
53.090 8.459517
53.095 8.429405
53.100 8.607417
53.105 8.788485
53.110 8.633221
53.115 8.676812
53.120 8.823723
53.125 8.926708
53.130 9.337218
53.135 9.563492
53.140 9.460678
53.145 9.756262
53.150 9.960485
53.155 10.114667
53.160 9.909791
53.165 9.88422
53.170 9.471781
53.175 8.93609
53.180 8.614713
53.185 8.842824
53.190 9.104899
53.195 9.128901
53.200 8.737134
53.205 9.070762
53.210 9.441578
53.215 9.149275
53.220 8.714541
53.225 9.034094
53.230 9.147353
53.235 9.473929
53.240 9.151229
53.245 9.182467
53.250 9.435195
53.255 9.548477
53.260 9.386836
53.265 9.023544
53.270 8.942001
53.275 9.117356
53.280 8.905509
53.285 8.59736
53.290 8.801326
53.295 8.738548
53.300 8.92944
53.305 9.22745
53.310 9.189842
53.315 9.517612
53.320 9.78564
53.325 9.833467
53.330 10.068526
53.335 9.989542
53.340 9.562167
53.345 10.025691
53.350 10.25107
53.355 10.230756
53.360 10.123391
53.365 10.254174
53.370 10.522635
53.375 10.807623
53.380 10.678456
53.385 10.110772
53.390 9.96173
53.395 9.432697
53.400 9.132507
53.405 8.507027
53.410 8.314231
53.415 8.557176
53.420 8.930723
53.425 9.221776
53.430 9.468057
53.435 9.999181
53.440 10.271185
53.445 10.421185
53.450 10.401734
53.455 10.751021
53.460 11.043279
53.465 10.994522
53.470 10.914605
53.475 11.252402
53.480 10.988109
53.485 10.873019
53.490 10.579143
53.495 10.458401
53.500 10.440851
53.505 10.63417
53.510 10.393995
53.515 10.38144
53.520 10.668708
53.525 10.715147
53.530 10.419824
53.535 10.178649
53.540 9.489955
53.545 9.527382
53.550 9.322944
53.555 8.985835
53.560 9.288033
53.565 9.647195
53.570 9.987082
53.575 9.974061
53.580 9.852822
53.585 9.847461
53.590 9.841488
53.595 9.455288
53.600 9.700688
53.605 9.701236
53.610 9.765854
53.615 9.820865
53.620 9.470521
53.625 9.261324
53.630 9.352237
53.635 9.070823
53.640 9.083535
53.645 9.399126
53.650 9.777293
53.655 10.195255
53.660 10.070396
53.665 10.130802
53.670 10.371589
53.675 10.330005
53.680 10.124152
53.685 9.707482
53.690 9.772412
53.695 9.928755
53.700 9.945498
53.705 10.059445
53.710 10.466431
53.715 10.619835
53.720 10.969522
53.725 10.792614
53.730 10.737535
53.735 10.840323
53.740 10.951966
53.745 10.699849
53.750 10.358364
53.755 10.310982
53.760 10.4348
53.765 10.454147
53.770 10.290796
53.775 10.401923
53.780 10.580453
53.785 10.778873
53.790 10.260309
53.795 10.178292
53.800 10.179456
53.805 10.089211
53.810 10.025587
53.815 9.851319
53.820 10.079415
53.825 10.333007
53.830 9.897725
53.835 9.562848
53.840 9.428908
53.845 9.427515
53.850 10.051177
53.855 9.818343
53.860 10.22708
53.865 10.6733
53.870 10.70882
53.875 11.263336
53.880 11.815541
53.885 11.717657
53.890 12.050622
53.895 12.027181
53.900 12.120666
53.905 12.61517
53.910 11.857095
53.915 11.300387
53.920 11.061183
53.925 10.600833
53.930 10.277254
53.935 10.004187
53.940 9.695043
53.945 9.705697
53.950 9.47323
53.955 9.481594
53.960 10.135521
53.965 10.391961
53.970 10.522721
53.975 10.744089
53.980 10.980198
53.985 10.99862
53.990 11.139388
53.995 10.68243
54.000 10.798951
54.005 10.421062
54.010 10.429512
54.015 10.464754
54.020 11.031074
54.025 10.937894
54.030 11.245725
54.035 11.326055
54.040 11.484312
54.045 10.968668
54.050 10.37259
54.055 10.039831
54.060 9.974296
54.065 9.845195
54.070 9.611641
54.075 9.33564
54.080 9.770077
54.085 9.780395
54.090 9.669807
54.095 9.658111
54.100 9.232013
54.105 9.451071
54.110 9.685115
54.115 9.756774
54.120 10.029842
54.125 10.448278
54.130 10.401314
54.135 10.880674
54.140 10.965248
54.145 10.735543
54.150 10.722301
54.155 10.685856
54.160 10.56275
54.165 10.397254
54.170 10.185633
54.175 10.400468
54.180 10.35357
54.185 10.177274
54.190 9.630067
54.195 9.197003
54.200 9.284073
54.205 9.18786
54.210 8.965636
54.215 9.091016
54.220 9.329796
54.225 10.19305
54.230 10.654285
54.235 11.019631
54.240 10.822109
54.245 11.199464
54.250 11.671175
54.255 11.639737
54.260 11.617375
54.265 11.766542
54.270 11.119629
54.275 11.011601
54.280 10.471807
54.285 10.206698
54.290 9.945392
54.295 9.759199
54.300 10.021868
54.305 10.613049
54.310 10.886443
54.315 11.181211
54.320 11.608914
54.325 11.802004
54.330 11.451419
54.335 11.492233
54.340 11.603249
54.345 11.930556
54.350 11.570048
54.355 10.833685
54.360 11.158659
54.365 10.894642
54.370 11.052905
54.375 11.017386
54.380 10.938754
54.385 11.387398
54.390 11.554627
54.395 11.30116
54.400 11.674577
54.405 11.323838
54.410 11.007187
54.415 10.782668
54.420 10.70203
54.425 11.099516
54.430 11.888788
54.435 12.167103
54.440 12.565678
54.445 12.769521
54.450 12.628191
54.455 12.164065
54.460 11.792008
54.465 11.221892
54.470 10.597095
54.475 10.436822
54.480 10.673284
54.485 10.831371
54.490 11.261675
54.495 11.374314
54.500 11.305555
54.505 11.967119
54.510 11.967667
54.515 12.048257
54.520 12.126654
54.525 11.399065
54.530 11.334616
54.535 11.406033
54.540 10.89387
54.545 10.973267
54.550 10.440961
54.555 10.602495
54.560 10.62972
54.565 10.386134
54.570 10.476454
54.575 10.381983
54.580 10.324084
54.585 11.044433
54.590 11.137105
54.595 11.388691
54.600 11.20625
54.605 11.273184
54.610 11.585843
54.615 11.264778
54.620 10.505178
54.625 10.106024
54.630 10.248381
54.635 10.283534
54.640 10.335149
54.645 10.334754
54.650 10.617241
54.655 11.257382
54.660 11.535844
54.665 11.494934
54.670 11.751695
54.675 11.225076
54.680 11.18163
54.685 11.000034
54.690 10.798251
54.695 10.94256
54.700 10.871585
54.705 10.812374
54.710 10.63669
54.715 10.704576
54.720 10.616371
54.725 10.780398
54.730 10.777663
54.735 10.366397
54.740 10.114226
54.745 10.664038
54.750 10.76354
54.755 11.047686
54.760 10.60034
54.765 10.446972
54.770 10.859098
54.775 10.957585
54.780 10.033319
54.785 9.842965
54.790 10.130664
54.795 9.979242
54.800 10.089655
54.805 10.175363
54.810 11.127981
54.815 11.686579
54.820 11.484436
54.825 11.68047
54.830 12.414556
54.835 12.549862
54.840 12.021813
54.845 11.948299
54.850 12.180921
54.855 12.033725
54.860 11.523711
54.865 11.305493
54.870 11.496729
54.875 12.037742
54.880 11.574132
54.885 11.674013
54.890 11.805478
54.895 11.780552
54.900 11.867697
54.905 11.542929
54.910 11.174558
54.915 11.437796
54.920 11.42743
54.925 11.519618
54.930 11.306874
54.935 11.035926
54.940 11.149995
54.945 10.800632
54.950 10.485027
54.955 10.677196
54.960 11.122637
54.965 11.683018
54.970 11.756494
54.975 11.628633
54.980 12.162276
54.985 12.347775
54.990 11.947308
54.995 11.576828
55.000 11.243796
55.005 11.496826
55.010 11.67334
55.015 11.594813
55.020 11.351786
55.025 11.603084
55.030 12.061334
55.035 12.238169
55.040 12.107144
55.045 11.684023
55.050 11.589337
55.055 11.807495
55.060 11.177649
55.065 10.703175
55.070 10.667992
55.075 11.171198
55.080 11.646937
55.085 11.763251
55.090 11.921376
55.095 12.241819
55.100 12.274583
55.105 12.233848
55.110 11.987768
55.115 12.090902
55.120 11.68673
55.125 11.689101
55.130 11.635602
55.135 11.454275
55.140 11.364525
55.145 11.329597
55.150 11.011033
55.155 11.515667
55.160 11.580855
55.165 11.585114
55.170 11.577691
55.175 11.63359
55.180 11.479888
55.185 11.712455
55.190 11.512949
55.195 11.427694
55.200 11.232466
55.205 11.508001
55.210 11.984753
55.215 12.802335
55.220 12.713778
55.225 12.720659
55.230 12.847202
55.235 13.150848
55.240 13.323061
55.245 13.083158
55.250 12.755428
55.255 12.681828
55.260 13.01123
55.265 12.968709
55.270 12.573862
55.275 12.352361
55.280 12.143952
55.285 12.359529
55.290 12.659976
55.295 12.215591
55.300 11.983982
55.305 11.574107
55.310 11.599776
55.315 11.633467
55.320 11.606695
55.325 11.576574
55.330 12.033905
55.335 12.609935
55.340 13.183054
55.345 13.368186
55.350 13.414302
55.355 13.237395
55.360 13.472169
55.365 13.248723
55.370 13.346203
55.375 13.302191
55.380 13.08444
55.385 12.72589
55.390 12.555092
55.395 12.277349
55.400 12.256283
55.405 12.045163
55.410 11.462606
55.415 11.324406
55.420 10.916373
55.425 10.761661
55.430 10.716439
55.435 10.590655
55.440 10.756132
55.445 10.865703
55.450 11.277613
55.455 11.514362
55.460 11.430385
55.465 11.874277
55.470 12.650061
55.475 13.046671
55.480 13.246883
55.485 12.992553
55.490 13.15182
55.495 13.81243
55.500 13.602367
55.505 13.102953
55.510 12.735372
55.515 12.511621
55.520 12.430202
55.525 12.278543
55.530 11.527704
55.535 10.887821
55.540 10.285478
55.545 10.425426
55.550 10.892531
55.555 11.341986
55.560 11.34503
55.565 11.61163
55.570 11.746942
55.575 12.21009
55.580 12.438284
55.585 12.368657
55.590 12.15761
55.595 12.014359
55.600 11.958452
55.605 12.08361
55.610 12.027217
55.615 11.485613
55.620 11.117525
55.625 11.463524
55.630 11.321629
55.635 11.432375
55.640 11.312949
55.645 10.818315
55.650 10.886831
55.655 11.292392
55.660 10.94824
55.665 11.310301
55.670 11.296862
55.675 11.497681
55.680 11.89402
55.685 11.96599
55.690 12.055358
55.695 12.025146
55.700 11.785575
55.705 11.260757
55.710 11.466347
55.715 11.56824
55.720 11.521663
55.725 11.536883
55.730 11.882523
55.735 11.639353
55.740 11.672262
55.745 11.638312
55.750 11.925086
55.755 11.790278
55.760 11.700817
55.765 11.531082
55.770 11.864697
55.775 12.182766
55.780 12.252193
55.785 12.296621
55.790 12.112728
55.795 11.635989
55.800 11.106258
55.805 11.030142
55.810 10.805058
55.815 10.307477
55.820 10.546338
55.825 11.043888
55.830 11.811981
55.835 12.359756
55.840 12.781032
55.845 13.176487
55.850 13.244273
55.855 13.372368
55.860 13.234557
55.865 13.047413
55.870 12.874597
55.875 12.671767
55.880 12.633632
55.885 12.82487
55.890 13.261246
55.895 13.303096
55.900 12.964711
55.905 13.38644
55.910 14.173825
55.915 14.70952
55.920 14.903489
55.925 14.731684
55.930 14.814401
55.935 15.297537
55.940 15.517186
55.945 15.270395
55.950 14.867411
55.955 14.438929
55.960 14.034734
55.965 14.253635
55.970 14.09866
55.975 13.424964
55.980 13.686193
55.985 13.5102
55.990 13.533886
55.995 13.778038
56.000 13.51807
56.005 13.563881
56.010 13.539063
56.015 12.922442
56.020 12.578269
56.025 12.62519
56.030 12.779082
56.035 12.997267
56.040 13.278043
56.045 12.975907
56.050 12.963223
56.055 13.300184
56.060 13.165733
56.065 13.060029
56.070 13.100677
56.075 13.163466
56.080 13.046871
56.085 13.43672
56.090 13.449842
56.095 13.393475
56.100 13.246065
56.105 12.975639
56.110 12.698635
56.115 13.074144
56.120 12.854877
56.125 13.138431
56.130 12.99356
56.135 13.323313
56.140 13.455019
56.145 13.83262
56.150 13.932472
56.155 13.695435
56.160 13.653995
56.165 13.283936
56.170 13.099202
56.175 12.984923
56.180 12.624726
56.185 12.362467
56.190 12.32554
56.195 12.642035
56.200 13.047933
56.205 13.250389
56.210 13.456014
56.215 13.990401
56.220 14.764476
56.225 14.740284
56.230 15.15223
56.235 15.109008
56.240 14.812066
56.245 15.211503
56.250 14.913432
56.255 14.315003
56.260 14.019487
56.265 13.68674
56.270 13.827566
56.275 13.839513
56.280 13.025113
56.285 12.678955
56.290 13.035408
56.295 13.196936
56.300 13.295746
56.305 13.279275
56.310 13.613066
56.315 13.569786
56.320 13.334202
56.325 12.63889
56.330 12.1119
56.335 11.936048
56.340 11.923351
56.345 12.033643
56.350 11.995794
56.355 12.024093
56.360 12.147032
56.365 12.252231
56.370 12.367132
56.375 11.923339
56.380 11.565047
56.385 12.198531
56.390 12.744061
56.395 12.614795
56.400 13.044088
56.405 12.927608
56.410 12.942615
56.415 13.045807
56.420 12.8277
56.425 13.525434
56.430 13.853864
56.435 13.713099
56.440 13.979251
56.445 13.91744
56.450 14.032294
56.455 13.806357
56.460 13.716926
56.465 13.878221
56.470 13.795397
56.475 14.045879
56.480 14.196496
56.485 13.939028
56.490 14.788576
56.495 14.443959
56.500 14.201644
56.505 14.553536
56.510 14.471488
56.515 14.739195
56.520 14.56827
56.525 13.789945
56.530 13.671005
56.535 13.674297
56.540 13.107065
56.545 12.452052
56.550 12.332253
56.555 12.68983
56.560 12.651052
56.565 12.60031
56.570 12.198964
56.575 12.562714
56.580 13.113604
56.585 13.327438
56.590 13.918976
56.595 14.692889
56.600 14.997736
56.605 15.217623
56.610 15.210222
56.615 15.206036
56.620 14.85036
56.625 13.901123
56.630 13.027842
56.635 12.663996
56.640 12.406684
56.645 12.336266
56.650 12.227016
56.655 12.293067
56.660 12.947656
56.665 13.512608
56.670 13.742845
56.675 13.771742
56.680 13.96436
56.685 14.292238
56.690 14.761953
56.695 14.151007
56.700 14.286156
56.705 14.667818
56.710 14.732297
56.715 14.602506
56.720 14.003519
56.725 13.809242
56.730 14.531853
56.735 14.134625
56.740 14.437909
56.745 14.5339
56.750 14.503067
56.755 14.982971
56.760 14.890751
56.765 14.722413
56.770 15.277251
56.775 15.558369
56.780 15.616242
56.785 15.656911
56.790 15.542619
56.795 15.555463
56.800 15.661774
56.805 15.026299
56.810 14.754183
56.815 14.41712
56.820 14.689238
56.825 14.724624
56.830 14.531772
56.835 14.481507
56.840 14.246203
56.845 13.932472
56.850 14.203823
56.855 13.709201
56.860 13.699477
56.865 13.856244
56.870 13.54507
56.875 13.728965
56.880 14.027452
56.885 13.955015
56.890 14.18715
56.895 13.938699
56.900 14.054347
56.905 14.450925
56.910 14.313649
56.915 13.753286
56.920 13.424749
56.925 13.093459
56.930 13.318655
56.935 13.000566
56.940 12.158953
56.945 12.658136
56.950 12.783992
56.955 12.673803
56.960 12.837503
56.965 12.782681
56.970 13.243564
56.975 13.700334
56.980 14.015008
56.985 14.271427
56.990 14.873842
56.995 15.351896
57.000 15.526105
57.005 15.235826
57.010 14.932092
57.015 14.487107
57.020 15.148699
57.025 15.285281
57.030 14.639252
57.035 14.831832
57.040 15.215102
57.045 15.682557
57.050 16.218233
57.055 15.686533
57.060 15.12691
57.065 15.409546
57.070 15.138223
57.075 14.773986
57.080 14.535293
57.085 13.771518
57.090 13.795393
57.095 13.776173
57.100 13.453433
57.105 13.482049
57.110 13.184494
57.115 13.425646
57.120 13.50322
57.125 14.098864
57.130 14.27886
57.135 14.894791
57.140 14.811684
57.145 14.690214
57.150 13.920456
57.155 13.421558
57.160 13.226697
57.165 13.193002
57.170 12.838739
57.175 13.126373
57.180 13.371404
57.185 13.952806
57.190 14.317624
57.195 14.012325
57.200 14.181126
57.205 14.41379
57.210 14.417576
57.215 14.725098
57.220 14.926719
57.225 15.076021
57.230 14.644589
57.235 14.154134
57.240 13.774814
57.245 13.496737
57.250 13.09549
57.255 12.813217
57.260 13.019389
57.265 13.477801
57.270 13.490855
57.275 13.834852
57.280 14.533189
57.285 15.019573
57.290 15.474896
57.295 15.228562
57.300 15.23117
57.305 15.190212
57.310 15.057218
57.315 15.238703
57.320 15.574714
57.325 15.758835
57.330 15.88077
57.335 16.153545
57.340 16.256536
57.345 15.799889
57.350 15.033278
57.355 14.415093
57.360 14.756716
57.365 14.61898
57.370 14.49073
57.375 14.598812
57.380 15.053156
57.385 14.980404
57.390 14.894785
57.395 14.562329
57.400 14.849626
57.405 15.105185
57.410 14.813432
57.415 14.569438
57.420 14.888256
57.425 14.812186
57.430 14.517324
57.435 14.120993
57.440 13.890988
57.445 14.121641
57.450 14.329709
57.455 14.220814
57.460 14.32814
57.465 14.611156
57.470 14.982715
57.475 15.413537
57.480 15.56763
57.485 15.308923
57.490 15.337558
57.495 15.025622
57.500 14.673495
57.505 14.521334
57.510 13.731359
57.515 13.781456
57.520 14.384001
57.525 14.577307
57.530 14.764347
57.535 14.883204
57.540 15.040772
57.545 15.140459
57.550 15.048726
57.555 14.713008
57.560 14.760618
57.565 14.915434
57.570 15.034856
57.575 14.717036
57.580 14.821763
57.585 15.298383
57.590 15.016816
57.595 14.477684
57.600 13.969552
57.605 14.131991
57.610 14.366272
57.615 14.060368
57.620 13.983892
57.625 14.559723
57.630 15.02559
57.635 15.049024
57.640 14.572399
57.645 13.949525
57.650 13.805819
57.655 13.374662
57.660 13.354058
57.665 13.075467
57.670 13.095184
57.675 13.796894
57.680 14.563874
57.685 14.537768
57.690 14.726778
57.695 14.612127
57.700 14.499956
57.705 14.446698
57.710 13.978514
57.715 13.7051
57.720 13.683412
57.725 13.798849
57.730 13.845363
57.735 13.889734
57.740 13.981538
57.745 14.536057
57.750 15.022308
57.755 14.971821
57.760 14.690842
57.765 14.54276
57.770 15.049412
57.775 15.082051
57.780 14.463182
57.785 14.353461
57.790 14.359823
57.795 13.973195
57.800 13.68955
57.805 13.237039
57.810 12.664989
57.815 12.98861
57.820 13.469544
57.825 13.41905
57.830 14.039784
57.835 14.227851
57.840 14.487514
57.845 15.082216
57.850 14.905924
57.855 14.263441
57.860 14.235718
57.865 13.70368
57.870 13.817987
57.875 13.889962
57.880 13.631674
57.885 14.099671
57.890 14.474753
57.895 14.387641
57.900 14.691936
57.905 14.122552
57.910 13.810173
57.915 14.046123
57.920 13.748374
57.925 13.372113
57.930 13.65195
57.935 13.950002
57.940 14.51695
57.945 14.610929
57.950 14.332248
57.955 13.715988
57.960 13.573085
57.965 13.103912
57.970 12.425733
57.975 12.606184
57.980 12.819451
57.985 13.14182
57.990 13.549664
57.995 14.035728
58.000 14.30794
58.005 14.918476
58.010 14.884507
58.015 14.868281
58.020 15.300462
58.025 15.264912
58.030 15.285591
58.035 15.500046
58.040 15.932372
58.045 16.047468
58.050 16.128477
58.055 16.175587
58.060 16.759605
58.065 16.429617
58.070 16.239433
58.075 15.860638
58.080 15.489866
58.085 15.084344
58.090 14.966014
58.095 14.377866
58.100 14.795617
58.105 15.54962
58.110 15.630659
58.115 16.087446
58.120 16.432074
58.125 16.133747
58.130 16.272108
58.135 16.11804
58.140 15.295341
58.145 14.727997
58.150 14.193017
58.155 13.993366
58.160 14.188747
58.165 14.528846
58.170 15.040297
58.175 15.459991
58.180 15.713503
58.185 15.89573
58.190 16.080566
58.195 16.607904
58.200 16.204193
58.205 15.994616
58.210 16.048222
58.215 16.22788
58.220 16.491217
58.225 16.534983
58.230 15.963652
58.235 16.120844
58.240 15.919463
58.245 15.753089
58.250 15.456216
58.255 14.969209
58.260 14.556997
58.265 14.548396
58.270 14.829261
58.275 15.050264
58.280 15.060097
58.285 15.197116
58.290 15.298369
58.295 15.679504
58.300 15.80726
58.305 15.687526
58.310 15.705092
58.315 15.597232
58.320 15.055735
58.325 14.952504
58.330 14.794649
58.335 14.821687
58.340 14.819283
58.345 14.591918
58.350 14.334722
58.355 14.739019
58.360 14.789869
58.365 14.578478
58.370 14.514956
58.375 14.157644
58.380 13.982468
58.385 14.255082
58.390 14.22844
58.395 14.274778
58.400 14.270119
58.405 14.329144
58.410 14.161406
58.415 14.129601
58.420 14.586525
58.425 15.053586
58.430 14.890756
58.435 15.348979
58.440 15.858364
58.445 16.718779
58.450 17.205099
58.455 17.266344
58.460 16.953621
58.465 17.381033
58.470 17.221245
58.475 16.593201
