!@!!GADDS PLOTSO FILE: Chi integration type
!@!!Title/SampleName: map-78
!@!!Comment: ?
!@!!User: Bruker Instrument Administrator
!@!!Site: University of Illinois Chicago
!@!!Frame: map-78_01_000.gfrm
!@!!Wavelengths    1.54184   1.54056   1.54439
!@!!Frame angles: 2Theta: 63.000 Omega: 50.000 Phi: 0.000 Chi: 90.000
!@!!Integration range: 2Theta: 53.000 to 73.000  Gamma: -105.000 to -75.000
!@!!Integration method: bin normalized
!@!N
!@!SS
!@!M
!@!L 0.0 0.0 0.0 0.0
!@!XDegrees
!@!YCounts
53.000 8.188766
53.005 8.197534
53.010 8.614233
53.015 8.88674
53.020 9.140213
53.025 9.116377
53.030 8.901382
53.035 8.650027
53.040 8.838036
53.045 9.13085
53.050 9.263952
53.055 9.249984
53.060 9.383043
53.065 9.506698
53.070 9.427786
53.075 9.312978
53.080 8.920197
53.085 8.787714
53.090 9.220332
53.095 9.569333
53.100 9.895482
53.105 9.847109
53.110 9.749521
53.115 9.970636
53.120 10.041012
53.125 9.580532
53.130 9.762813
53.135 9.89673
53.140 9.789563
53.145 9.932548
53.150 9.87668
53.155 9.661999
53.160 9.385837
53.165 8.698133
53.170 8.793354
53.175 8.721232
53.180 8.559599
53.185 8.555311
53.190 8.683909
53.195 9.210322
53.200 9.386096
53.205 9.475898
53.210 9.836399
53.215 9.635514
53.220 9.608953
53.225 9.669693
53.230 9.421185
53.235 9.702374
53.240 9.548126
53.245 9.086941
53.250 8.789939
53.255 8.538341
53.260 8.210862
53.265 8.095151
53.270 8.031487
53.275 8.414212
53.280 8.755734
53.285 8.886748
53.290 9.08565
53.295 9.317232
53.300 9.426405
53.305 9.402879
53.310 9.356424
53.315 9.411626
53.320 10.238104
53.325 10.179664
53.330 10.096598
53.335 9.911276
53.340 9.691339
53.345 9.660853
53.350 9.584708
53.355 8.875139
53.360 8.8735
53.365 8.762808
53.370 8.503755
53.375 8.536377
53.380 8.515713
53.385 8.691817
53.390 9.18247
53.395 9.620216
53.400 9.958916
53.405 10.277158
53.410 10.531842
53.415 10.800437
53.420 10.735909
53.425 10.160372
53.430 9.899717
53.435 9.778486
53.440 9.77158
53.445 9.630707
53.450 9.459941
53.455 9.536049
53.460 9.968938
53.465 10.191196
53.470 9.919864
53.475 10.295751
53.480 10.734587
53.485 11.175895
53.490 11.529173
53.495 11.447431
53.500 11.665634
53.505 11.716059
53.510 11.22451
53.515 11.161328
53.520 10.627231
53.525 10.133615
53.530 9.416985
53.535 9.103531
53.540 9.488438
53.545 9.258385
53.550 9.373646
53.555 9.475652
53.560 9.733203
53.565 10.430386
53.570 10.464405
53.575 10.260971
53.580 10.545622
53.585 10.061691
53.590 10.00348
53.595 9.983946
53.600 9.699768
53.605 9.525847
53.610 9.130381
53.615 9.107769
53.620 9.054863
53.625 9.466949
53.630 9.416684
53.635 9.806119
53.640 10.021729
53.645 10.210092
53.650 10.281741
53.655 10.270506
53.660 9.956511
53.665 9.932658
53.670 9.950208
53.675 10.142271
53.680 10.431918
53.685 10.507295
53.690 10.478651
53.695 10.472654
53.700 10.164829
53.705 9.906492
53.710 9.723904
53.715 9.871796
53.720 9.95167
53.725 9.841993
53.730 10.061492
53.735 10.285965
53.740 10.351027
53.745 9.962739
53.750 9.343517
53.755 9.535797
53.760 9.5564
53.765 9.472243
53.770 9.665293
53.775 9.574512
53.780 9.864451
53.785 9.980492
53.790 10.323682
53.795 10.308419
53.800 10.334367
53.805 10.521646
53.810 10.662571
53.815 10.773206
53.820 10.681958
53.825 10.293427
53.830 10.441306
53.835 10.436032
53.840 10.16623
53.845 10.146081
53.850 9.857801
53.855 9.726499
53.860 9.756293
53.865 10.048575
53.870 9.849555
53.875 9.640079
53.880 9.532957
53.885 9.574577
53.890 9.646111
53.895 9.576208
53.900 9.164504
53.905 8.968755
53.910 9.09592
53.915 9.402374
53.920 9.773523
53.925 9.739639
53.930 9.669093
53.935 9.885178
53.940 10.104347
53.945 9.851618
53.950 9.260845
53.955 9.106876
53.960 8.944811
53.965 8.729669
53.970 8.896831
53.975 8.962134
53.980 9.11552
53.985 9.624885
53.990 9.58083
53.995 9.691329
54.000 9.665013
54.005 9.626998
54.010 9.717641
54.015 9.407081
54.020 9.324896
54.025 9.590259
54.030 9.731413
54.035 9.844311
54.040 9.825135
54.045 9.661389
54.050 10.094777
54.055 9.908186
54.060 9.744411
54.065 10.002363
54.070 10.015824
54.075 10.284744
54.080 10.704069
54.085 10.88526
54.090 11.125454
54.095 11.196996
54.100 11.430215
54.105 11.299358
54.110 11.114388
54.115 10.773885
54.120 10.463781
54.125 10.631018
54.130 10.369472
54.135 9.862413
54.140 10.084623
54.145 10.355877
54.150 10.648181
54.155 10.932848
54.160 10.20645
54.165 10.275341
54.170 10.451878
54.175 10.357141
54.180 10.156062
54.185 9.743256
54.190 9.997273
54.195 10.00282
54.200 9.992568
54.205 9.88205
54.210 10.081279
54.215 10.107697
54.220 10.187807
54.225 9.972782
54.230 10.299696
54.235 10.59444
54.240 10.612619
54.245 10.612766
54.250 10.744681
54.255 10.737523
54.260 11.232114
54.265 10.845693
54.270 10.834339
54.275 11.336316
54.280 11.216781
54.285 10.973793
54.290 11.185247
54.295 11.195649
54.300 11.396136
54.305 11.392267
54.310 11.356652
54.315 11.428364
54.320 10.981103
54.325 11.110423
54.330 11.190331
54.335 11.381405
54.340 10.938025
54.345 10.305266
54.350 10.422405
54.355 10.588524
54.360 10.297334
54.365 10.276834
54.370 10.358468
54.375 10.422336
54.380 10.491947
54.385 10.23473
54.390 10.261664
54.395 10.216575
54.400 10.204539
54.405 10.408945
54.410 10.948643
54.415 11.574493
54.420 12.02477
54.425 11.504863
54.430 11.437415
54.435 11.308745
54.440 10.814997
54.445 10.657106
54.450 10.042068
54.455 10.235124
54.460 10.818238
54.465 10.548291
54.470 10.715858
54.475 10.941693
54.480 10.851283
54.485 11.047335
54.490 10.756314
54.495 10.514946
54.500 10.611498
54.505 10.518998
54.510 10.149835
54.515 9.861223
54.520 10.114975
54.525 10.064485
54.530 10.046255
54.535 9.949705
54.540 9.649488
54.545 9.929051
54.550 9.971926
54.555 9.869329
54.560 9.848304
54.565 10.082963
54.570 9.99557
54.575 10.794148
54.580 10.697062
54.585 10.910966
54.590 10.779696
54.595 11.39213
54.600 11.765608
54.605 11.47443
54.610 11.263594
54.615 11.559773
54.620 11.512525
54.625 11.179522
54.630 10.426919
54.635 9.99122
54.640 10.082074
54.645 9.516789
54.650 9.475869
54.655 9.905392
54.660 10.228075
54.665 10.252608
54.670 10.266196
54.675 10.740904
54.680 10.909583
54.685 10.731958
54.690 10.643745
54.695 10.971003
54.700 11.528611
54.705 11.388002
54.710 10.789087
54.715 11.007773
54.720 11.272264
54.725 11.405387
54.730 11.206753
54.735 11.190168
54.740 11.718856
54.745 12.411588
54.750 12.55765
54.755 12.181513
54.760 12.30123
54.765 12.479207
54.770 12.887369
54.775 13.130074
54.780 12.489177
54.785 12.418252
54.790 12.139739
54.795 11.788803
54.800 11.578564
54.805 11.18235
54.810 10.700066
54.815 10.335287
54.820 10.177451
54.825 10.525782
54.830 10.743353
54.835 10.447114
54.840 10.526896
54.845 10.811426
54.850 10.66942
54.855 10.486203
54.860 10.38694
54.865 10.285424
54.870 10.42586
54.875 10.542944
54.880 10.547504
54.885 10.910897
54.890 11.119965
54.895 11.287579
54.900 11.683696
54.905 11.916315
54.910 11.749525
54.915 11.954204
54.920 12.43905
54.925 12.242093
54.930 12.061922
54.935 11.617234
54.940 10.884165
54.945 10.428381
54.950 10.222292
54.955 9.618337
54.960 9.445321
54.965 9.425838
54.970 9.652665
54.975 10.058803
54.980 10.217907
54.985 10.276007
54.990 10.748032
54.995 11.251921
55.000 11.326463
55.005 11.377777
55.010 11.282433
55.015 11.467264
55.020 11.461557
55.025 11.319205
55.030 11.083532
55.035 10.682183
55.040 10.955987
55.045 11.429963
55.050 11.739356
55.055 11.384439
55.060 11.297132
55.065 11.358113
55.070 11.794906
55.075 11.388857
55.080 11.050485
55.085 11.671178
55.090 12.140299
55.095 12.185506
55.100 12.029921
55.105 11.867618
55.110 12.137508
55.115 12.088889
55.120 11.485901
55.125 11.210398
55.130 11.362945
55.135 11.411894
55.140 10.770597
55.145 10.656968
55.150 10.484673
55.155 10.563778
55.160 10.843434
55.165 10.492026
55.170 10.781679
55.175 11.334656
55.180 11.211106
55.185 11.472488
55.190 11.328882
55.195 11.44109
55.200 11.616615
55.205 11.670855
55.210 12.096213
55.215 12.096983
55.220 12.265858
55.225 12.382415
55.230 12.386395
55.235 12.680021
55.240 12.505636
55.245 12.407852
55.250 12.60439
55.255 12.299636
55.260 12.240058
55.265 12.213782
55.270 12.142533
55.275 11.952891
55.280 11.675101
55.285 11.521116
55.290 11.379465
55.295 10.901842
55.300 10.914347
55.305 10.633082
55.310 10.197725
55.315 10.253801
55.320 10.48234
55.325 11.167668
55.330 11.570731
55.335 11.255731
55.340 11.880763
55.345 12.119552
55.350 12.1548
55.355 11.840402
55.360 12.167514
55.365 12.180892
55.370 12.487289
55.375 12.554697
55.380 12.761761
55.385 12.818508
55.390 12.891401
55.395 12.391178
55.400 12.275879
55.405 12.028806
55.410 11.929646
55.415 12.119088
55.420 12.494083
55.425 12.218971
55.430 12.001366
55.435 11.932608
55.440 11.72498
55.445 11.651259
55.450 11.278551
55.455 10.706663
55.460 11.262291
55.465 11.560221
55.470 11.389305
55.475 11.218122
55.480 10.991387
55.485 10.96352
55.490 11.270109
55.495 11.666164
55.500 12.032667
55.505 12.502801
55.510 12.863222
55.515 13.327326
55.520 13.634498
55.525 13.087187
55.530 12.991142
55.535 12.678486
55.540 12.284091
55.545 11.695747
55.550 11.363992
55.555 11.387385
55.560 10.586658
55.565 9.677135
55.570 9.925459
55.575 10.206993
55.580 10.490254
55.585 10.513952
55.590 10.592078
55.595 11.171309
55.600 10.970732
55.605 10.407726
55.610 10.446906
55.615 10.417204
55.620 10.157561
55.625 10.242249
55.630 10.604096
55.635 11.417614
55.640 11.899675
55.645 11.762392
55.650 11.912009
55.655 12.188608
55.660 12.457693
55.665 12.41936
55.670 12.134956
55.675 11.494252
55.680 11.233037
55.685 11.587931
55.690 11.859699
55.695 11.570807
55.700 11.5038
55.705 11.748691
55.710 11.860145
55.715 12.02122
55.720 11.718347
55.725 11.851892
55.730 11.963383
55.735 11.798974
55.740 11.688704
55.745 11.935643
55.750 12.123343
55.755 11.893449
55.760 11.245242
55.765 11.338632
55.770 11.188039
55.775 11.319955
55.780 11.408917
55.785 11.310489
55.790 11.417555
55.795 12.005978
55.800 12.002213
55.805 12.156994
55.810 12.343006
55.815 12.723803
55.820 13.087939
55.825 12.993556
55.830 12.748424
55.835 13.111476
55.840 13.396703
55.845 13.635341
55.850 13.0903
55.855 13.056603
55.860 12.852149
55.865 12.967812
55.870 12.800595
55.875 12.748141
55.880 12.47481
55.885 12.536487
55.890 12.375283
55.895 12.411305
55.900 12.218155
55.905 11.779392
55.910 11.974124
55.915 12.303566
55.920 12.876101
55.925 12.774421
55.930 12.622785
55.935 13.0645
55.940 13.468429
55.945 13.369725
55.950 13.502885
55.955 13.210285
55.960 13.439108
55.965 13.396197
55.970 13.317156
55.975 13.492616
55.980 13.479345
55.985 13.34665
55.990 13.468842
55.995 13.339935
56.000 13.229685
56.005 12.597117
56.010 12.422644
56.015 12.131971
56.020 11.767237
56.025 11.612565
56.030 11.493335
56.035 11.764734
56.040 11.723927
56.045 11.981174
56.050 12.114369
56.055 12.03071
56.060 12.281672
56.065 11.937013
56.070 11.860919
56.075 11.679323
56.080 11.309464
56.085 11.449908
56.090 11.229761
56.095 11.412334
56.100 11.922927
56.105 12.572342
56.110 12.519089
56.115 12.009439
56.120 11.826542
56.125 11.589695
56.130 11.257678
56.135 10.948629
56.140 10.357673
56.145 10.716734
56.150 11.04055
56.155 11.021069
56.160 11.191585
56.165 11.517527
56.170 11.865196
56.175 12.361457
56.180 12.643565
56.185 12.634777
56.190 13.228373
56.195 13.841116
56.200 13.947206
56.205 14.364302
56.210 14.014579
56.215 13.456689
56.220 13.309813
56.225 13.295912
56.230 12.96261
56.235 12.634454
56.240 12.264028
56.245 12.945977
56.250 13.913353
56.255 14.058702
56.260 13.688488
56.265 13.921625
56.270 13.866217
56.275 13.634092
56.280 12.859288
56.285 12.200073
56.290 12.011631
56.295 11.661139
56.300 11.330398
56.305 11.684217
56.310 12.371641
56.315 12.671892
56.320 12.592669
56.325 13.039496
56.330 13.22471
56.335 13.353025
56.340 13.011467
56.345 12.520549
56.350 12.558327
56.355 12.724704
56.360 12.476151
56.365 12.78328
56.370 12.7616
56.375 12.737077
56.380 12.848118
56.385 12.576905
56.390 12.513066
56.395 13.080655
56.400 12.914568
56.405 12.885398
56.410 12.597698
56.415 12.171918
56.420 12.068076
56.425 11.929332
56.430 11.635889
56.435 11.57302
56.440 11.705892
56.445 12.365354
56.450 12.800534
56.455 12.968994
56.460 12.784122
56.465 12.726953
56.470 12.71172
56.475 12.284476
56.480 11.783278
56.485 12.065816
56.490 12.525134
56.495 12.766585
56.500 13.019833
56.505 13.540998
56.510 13.834797
56.515 13.738218
56.520 13.156471
56.525 13.066677
56.530 13.15587
56.535 12.825044
56.540 12.784484
56.545 12.686283
56.550 12.981263
56.555 12.831921
56.560 12.59628
56.565 12.246722
56.570 12.045751
56.575 11.679868
56.580 11.913733
56.585 12.085196
56.590 12.244653
56.595 12.054437
56.600 12.353164
56.605 12.845252
56.610 13.415021
56.615 13.490417
56.620 13.262943
56.625 14.029551
56.630 14.405836
56.635 14.161614
56.640 13.964908
56.645 13.704939
56.650 13.613227
56.655 13.893159
56.660 13.712157
56.665 14.22813
56.670 13.514972
56.675 13.283992
56.680 12.971163
56.685 13.060411
56.690 13.096088
56.695 13.012486
56.700 13.146864
56.705 13.85221
56.710 14.305637
56.715 14.388885
56.720 14.310905
56.725 14.200323
56.730 13.241155
56.735 12.800966
56.740 12.725439
56.745 12.590181
56.750 12.826344
56.755 12.593006
56.760 12.861528
56.765 13.426712
56.770 13.256093
56.775 12.884651
56.780 12.633917
56.785 12.389343
56.790 12.692978
56.795 12.878975
56.800 13.081161
56.805 13.256468
56.810 13.306567
56.815 13.411485
56.820 13.047869
56.825 12.709156
56.830 12.355986
56.835 11.689544
56.840 11.936062
56.845 12.169477
56.850 12.563194
56.855 12.718972
56.860 12.540294
56.865 12.324097
56.870 12.351419
56.875 12.563413
56.880 11.876101
56.885 11.486469
56.890 11.436634
56.895 11.268596
56.900 11.744633
56.905 12.233398
56.910 12.08498
56.915 12.540759
56.920 12.46209
56.925 12.778679
56.930 13.328183
56.935 13.463099
56.940 13.067754
56.945 12.910753
56.950 12.921083
56.955 12.780149
56.960 12.416617
56.965 12.38945
56.970 12.417408
56.975 12.656697
56.980 12.994367
56.985 12.970687
56.990 13.275469
56.995 13.431444
57.000 12.886225
57.005 12.485518
57.010 12.319868
57.015 12.42346
57.020 12.345908
57.025 12.591571
57.030 13.155318
57.035 14.088613
57.040 14.349082
57.045 14.451665
57.050 14.363307
57.055 14.864488
57.060 14.774464
57.065 14.167295
57.070 13.566696
57.075 13.471818
57.080 13.201191
57.085 13.307186
57.090 13.036836
57.095 12.845238
57.100 13.025966
57.105 13.216083
57.110 12.891853
57.115 13.006938
57.120 12.469873
57.125 12.20539
57.130 12.625711
57.135 12.94908
57.140 13.203082
57.145 13.562973
57.150 13.787403
57.155 13.872279
57.160 13.966212
57.165 13.5267
57.170 12.968534
57.175 12.801985
57.180 12.88872
57.185 13.173285
57.190 13.221318
57.195 13.252678
57.200 13.519201
57.205 13.478115
57.210 13.557662
57.215 13.196415
57.220 13.107128
57.225 12.90683
57.230 12.828297
57.235 12.94872
57.240 12.86911
57.245 12.880847
57.250 12.648215
57.255 12.485269
57.260 12.827657
57.265 12.781748
57.270 12.818708
57.275 12.878737
57.280 13.184273
57.285 13.628706
57.290 13.771173
57.295 14.00062
57.300 14.170491
57.305 14.348889
57.310 14.483605
57.315 14.642462
57.320 14.824747
57.325 14.468406
57.330 14.466347
57.335 14.402608
57.340 14.231546
57.345 13.805726
57.350 13.149334
57.355 12.855832
57.360 13.244054
57.365 13.475409
57.370 13.031553
57.375 12.956182
57.380 13.308311
57.385 13.289514
57.390 13.585057
57.395 13.274196
57.400 13.145935
57.405 13.34945
57.410 13.606168
57.415 13.877039
57.420 13.988002
57.425 14.067697
57.430 13.97792
57.435 14.261143
57.440 14.488979
57.445 14.211866
57.450 14.000535
57.455 13.707377
57.460 13.297737
57.465 13.123507
57.470 12.964222
57.475 12.932067
57.480 13.17483
57.485 13.274395
57.490 13.585837
57.495 14.296248
57.500 14.649458
57.505 14.397069
57.510 14.368632
57.515 14.351796
57.520 14.652863
57.525 14.521285
57.530 14.527234
57.535 14.689989
57.540 15.00771
57.545 15.239663
57.550 15.459644
57.555 15.586928
57.560 15.646536
57.565 15.196866
57.570 15.240846
57.575 14.680874
57.580 14.185387
57.585 13.762075
57.590 13.359344
57.595 13.671079
57.600 13.934755
57.605 13.501735
57.610 13.758175
57.615 13.971128
57.620 14.518888
57.625 14.524046
57.630 14.32391
57.635 14.29277
57.640 14.546403
57.645 14.649795
57.650 14.531108
57.655 14.274721
57.660 14.161024
57.665 14.046977
57.670 13.883529
57.675 13.535373
57.680 13.462669
57.685 13.043036
57.690 12.885481
57.695 13.056998
57.700 12.650556
57.705 12.830215
57.710 13.245005
57.715 13.276016
57.720 13.652367
57.725 13.892925
57.730 14.044754
57.735 14.533937
57.740 14.620148
57.745 14.336036
57.750 14.177038
57.755 14.415871
57.760 14.521896
57.765 14.565536
57.770 14.514357
57.775 14.3301
57.780 14.695767
57.785 14.647622
57.790 13.823077
57.795 13.250536
57.800 12.836665
57.805 12.753081
57.810 12.88583
57.815 13.228211
57.820 13.738729
57.825 13.834292
57.830 13.810181
57.835 14.147814
57.840 14.501198
57.845 14.091786
57.850 14.134717
57.855 13.965789
57.860 14.237026
57.865 14.408305
57.870 13.858905
57.875 13.564248
57.880 14.050362
57.885 13.785676
57.890 14.273881
57.895 14.78771
57.900 15.278472
57.905 15.558681
57.910 15.810522
57.915 15.620356
57.920 15.647371
57.925 15.587184
57.930 15.109912
57.935 14.365942
57.940 14.21477
57.945 14.54936
57.950 14.858884
57.955 14.594579
57.960 14.744308
57.965 15.36699
57.970 15.873016
57.975 16.315123
57.980 16.086554
57.985 15.851975
57.990 15.676805
57.995 15.392457
58.000 15.287168
58.005 15.321392
58.010 14.472942
58.015 14.468307
58.020 14.547623
58.025 13.914713
58.030 13.712952
58.035 13.58668
58.040 13.605161
58.045 13.907739
58.050 13.823901
58.055 14.231645
58.060 14.982836
58.065 14.913847
58.070 15.154794
58.075 14.958169
58.080 15.457278
58.085 15.782823
58.090 15.917639
58.095 16.160713
58.100 16.139061
58.105 16.173712
58.110 16.266077
58.115 16.35309
58.120 15.955113
58.125 15.631372
58.130 15.076077
58.135 14.951052
58.140 14.703019
58.145 14.247071
58.150 13.271179
58.155 12.885695
58.160 12.673583
58.165 13.2275
58.170 13.622745
58.175 14.098825
58.180 14.877988
58.185 15.569575
58.190 16.213125
58.195 16.679764
58.200 16.40983
58.205 16.237875
58.210 16.153526
58.215 16.010323
58.220 15.830189
58.225 15.432126
58.230 14.767425
58.235 14.431736
58.240 14.453244
58.245 13.97686
58.250 13.510592
58.255 13.357408
58.260 13.935786
58.265 14.278909
58.270 14.609938
58.275 14.68907
58.280 14.89298
58.285 15.321012
58.290 15.138985
58.295 14.719236
58.300 15.24095
58.305 15.442928
58.310 14.836954
58.315 14.567669
58.320 14.237309
58.325 14.70949
58.330 14.334882
58.335 14.275695
58.340 14.725896
58.345 15.30709
58.350 15.503469
58.355 15.50758
58.360 15.870317
58.365 16.64282
58.370 16.287428
58.375 15.832891
58.380 15.596022
58.385 15.582714
58.390 15.764675
58.395 15.228902
58.400 14.898304
58.405 14.975785
58.410 15.224963
58.415 15.216881
58.420 15.190088
58.425 15.09078
58.430 15.264501
58.435 14.827614
58.440 14.621571
58.445 14.463262
58.450 14.615608
58.455 14.631007
58.460 14.842516
58.465 14.779657
58.470 14.952794
58.475 15.015915
58.480 14.888716
58.485 14.988885
