!@!!GADDS PLOTSO FILE: Chi integration type
!@!!Title/SampleName: map-46
!@!!Comment: ?
!@!!User: Bruker Instrument Administrator
!@!!Site: University of Illinois Chicago
!@!!Frame: map-46_01_000.gfrm
!@!!Wavelengths    1.54184   1.54056   1.54439
!@!!Frame angles: 2Theta: 63.000 Omega: 50.000 Phi: 0.000 Chi: 90.000
!@!!Integration range: 2Theta: 53.000 to 73.000  Gamma: -105.000 to -75.000
!@!!Integration method: bin normalized
!@!N
!@!SS
!@!M
!@!L 0.0 0.0 0.0 0.0
!@!XDegrees
!@!YCounts
53.000 10.331453
53.005 10.289637
53.010 9.573754
53.015 9.148505
53.020 9.241062
53.025 9.151574
53.030 9.478499
53.035 9.684278
53.040 10.250815
53.045 10.418214
53.050 10.433556
53.055 10.677712
53.060 10.388898
53.065 10.425435
53.070 10.465525
53.075 10.549638
53.080 10.615801
53.085 10.831605
53.090 11.26449
53.095 11.881773
53.100 11.899443
53.105 11.637209
53.110 11.544068
53.115 10.93548
53.120 10.218021
53.125 9.495681
53.130 8.679604
53.135 9.044068
53.140 9.615365
53.145 9.890738
53.150 10.088304
53.155 10.285741
53.160 10.62689
53.165 10.808259
53.170 10.369004
53.175 10.106763
53.180 9.870358
53.185 9.639707
53.190 10.072168
53.195 10.347006
53.200 10.368534
53.205 10.221414
53.210 10.087012
53.215 10.640322
53.220 11.218843
53.225 11.518862
53.230 10.9418
53.235 10.863441
53.240 10.924946
53.245 10.734028
53.250 10.26479
53.255 10.032516
53.260 9.592018
53.265 9.861814
53.270 9.840049
53.275 9.753231
53.280 10.105649
53.285 10.41526
53.290 10.162004
53.295 9.875997
53.300 9.805677
53.305 9.944076
53.310 9.904188
53.315 9.391112
53.320 9.046909
53.325 9.426521
53.330 9.908487
53.335 10.515384
53.340 10.957245
53.345 10.905934
53.350 11.494538
53.355 11.703441
53.360 11.320562
53.365 10.877197
53.370 10.516549
53.375 10.486556
53.380 10.44431
53.385 9.924254
53.390 9.991594
53.395 10.273909
53.400 10.330041
53.405 9.828875
53.410 9.69348
53.415 9.714492
53.420 10.437803
53.425 10.544427
53.430 10.444978
53.435 10.606903
53.440 10.858654
53.445 10.886981
53.450 10.691243
53.455 10.36257
53.460 10.189078
53.465 10.644005
53.470 10.797854
53.475 10.607085
53.480 10.755382
53.485 10.86275
53.490 10.315372
53.495 10.131502
53.500 9.898273
53.505 10.055206
53.510 10.206793
53.515 10.271651
53.520 10.416106
53.525 11.029774
53.530 10.942042
53.535 10.347272
53.540 10.335547
53.545 10.714532
53.550 10.749391
53.555 11.203788
53.560 10.977238
53.565 11.247825
53.570 11.522908
53.575 11.404512
53.580 11.139281
53.585 10.835678
53.590 10.796063
53.595 11.132181
53.600 11.265097
53.605 11.192936
53.610 10.972578
53.615 11.132415
53.620 11.536496
53.625 11.07174
53.630 10.927173
53.635 10.832712
53.640 10.827607
53.645 10.745788
53.650 10.677727
53.655 10.546698
53.660 10.938972
53.665 10.85799
53.670 10.766778
53.675 11.136199
53.680 11.267597
53.685 11.451238
53.690 11.153181
53.695 11.238414
53.700 11.772279
53.705 11.747792
53.710 11.541076
53.715 11.547684
53.720 11.315044
53.725 11.346494
53.730 11.192557
53.735 11.552311
53.740 11.719482
53.745 11.519506
53.750 11.362688
53.755 11.36234
53.760 11.095243
53.765 10.839978
53.770 10.355288
53.775 10.320249
53.780 10.531264
53.785 10.772378
53.790 11.136232
53.795 11.298331
53.800 11.318329
53.805 11.164353
53.810 11.404658
53.815 11.636126
53.820 11.765079
53.825 12.011311
53.830 12.124184
53.835 12.201645
53.840 11.972023
53.845 11.59091
53.850 11.384217
53.855 11.561019
53.860 10.918505
53.865 10.17305
53.870 10.05916
53.875 10.418777
53.880 10.272916
53.885 10.083954
53.890 9.865772
53.895 10.598083
53.900 10.939833
53.905 10.77281
53.910 10.627766
53.915 10.897991
53.920 10.829381
53.925 11.212506
53.930 11.478673
53.935 11.961032
53.940 12.434376
53.945 12.060029
53.950 11.731207
53.955 11.505497
53.960 10.641923
53.965 10.548779
53.970 10.121854
53.975 10.081952
53.980 10.3648
53.985 10.501529
53.990 10.736227
53.995 10.800784
54.000 10.178331
54.005 10.233901
54.010 10.162263
54.015 10.367926
54.020 10.334701
54.025 10.5115
54.030 10.601472
54.035 10.748713
54.040 10.655666
54.045 10.581254
54.050 10.384615
54.055 10.332758
54.060 10.360733
54.065 11.130882
54.070 11.694323
54.075 11.74371
54.080 11.924506
54.085 12.038363
54.090 11.880838
54.095 11.614535
54.100 10.790827
54.105 10.528758
54.110 10.796573
54.115 10.807077
54.120 10.636642
54.125 11.0519
54.130 11.432857
54.135 12.011686
54.140 12.286505
54.145 11.967597
54.150 11.849647
54.155 12.341948
54.160 12.116143
54.165 11.724049
54.170 11.16414
54.175 10.716778
54.180 10.485105
54.185 10.703707
54.190 10.483559
54.195 10.77866
54.200 11.463276
54.205 11.599116
54.210 11.56654
54.215 11.741417
54.220 11.607283
54.225 11.407959
54.230 11.396588
54.235 12.060996
54.240 12.125483
54.245 12.222695
54.250 12.165687
54.255 11.853146
54.260 11.601328
54.265 11.299048
54.270 10.565951
54.275 10.790718
54.280 10.890087
54.285 10.701215
54.290 10.724644
54.295 11.03153
54.300 11.004086
54.305 11.123768
54.310 11.109614
54.315 11.153296
54.320 11.629984
54.325 12.053387
54.330 12.348137
54.335 12.268331
54.340 12.193424
54.345 12.515312
54.350 12.51217
54.355 12.360065
54.360 12.213163
54.365 11.620052
54.370 11.279799
54.375 11.204457
54.380 11.016047
54.385 10.930555
54.390 11.68584
54.395 11.728286
54.400 11.680433
54.405 12.137733
54.410 11.729441
54.415 11.994487
54.420 12.070989
54.425 11.246995
54.430 11.262592
54.435 11.416897
54.440 11.606446
54.445 11.515071
54.450 11.318094
54.455 11.366852
54.460 11.334198
54.465 11.347112
54.470 11.472789
54.475 11.625221
54.480 11.750361
54.485 11.631679
54.490 11.213554
54.495 10.954913
54.500 10.538907
54.505 10.087068
54.510 10.217257
54.515 10.151474
54.520 10.415231
54.525 11.062696
54.530 11.814197
54.535 12.108738
54.540 11.99137
54.545 12.224135
54.550 12.611821
54.555 12.681901
54.560 11.783109
54.565 11.60092
54.570 12.155367
54.575 12.234347
54.580 11.557908
54.585 11.327583
54.590 11.084836
54.595 11.613988
54.600 11.406284
54.605 11.380355
54.610 11.639536
54.615 12.008735
54.620 12.129896
54.625 12.524263
54.630 12.732789
54.635 12.953671
54.640 13.102899
54.645 13.273029
54.650 13.242906
54.655 13.21899
54.660 13.709729
54.665 13.916473
54.670 13.819033
54.675 13.166033
54.680 12.939674
54.685 12.686055
54.690 12.179062
54.695 11.432757
54.700 11.380933
54.705 11.46083
54.710 11.575306
54.715 11.290914
54.720 11.538133
54.725 12.164849
54.730 12.005779
54.735 11.638669
54.740 11.418946
54.745 11.596283
54.750 12.19111
54.755 11.995987
54.760 12.10586
54.765 12.482432
54.770 12.855836
54.775 13.514704
54.780 13.017079
54.785 12.534452
54.790 12.675177
54.795 12.608688
54.800 12.487781
54.805 12.00504
54.810 11.424039
54.815 11.668126
54.820 11.967244
54.825 11.718532
54.830 11.482704
54.835 11.504878
54.840 11.636827
54.845 11.641876
54.850 11.882317
54.855 11.932238
54.860 12.049155
54.865 12.153646
54.870 12.127167
54.875 12.269024
54.880 12.809868
54.885 12.896095
54.890 12.884007
54.895 12.90575
54.900 12.888964
54.905 12.610081
54.910 12.857077
54.915 12.733023
54.920 12.361786
54.925 11.66784
54.930 11.360268
54.935 11.492122
54.940 11.844846
54.945 11.572979
54.950 11.528264
54.955 11.983745
54.960 12.970957
54.965 13.287864
54.970 13.268528
54.975 12.935517
54.980 12.892035
54.985 12.940834
54.990 12.497572
54.995 11.615326
55.000 11.309584
55.005 11.304872
55.010 11.613985
55.015 11.492543
55.020 11.620075
55.025 12.246508
55.030 12.547138
55.035 12.337741
55.040 12.423415
55.045 12.323303
55.050 12.51715
55.055 12.568876
55.060 12.413374
55.065 12.13613
55.070 12.081412
55.075 11.731133
55.080 11.892591
55.085 11.902621
55.090 11.611871
55.095 11.527313
55.100 11.91098
55.105 12.154954
55.110 12.124979
55.115 12.245667
55.120 12.379661
55.125 12.334632
55.130 12.704764
55.135 12.689531
55.140 12.550927
55.145 12.285521
55.150 11.877063
55.155 12.013158
55.160 12.48624
55.165 12.180539
55.170 12.487102
55.175 12.940656
55.180 13.104115
55.185 13.448334
55.190 13.139655
55.195 12.93119
55.200 13.231627
55.205 13.168471
55.210 12.766704
55.215 12.782886
55.220 12.583416
55.225 12.19318
55.230 12.152005
55.235 12.191188
55.240 12.178251
55.245 12.426917
55.250 12.289057
55.255 12.37867
55.260 12.206817
55.265 11.939011
55.270 11.72187
55.275 11.809009
55.280 11.589923
55.285 11.877179
55.290 11.692954
55.295 12.362449
55.300 12.668985
55.305 12.733124
55.310 12.734403
55.315 12.490698
55.320 12.323648
55.325 13.017965
55.330 12.912045
55.335 12.383379
55.340 12.141259
55.345 12.50547
55.350 12.937338
55.355 12.836688
55.360 12.348673
55.365 11.855559
55.370 11.686703
55.375 11.95451
55.380 11.481539
55.385 11.079533
55.390 11.246452
55.395 11.714246
55.400 12.18613
55.405 12.767962
55.410 12.357963
55.415 12.737823
55.420 13.121307
55.425 12.915854
55.430 12.603382
55.435 12.588951
55.440 12.578031
55.445 12.73266
55.450 12.941291
55.455 12.726753
55.460 12.727083
55.465 13.336195
55.470 13.249299
55.475 13.035591
55.480 13.007046
55.485 12.831706
55.490 13.092416
55.495 12.717767
55.500 12.323045
55.505 11.982626
55.510 11.79102
55.515 11.510757
55.520 11.188029
55.525 11.076064
55.530 10.69922
55.535 10.963523
55.540 10.983662
55.545 11.304911
55.550 11.872238
55.555 12.361991
55.560 12.33825
55.565 12.426819
55.570 12.192593
55.575 12.474112
55.580 12.487718
55.585 12.476796
55.590 12.634456
55.595 12.84992
55.600 13.046864
55.605 13.264397
55.610 13.598894
55.615 13.504687
55.620 13.93072
55.625 14.139349
55.630 14.156899
55.635 14.276188
55.640 13.490378
55.645 12.922379
55.650 13.023685
55.655 12.401861
55.660 12.08389
55.665 12.269216
55.670 12.450285
55.675 12.570107
55.680 12.502006
55.685 12.095647
55.690 11.795629
55.695 11.782566
55.700 11.965528
55.705 11.898753
55.710 12.306292
55.715 12.798372
55.720 13.359657
55.725 13.614301
55.730 13.886631
55.735 13.610709
55.740 13.873774
55.745 13.565987
55.750 13.356559
55.755 12.905847
55.760 12.267192
55.765 11.581595
55.770 11.532955
55.775 12.048469
55.780 12.150638
55.785 12.568225
55.790 13.047204
55.795 13.451051
55.800 14.384733
55.805 14.345871
55.810 13.918206
55.815 14.027119
55.820 13.878778
55.825 13.689981
55.830 13.879278
55.835 13.485486
55.840 13.3392
55.845 13.72733
55.850 13.785162
55.855 13.320776
55.860 13.013395
55.865 12.726098
55.870 13.227066
55.875 13.294418
55.880 12.807104
55.885 12.446087
55.890 12.53635
55.895 12.832181
55.900 12.644409
55.905 12.466437
55.910 12.921593
55.915 13.073721
55.920 13.735896
55.925 14.100139
55.930 14.372199
55.935 14.598676
55.940 13.969102
55.945 14.263594
55.950 14.605241
55.955 14.374983
55.960 14.230149
55.965 13.696198
55.970 13.825933
55.975 13.694613
55.980 13.461684
55.985 13.461405
55.990 13.431871
55.995 13.096682
56.000 13.003416
56.005 13.05256
56.010 12.956951
56.015 12.612018
56.020 12.174475
56.025 11.989038
56.030 12.379429
56.035 12.809322
56.040 12.340747
56.045 12.515903
56.050 12.364618
56.055 12.737473
56.060 12.93201
56.065 13.052032
56.070 13.306921
56.075 13.580376
56.080 13.280488
56.085 13.321443
56.090 12.923778
56.095 12.685321
56.100 12.346462
56.105 12.191296
56.110 12.047452
56.115 11.891299
56.120 11.846532
56.125 12.713982
56.130 12.943533
56.135 12.886199
56.140 13.084165
56.145 13.261855
56.150 13.808816
56.155 14.357176
56.160 13.743372
56.165 13.452229
56.170 13.242694
56.175 12.978208
56.180 13.103802
56.185 12.732509
56.190 12.137954
56.195 12.171268
56.200 12.407321
56.205 12.377304
56.210 12.497352
56.215 12.802799
56.220 13.132463
56.225 13.04859
56.230 13.309413
56.235 13.230732
56.240 13.405845
56.245 13.421862
56.250 12.931627
56.255 13.075211
56.260 12.841735
56.265 13.197626
56.270 13.440462
56.275 13.586913
56.280 13.49529
56.285 13.508288
56.290 13.348566
56.295 13.416713
56.300 12.854074
56.305 12.956388
56.310 13.240687
56.315 13.757807
56.320 13.71815
56.325 13.54937
56.330 13.265229
56.335 13.443336
56.340 13.144306
56.345 12.863984
56.350 12.584673
56.355 12.30391
56.360 12.612935
56.365 13.257093
56.370 13.492711
56.375 13.842227
56.380 13.455384
56.385 13.731728
56.390 14.424703
56.395 14.57736
56.400 14.551023
56.405 14.549774
56.410 14.920054
56.415 15.299445
56.420 14.687146
56.425 14.30418
56.430 13.812069
56.435 13.462019
56.440 13.142849
56.445 12.479719
56.450 12.162597
56.455 12.228277
56.460 12.328871
56.465 13.317474
56.470 13.775251
56.475 14.165121
56.480 14.719002
56.485 14.884568
56.490 15.166362
56.495 14.90541
56.500 14.410758
56.505 13.885573
56.510 13.661094
56.515 13.421535
56.520 13.364433
56.525 13.776094
56.530 13.890291
56.535 14.099045
56.540 14.452191
56.545 14.565644
56.550 14.662071
56.555 14.42953
56.560 13.978537
56.565 13.53356
56.570 12.938402
56.575 12.700028
56.580 12.62851
56.585 12.847025
56.590 13.314837
56.595 13.173359
56.600 13.408899
56.605 13.455239
56.610 13.051883
56.615 12.699534
56.620 12.802536
56.625 12.640598
56.630 13.006467
56.635 13.11574
56.640 13.297389
56.645 13.263651
56.650 13.52354
56.655 13.248739
56.660 13.162399
56.665 13.603435
56.670 13.675784
56.675 13.891498
56.680 14.340857
56.685 14.549071
56.690 15.278515
56.695 15.527007
56.700 14.94905
56.705 14.62821
56.710 15.206679
56.715 15.369883
56.720 15.549892
56.725 14.749579
56.730 15.429165
56.735 16.250702
56.740 16.652313
56.745 16.441196
56.750 16.234489
56.755 15.773856
56.760 15.780732
56.765 14.81017
56.770 14.621314
56.775 15.079405
56.780 15.225129
56.785 15.149992
56.790 15.30969
56.795 15.126752
56.800 15.289748
56.805 14.986925
56.810 14.612257
56.815 14.508046
56.820 14.474414
56.825 14.735839
56.830 14.656099
56.835 14.505119
56.840 14.315568
56.845 13.501464
56.850 13.350768
56.855 13.01535
56.860 12.643384
56.865 13.071144
56.870 13.042338
56.875 13.45029
56.880 14.428578
56.885 14.901989
56.890 15.228048
56.895 15.600471
56.900 15.381097
56.905 15.614025
56.910 15.547194
56.915 14.895244
56.920 14.327347
56.925 14.345131
56.930 14.353443
56.935 14.774768
56.940 14.662342
56.945 14.732815
56.950 14.735021
56.955 14.836612
56.960 15.546034
56.965 15.868477
56.970 15.210653
56.975 15.16364
56.980 15.190557
56.985 15.598895
56.990 15.470456
56.995 14.822088
57.000 14.320368
57.005 14.746536
57.010 14.81299
57.015 15.196131
57.020 15.126521
57.025 14.756897
57.030 14.233334
57.035 14.067812
57.040 13.714024
57.045 13.633371
57.050 13.440498
57.055 13.639513
57.060 14.197701
57.065 14.871939
57.070 15.647611
57.075 15.990715
57.080 15.597054
57.085 15.424375
57.090 15.200065
57.095 14.591908
57.100 14.303084
57.105 14.068299
57.110 14.135181
57.115 14.320646
57.120 14.293654
57.125 14.306272
57.130 14.6383
57.135 14.464887
57.140 14.121988
57.145 14.097967
57.150 13.738534
57.155 13.261237
57.160 13.268921
57.165 13.229142
57.170 13.097631
57.175 13.199987
57.180 13.607117
57.185 13.935617
57.190 14.203575
57.195 14.589616
57.200 14.684643
57.205 14.796801
57.210 14.212071
57.215 13.357127
57.220 13.183966
57.225 13.331922
57.230 13.193355
57.235 12.883928
57.240 13.194827
57.245 13.542694
57.250 13.937073
57.255 13.763994
57.260 13.459394
57.265 13.191226
57.270 14.199522
57.275 14.531172
57.280 14.398045
57.285 14.426923
57.290 14.649923
57.295 14.956792
57.300 14.897415
57.305 14.289579
57.310 14.18762
57.315 14.445973
57.320 14.713451
57.325 14.318205
57.330 14.417627
57.335 14.825691
57.340 14.807284
57.345 14.911498
57.350 14.725907
57.355 14.738542
57.360 15.399113
57.365 15.538436
57.370 15.375676
57.375 15.411972
57.380 15.360936
57.385 15.598549
57.390 15.841458
57.395 16.201746
57.400 16.372417
57.405 16.413029
57.410 16.408358
57.415 16.429937
57.420 16.378908
57.425 15.954872
57.430 15.409707
57.435 15.662557
57.440 15.718866
57.445 16.004944
57.450 15.906527
57.455 16.0951
57.460 16.346684
57.465 15.888262
57.470 15.5821
57.475 15.500958
57.480 14.962356
57.485 14.598999
57.490 14.282601
57.495 14.536964
57.500 14.630888
57.505 14.431551
57.510 14.846225
57.515 15.435167
57.520 15.619411
57.525 15.756329
57.530 16.077017
57.535 16.431751
57.540 16.16033
57.545 15.562369
57.550 15.072851
57.555 15.120606
57.560 14.825935
57.565 14.153285
57.570 14.018324
57.575 13.998876
57.580 14.269995
57.585 14.872756
57.590 15.171907
57.595 15.800233
57.600 16.492323
57.605 16.599764
57.610 17.595285
57.615 17.701225
57.620 17.589731
57.625 17.041872
57.630 16.227396
57.635 15.964951
57.640 16.298243
57.645 15.400326
57.650 14.947545
57.655 14.882566
57.660 15.451528
57.665 15.814788
57.670 15.738525
57.675 15.537762
57.680 15.671998
57.685 16.010187
57.690 16.528156
57.695 16.492695
57.700 16.56353
57.705 16.586578
57.710 16.472929
57.715 16.478359
57.720 16.297987
57.725 16.200157
57.730 15.846571
57.735 15.728712
57.740 15.329416
57.745 15.572171
57.750 15.909615
57.755 15.8926
57.760 15.527033
57.765 15.970606
57.770 16.127981
57.775 16.362375
57.780 15.92622
57.785 15.919475
57.790 15.752134
57.795 15.68714
57.800 15.995246
57.805 15.766912
57.810 16.652128
57.815 16.762243
57.820 16.623407
57.825 16.588581
57.830 16.663345
57.835 16.354143
57.840 16.14098
57.845 15.515331
57.850 16.249533
57.855 16.87578
57.860 17.154568
57.865 17.481356
57.870 17.756794
57.875 18.19665
57.880 18.099644
57.885 17.158228
57.890 16.963369
57.895 16.915773
57.900 16.811279
57.905 16.717073
57.910 16.344872
57.915 16.630898
57.920 16.683977
57.925 16.06304
57.930 15.953763
57.935 15.424242
57.940 15.707047
57.945 15.931102
57.950 15.637435
57.955 16.023527
57.960 16.861263
57.965 17.632536
57.970 18.027922
57.975 17.730095
57.980 17.696148
57.985 17.935783
57.990 18.164709
57.995 17.658426
58.000 16.551783
58.005 16.10783
58.010 16.127417
58.015 16.244179
58.020 16.255831
58.025 16.180426
58.030 16.262678
58.035 16.337816
58.040 17.247236
58.045 17.71546
58.050 18.099766
58.055 18.512764
58.060 18.516825
58.065 19.301895
58.070 20.23881
58.075 20.135891
58.080 19.705429
58.085 19.141783
58.090 18.901016
58.095 18.984541
58.100 18.556952
58.105 18.623264
58.110 18.371593
58.115 18.753403
58.120 19.112265
58.125 19.214531
58.130 19.362324
58.135 19.672522
58.140 20.108992
58.145 20.90489
58.150 20.918036
58.155 20.417568
58.160 19.624512
58.165 19.206036
58.170 19.312885
58.175 18.868792
58.180 18.225149
58.185 17.83227
58.190 18.540323
58.195 18.826633
58.200 18.702841
58.205 18.625044
58.210 18.634123
58.215 18.716961
58.220 18.859854
58.225 19.007818
58.230 19.603056
58.235 19.756626
58.240 19.243919
58.245 19.555502
58.250 19.64963
58.255 19.946503
58.260 19.900064
58.265 19.69198
58.270 19.87471
58.275 20.502808
58.280 20.446096
58.285 20.368084
58.290 20.489447
58.295 20.703787
58.300 20.673927
58.305 20.500828
58.310 20.472033
58.315 20.633593
58.320 21.627087
58.325 21.589123
58.330 21.596895
58.335 21.797596
58.340 22.728584
58.345 23.135895
58.350 22.672073
58.355 22.668007
58.360 23.413088
58.365 23.965611
58.370 24.424601
58.375 24.031733
58.380 23.791637
58.385 24.005095
58.390 23.309258
58.395 22.859776
58.400 23.255224
58.405 22.899469
58.410 22.762169
58.415 23.021776
58.420 23.47192
58.425 24.827059
58.430 25.839184
58.435 25.660486
58.440 26.609875
58.445 27.170212
