!@!!GADDS PLOTSO FILE: Chi integration type
!@!!Title/SampleName: map-a3
!@!!Comment: ?
!@!!User: Bruker Instrument Administrator
!@!!Site: University of Illinois Chicago
!@!!Frame: map-a3_01_000.gfrm
!@!!Wavelengths    1.54184   1.54056   1.54439
!@!!Frame angles: 2Theta: 63.000 Omega: 50.000 Phi: 0.000 Chi: 90.000
!@!!Integration range: 2Theta: 53.000 to 73.000  Gamma: -105.000 to -75.000
!@!!Integration method: bin normalized
!@!N
!@!SS
!@!M
!@!L 0.0 0.0 0.0 0.0
!@!XDegrees
!@!YCounts
53.000 8.302844
53.005 8.175711
53.010 8.210717
53.015 7.608149
53.020 7.559768
53.025 7.842923
53.030 7.747623
53.035 7.781807
53.040 7.440531
53.045 6.856467
53.050 7.001135
53.055 7.401976
53.060 7.954983
53.065 8.218263
53.070 8.433182
53.075 8.613169
53.080 9.184085
53.085 9.372624
53.090 9.217196
53.095 9.273641
53.100 9.455491
53.105 8.945454
53.110 8.92028
53.115 9.066916
53.120 9.041491
53.125 9.22409
53.130 8.894755
53.135 8.872105
53.140 9.011165
53.145 8.700962
53.150 8.800028
53.155 9.04688
53.160 9.113476
53.165 9.214543
53.170 9.153755
53.175 9.382394
53.180 9.281385
53.185 8.876052
53.190 8.660259
53.195 8.463449
53.200 8.312056
53.205 8.092325
53.210 8.299048
53.215 8.323345
53.220 8.182234
53.225 7.659523
53.230 7.514206
53.235 8.187584
53.240 8.903973
53.245 8.694292
53.250 8.55867
53.255 8.902762
53.260 8.871234
53.265 8.845155
53.270 8.510979
53.275 7.948301
53.280 8.077804
53.285 8.059176
53.290 7.765178
53.295 8.401127
53.300 8.248731
53.305 8.076284
53.310 8.038624
53.315 7.732142
53.320 7.628477
53.325 7.847954
53.330 7.864729
53.335 8.153252
53.340 8.095014
53.345 8.381932
53.350 8.480359
53.355 8.632622
53.360 8.258727
53.365 8.073648
53.370 7.68418
53.375 7.785719
53.380 7.82637
53.385 7.838623
53.390 7.962581
53.395 8.238459
53.400 8.328401
53.405 8.249184
53.410 8.182475
53.415 8.624845
53.420 8.886126
53.425 8.902825
53.430 8.907847
53.435 9.419371
53.440 9.595582
53.445 9.616359
53.450 9.474447
53.455 9.461459
53.460 9.605131
53.465 9.515829
53.470 9.501907
53.475 9.661716
53.480 9.4899
53.485 9.306095
53.490 9.087776
53.495 9.186455
53.500 8.951795
53.505 8.892052
53.510 8.751042
53.515 8.838256
53.520 8.770006
53.525 8.551074
53.530 8.292291
53.535 8.183372
53.540 7.932065
53.545 7.965283
53.550 7.994833
53.555 8.463152
53.560 8.870806
53.565 9.034554
53.570 9.07901
53.575 9.323973
53.580 9.166521
53.585 8.995328
53.590 9.008697
53.595 9.042552
53.600 9.145083
53.605 9.718825
53.610 10.031488
53.615 10.264604
53.620 10.136714
53.625 10.112366
53.630 9.896773
53.635 9.732584
53.640 9.290394
53.645 8.877743
53.650 8.750318
53.655 8.905367
53.660 8.724536
53.665 9.158439
53.670 9.521345
53.675 9.467928
53.680 9.868208
53.685 10.016131
53.690 9.858414
53.695 9.747248
53.700 9.619737
53.705 9.613834
53.710 9.715945
53.715 9.557612
53.720 9.320232
53.725 9.203188
53.730 8.965963
53.735 8.708939
53.740 8.545285
53.745 8.67459
53.750 8.993619
53.755 9.108969
53.760 9.496017
53.765 9.922552
53.770 10.441678
53.775 10.635047
53.780 9.995432
53.785 9.878502
53.790 10.315324
53.795 10.510874
53.800 10.06869
53.805 9.224723
53.810 9.468605
53.815 9.926352
53.820 9.63341
53.825 9.563621
53.830 9.526078
53.835 9.815234
53.840 9.821815
53.845 9.483532
53.850 9.450175
53.855 9.556693
53.860 9.499402
53.865 9.340432
53.870 9.601047
53.875 9.930169
53.880 10.358666
53.885 10.000097
53.890 9.772915
53.895 9.88906
53.900 9.686363
53.905 9.335371
53.910 9.591468
53.915 9.478551
53.920 9.676549
53.925 9.940469
53.930 10.125919
53.935 10.039603
53.940 9.919009
53.945 9.50281
53.950 9.629732
53.955 9.923882
53.960 9.83398
53.965 9.706246
53.970 10.298247
53.975 10.542192
53.980 10.478157
53.985 9.972904
53.990 9.682725
53.995 9.833787
54.000 9.572845
54.005 9.27997
54.010 8.667099
54.015 8.852509
54.020 9.065007
54.025 9.107526
54.030 9.157207
54.035 9.387671
54.040 9.638282
54.045 9.930617
54.050 10.310722
54.055 10.365695
54.060 10.168905
54.065 9.562582
54.070 9.690579
54.075 9.601255
54.080 9.935612
54.085 9.94361
54.090 10.535085
54.095 10.839859
54.100 11.34032
54.105 11.746367
54.110 12.107914
54.115 12.08146
54.120 11.775889
54.125 11.521873
54.130 11.748865
54.135 11.380035
54.140 11.071643
54.145 10.683884
54.150 10.661208
54.155 10.712037
54.160 10.341158
54.165 10.147274
54.170 9.998528
54.175 10.176384
54.180 10.144917
54.185 10.069891
54.190 10.25264
54.195 10.200217
54.200 9.941038
54.205 9.98473
54.210 9.667503
54.215 9.416721
54.220 9.328017
54.225 9.225154
54.230 9.719912
54.235 10.246699
54.240 9.929644
54.245 10.010491
54.250 10.371206
54.255 10.506395
54.260 10.31454
54.265 10.085754
54.270 10.140831
54.275 11.17099
54.280 11.504407
54.285 11.195222
54.290 11.182639
54.295 11.12569
54.300 10.902382
54.305 10.215482
54.310 9.803465
54.315 9.718589
54.320 9.980824
54.325 10.126563
54.330 10.428761
54.335 10.730437
54.340 10.873249
54.345 10.892301
54.350 10.542624
54.355 10.440883
54.360 10.626583
54.365 10.446056
54.370 10.49576
54.375 10.280912
54.380 10.111779
54.385 9.996529
54.390 9.500865
54.395 9.299094
54.400 9.09031
54.405 9.337439
54.410 10.037713
54.415 10.26683
54.420 10.593948
54.425 10.993011
54.430 11.1031
54.435 10.946469
54.440 10.350198
54.445 9.733529
54.450 9.532179
54.455 9.509605
54.460 9.361135
54.465 9.010785
54.470 9.024497
54.475 9.092475
54.480 9.530614
54.485 9.744477
54.490 9.133946
54.495 9.103694
54.500 9.033227
54.505 9.31418
54.510 9.251871
54.515 8.984987
54.520 9.331326
54.525 9.727559
54.530 9.844562
54.535 10.026818
54.540 10.345264
54.545 10.288172
54.550 10.261215
54.555 10.166509
54.560 10.157935
54.565 10.275518
54.570 10.384481
54.575 10.106188
54.580 10.179495
54.585 10.069139
54.590 10.754794
54.595 11.300941
54.600 11.240165
54.605 11.673668
54.610 11.939398
54.615 12.439081
54.620 12.356334
54.625 11.186046
54.630 10.98857
54.635 10.951791
54.640 10.940206
54.645 10.608556
54.650 10.486276
54.655 10.72132
54.660 10.789276
54.665 10.660091
54.670 10.866508
54.675 10.020902
54.680 10.030421
54.685 9.988382
54.690 10.364635
54.695 10.59235
54.700 10.501108
54.705 10.501374
54.710 10.847901
54.715 10.791761
54.720 10.411105
54.725 10.383038
54.730 10.640933
54.735 10.669322
54.740 10.863772
54.745 11.301627
54.750 11.149171
54.755 10.924007
54.760 10.778424
54.765 10.718444
54.770 10.717352
54.775 10.595929
54.780 10.057508
54.785 10.32118
54.790 10.33018
54.795 10.428725
54.800 10.854604
54.805 10.687827
54.810 10.948289
54.815 11.38435
54.820 11.370109
54.825 11.325341
54.830 11.202259
54.835 11.170485
54.840 11.253279
54.845 10.983775
54.850 10.828791
54.855 11.321983
54.860 11.682853
54.865 11.405398
54.870 11.135066
54.875 11.054078
54.880 11.3189
54.885 10.994274
54.890 10.392478
54.895 10.412731
54.900 10.616633
54.905 10.710543
54.910 10.685961
54.915 10.744606
54.920 11.237985
54.925 11.048161
54.930 10.461013
54.935 10.341425
54.940 10.200497
54.945 10.154023
54.950 10.341221
54.955 10.321516
54.960 10.758627
54.965 11.039939
54.970 10.57077
54.975 10.336697
54.980 10.014696
54.985 9.859222
54.990 9.79935
54.995 9.843324
55.000 10.126424
55.005 10.704574
55.010 10.9506
55.015 10.680178
55.020 10.412999
55.025 10.758333
55.030 10.190721
55.035 10.0089
55.040 9.974543
55.045 10.233483
55.050 10.415511
55.055 10.306947
55.060 10.160351
55.065 10.225775
55.070 10.110201
55.075 10.661442
55.080 10.780747
55.085 10.897366
55.090 10.849114
55.095 10.80601
55.100 10.886762
55.105 11.130964
55.110 10.696459
55.115 10.475626
55.120 10.514976
55.125 10.386795
55.130 10.383918
55.135 10.769906
55.140 10.566322
55.145 10.293817
55.150 10.149034
55.155 10.102041
55.160 10.565152
55.165 10.367471
55.170 9.876501
55.175 9.778769
55.180 10.0698
55.185 10.739323
55.190 10.633731
55.195 10.204777
55.200 10.019219
55.205 10.266328
55.210 10.592298
55.215 10.735736
55.220 9.809489
55.225 9.674568
55.230 9.766083
55.235 10.205503
55.240 10.250722
55.245 9.936178
55.250 10.136844
55.255 10.727959
55.260 10.945034
55.265 11.22979
55.270 10.870861
55.275 10.936379
55.280 11.364778
55.285 11.092198
55.290 10.774488
55.295 10.888556
55.300 10.790842
55.305 11.044288
55.310 10.913264
55.315 10.515248
55.320 10.725053
55.325 11.170792
55.330 11.176464
55.335 11.188585
55.340 11.041699
55.345 10.750534
55.350 10.654769
55.355 10.668909
55.360 10.18694
55.365 9.87814
55.370 10.019942
55.375 9.876979
55.380 10.067206
55.385 10.011596
55.390 10.071665
55.395 10.344575
55.400 10.360617
55.405 10.514503
55.410 10.884655
55.415 11.234578
55.420 11.224447
55.425 11.482351
55.430 11.772406
55.435 11.666744
55.440 11.542365
55.445 11.147646
55.450 10.556943
55.455 10.287643
55.460 9.680258
55.465 9.213991
55.470 9.214021
55.475 9.130949
55.480 9.335638
55.485 9.855297
55.490 9.993999
55.495 10.683271
55.500 10.688522
55.505 10.586436
55.510 10.455787
55.515 10.552439
55.520 10.727935
55.525 10.338722
55.530 10.036623
55.535 10.617548
55.540 11.029098
55.545 11.605726
55.550 11.911227
55.555 12.09552
55.560 12.446544
55.565 12.426044
55.570 11.877481
55.575 11.534956
55.580 10.989461
55.585 10.638544
55.590 10.2475
55.595 10.418283
55.600 10.791341
55.605 11.45183
55.610 11.662963
55.615 11.825001
55.620 11.575733
55.625 11.673626
55.630 11.554068
55.635 11.099565
55.640 10.786851
55.645 11.029333
55.650 11.149514
55.655 11.339861
55.660 11.248411
55.665 10.850304
55.670 11.045583
55.675 11.223085
55.680 11.177862
55.685 11.742515
55.690 11.92582
55.695 12.036774
55.700 12.479122
55.705 11.936146
55.710 11.767561
55.715 11.386449
55.720 10.810033
55.725 10.594341
55.730 10.637466
55.735 11.006469
55.740 11.264701
55.745 11.21175
55.750 11.175912
55.755 11.679092
55.760 11.897608
55.765 11.747584
55.770 11.497611
55.775 11.594064
55.780 11.847301
55.785 12.152644
55.790 11.986737
55.795 11.944206
55.800 11.745488
55.805 12.000399
55.810 11.945323
55.815 11.65242
55.820 11.737838
55.825 11.744665
55.830 11.840714
55.835 11.901525
55.840 11.964994
55.845 12.141876
55.850 12.339432
55.855 11.783644
55.860 11.75003
55.865 11.539534
55.870 11.727232
55.875 11.628364
55.880 11.704859
55.885 12.010613
55.890 12.423362
55.895 12.247965
55.900 12.722411
55.905 12.796428
55.910 12.806742
55.915 12.189401
55.920 11.695695
55.925 11.86701
55.930 11.631028
55.935 11.430242
55.940 11.126298
55.945 12.10634
55.950 12.405785
55.955 12.102246
55.960 11.708838
55.965 11.585965
55.970 11.333375
55.975 10.815226
55.980 10.072786
55.985 10.586816
55.990 10.988302
55.995 11.192979
56.000 11.085012
56.005 11.431157
56.010 11.601847
56.015 11.961488
56.020 11.612716
56.025 11.906845
56.030 12.375851
56.035 12.80885
56.040 12.611117
56.045 12.713375
56.050 12.675179
56.055 12.240813
56.060 11.678737
56.065 11.367369
56.070 10.752859
56.075 10.494346
56.080 9.705922
56.085 9.300474
56.090 9.348047
56.095 9.492773
56.100 9.836547
56.105 10.214063
56.110 10.82364
56.115 11.81843
56.120 12.425234
56.125 12.831659
56.130 13.364632
56.135 13.425714
56.140 13.675039
56.145 13.311783
56.150 12.801194
56.155 12.770347
56.160 12.473152
56.165 12.302916
56.170 12.348635
56.175 12.194757
56.180 11.953383
56.185 11.669355
56.190 11.560785
56.195 11.270385
56.200 11.165431
56.205 11.24646
56.210 11.46386
56.215 12.152308
56.220 12.243225
56.225 12.346545
56.230 12.660043
56.235 12.870888
56.240 12.567856
56.245 12.443441
56.250 12.252766
56.255 12.368546
56.260 12.423922
56.265 12.428741
56.270 12.357462
56.275 12.645777
56.280 13.013357
56.285 13.046762
56.290 12.961086
56.295 13.6092
56.300 13.622874
56.305 13.979868
56.310 13.796535
56.315 13.548611
56.320 13.25865
56.325 12.612857
56.330 11.472704
56.335 11.362419
56.340 11.25038
56.345 10.907842
56.350 11.011417
56.355 11.581456
56.360 11.986568
56.365 12.496208
56.370 12.460752
56.375 12.728582
56.380 12.944984
56.385 12.770178
56.390 12.789089
56.395 12.737788
56.400 12.805161
56.405 12.821803
56.410 12.77735
56.415 12.368697
56.420 12.475891
56.425 12.436041
56.430 12.128946
56.435 11.852412
56.440 11.599568
56.445 11.616146
56.450 11.603643
56.455 11.619432
56.460 11.655746
56.465 11.738956
56.470 12.092068
56.475 11.550105
56.480 11.837235
56.485 12.052573
56.490 11.738475
56.495 11.759068
56.500 11.889604
56.505 12.02032
56.510 12.395406
56.515 12.338252
56.520 12.711062
56.525 13.136083
56.530 13.497993
56.535 13.488033
56.540 13.199373
56.545 12.63463
56.550 12.611646
56.555 12.488807
56.560 11.934739
56.565 12.024213
56.570 12.224792
56.575 12.727857
56.580 13.19444
56.585 12.739115
56.590 12.931067
56.595 13.529258
56.600 13.477131
56.605 13.330774
56.610 12.974881
56.615 13.085183
56.620 13.700955
56.625 13.651427
56.630 13.127926
56.635 13.013853
56.640 13.008413
56.645 12.998825
56.650 12.885437
56.655 12.769538
56.660 12.589899
56.665 12.797072
56.670 12.761406
56.675 12.588131
56.680 12.992672
56.685 12.828305
56.690 12.487131
56.695 12.402736
56.700 12.16318
56.705 12.271155
56.710 12.612706
56.715 12.241808
56.720 12.30376
56.725 12.608541
56.730 12.443427
56.735 12.602339
56.740 12.236678
56.745 11.851476
56.750 12.113027
56.755 12.087816
56.760 12.326465
56.765 13.155452
56.770 13.168987
56.775 13.469718
56.780 13.876876
56.785 14.187697
56.790 14.53229
56.795 14.547919
56.800 14.007106
56.805 14.399098
56.810 14.695342
56.815 14.505403
56.820 13.797736
56.825 13.482512
56.830 13.781807
56.835 14.374709
56.840 13.884337
56.845 13.833638
56.850 14.259889
56.855 14.523111
56.860 14.106859
56.865 13.561543
56.870 13.165484
56.875 13.717127
56.880 14.068268
56.885 13.89978
56.890 14.231238
56.895 14.327469
56.900 14.09095
56.905 14.232479
56.910 13.721202
56.915 13.328792
56.920 13.223128
56.925 13.105162
56.930 13.165217
56.935 13.351834
56.940 13.297431
56.945 13.056847
56.950 13.022037
56.955 13.076563
56.960 12.982821
56.965 12.917766
56.970 12.429315
56.975 12.558125
56.980 12.478601
56.985 12.073702
56.990 11.798345
56.995 11.957785
57.000 12.519724
57.005 13.414142
57.010 13.199489
57.015 13.63756
57.020 14.232471
57.025 14.393321
57.030 14.34946
57.035 14.074533
57.040 13.499645
57.045 13.437025
57.050 13.254475
57.055 13.405106
57.060 13.228977
57.065 13.007037
57.070 12.942782
57.075 13.76295
57.080 13.382971
57.085 12.891606
57.090 12.486119
57.095 12.492305
57.100 13.225097
57.105 13.092102
57.110 12.415959
57.115 13.338364
57.120 13.781169
57.125 14.142144
57.130 14.080292
57.135 13.488115
57.140 13.496288
57.145 13.644134
57.150 13.102154
57.155 12.988615
57.160 12.594422
57.165 13.039847
57.170 13.025776
57.175 13.658794
57.180 13.902073
57.185 13.452422
57.190 13.260197
57.195 13.580322
57.200 13.477433
57.205 13.397022
57.210 13.339287
57.215 13.762236
57.220 14.261683
57.225 14.463957
57.230 14.310342
57.235 13.721151
57.240 13.668757
57.245 13.58398
57.250 13.358868
57.255 13.535167
57.260 13.470908
57.265 13.883824
57.270 14.306462
57.275 14.612184
57.280 14.756152
57.285 14.459585
57.290 14.461684
57.295 14.536763
57.300 14.200301
57.305 14.6421
57.310 14.565384
57.315 14.068234
57.320 13.892459
57.325 13.546922
57.330 13.499911
57.335 13.578343
57.340 13.370141
57.345 12.997758
57.350 13.51612
57.355 13.659666
57.360 13.778268
57.365 13.75029
57.370 14.088945
57.375 13.690784
57.380 13.478488
57.385 13.149687
57.390 13.324392
57.395 13.360269
57.400 12.931232
57.405 12.264438
57.410 12.418591
57.415 12.391161
57.420 12.597338
57.425 12.533975
57.430 12.614558
57.435 13.284939
57.440 13.59199
57.445 13.675371
57.450 13.993723
57.455 14.044276
57.460 14.328332
57.465 14.557548
57.470 13.930421
57.475 13.996232
57.480 14.046421
57.485 14.158278
57.490 14.017307
57.495 13.937666
57.500 14.224456
57.505 14.387158
57.510 14.014998
57.515 13.47808
57.520 12.887009
57.525 12.924232
57.530 13.008485
57.535 13.454576
57.540 13.809747
57.545 14.176385
57.550 14.972564
57.555 14.899734
57.560 15.007942
57.565 15.105014
57.570 14.569445
57.575 14.509341
57.580 14.692314
57.585 14.438932
57.590 14.612988
57.595 14.304756
57.600 14.270091
57.605 13.90592
57.610 13.674261
57.615 13.098411
57.620 12.976108
57.625 13.194069
57.630 13.453009
57.635 13.483075
57.640 13.627702
57.645 13.612836
57.650 13.813824
57.655 14.013994
57.660 13.420296
57.665 12.347706
57.670 12.302629
57.675 12.319747
57.680 12.208184
57.685 12.259929
57.690 12.653869
57.695 12.68971
57.700 12.891706
57.705 12.688439
57.710 12.765641
57.715 13.070741
57.720 13.254564
57.725 13.250077
57.730 14.636993
57.735 15.526754
57.740 15.416933
57.745 14.944048
57.750 14.662395
57.755 14.673437
57.760 14.090763
57.765 13.470634
57.770 13.046942
57.775 13.581373
57.780 14.270376
57.785 14.133604
57.790 14.211493
57.795 14.256615
57.800 14.087371
57.805 13.570889
57.810 13.100142
57.815 12.967976
57.820 13.107432
57.825 12.707908
57.830 13.274479
57.835 13.749285
57.840 14.235145
57.845 14.298894
57.850 14.462513
57.855 14.789188
57.860 14.666609
57.865 14.133785
57.870 13.957854
57.875 13.948269
57.880 13.75979
57.885 13.100448
57.890 13.030707
57.895 13.397034
57.900 13.162937
57.905 13.624872
57.910 13.642486
57.915 14.444857
57.920 15.08497
57.925 15.200068
57.930 15.477956
57.935 15.488008
57.940 14.921556
57.945 15.106801
57.950 14.709247
57.955 14.038934
57.960 13.833936
57.965 13.240799
57.970 12.849323
57.975 12.778264
57.980 12.773422
57.985 12.896531
57.990 13.281373
57.995 13.731612
58.000 14.619652
58.005 15.628632
58.010 15.848022
58.015 15.543151
58.020 15.424843
58.025 15.285542
58.030 14.690675
58.035 13.949512
58.040 13.533731
58.045 13.562676
58.050 14.141166
58.055 14.155008
58.060 14.295238
58.065 14.772738
58.070 15.027725
58.075 14.522446
58.080 14.457361
58.085 14.197192
58.090 13.864848
58.095 13.479965
58.100 13.097099
58.105 13.562313
58.110 14.688115
58.115 14.416505
58.120 14.633532
58.125 15.115068
58.130 15.492271
58.135 15.460435
58.140 15.095957
58.145 14.790116
58.150 14.814862
58.155 14.872624
58.160 14.547081
58.165 15.05011
58.170 15.015239
58.175 15.033853
58.180 14.956079
58.185 15.015392
58.190 14.381143
58.195 13.929892
58.200 13.490692
58.205 13.668831
58.210 13.477077
58.215 13.500512
58.220 13.657949
58.225 14.38218
58.230 14.781391
58.235 14.857585
58.240 14.5195
58.245 14.418752
58.250 14.318582
58.255 14.230994
58.260 14.018716
58.265 14.09598
58.270 14.222869
58.275 14.485792
58.280 14.561204
58.285 14.307586
58.290 14.086325
58.295 14.33123
58.300 14.54024
58.305 15.227397
58.310 15.366464
58.315 15.339502
58.320 15.778069
58.325 16.196814
58.330 15.999802
58.335 15.861384
58.340 15.155903
58.345 14.968452
58.350 14.990376
58.355 14.78044
58.360 15.000352
58.365 15.220585
58.370 15.154818
58.375 15.539261
58.380 15.510403
58.385 15.60967
58.390 15.91103
58.395 15.897667
58.400 16.112389
58.405 16.300087
58.410 16.616632
58.415 16.861494
58.420 16.856625
58.425 16.749939
58.430 16.353989
58.435 15.98085
58.440 15.113301
58.445 14.328649
58.450 14.126069
58.455 13.958002
58.460 14.235506
58.465 14.457876
58.470 14.84969
58.475 15.359636
58.480 15.831819
58.485 15.775491
58.490 15.972117
58.495 15.520201
58.500 15.80579
58.505 15.819152
58.510 15.488245
