!@!!GADDS PLOTSO FILE: Chi integration type
!@!!Title/SampleName: map-98
!@!!Comment: ?
!@!!User: Bruker Instrument Administrator
!@!!Site: University of Illinois Chicago
!@!!Frame: map-98_01_000.gfrm
!@!!Wavelengths    1.54184   1.54056   1.54439
!@!!Frame angles: 2Theta: 63.000 Omega: 50.000 Phi: 0.000 Chi: 90.000
!@!!Integration range: 2Theta: 53.000 to 73.000  Gamma: -105.000 to -75.000
!@!!Integration method: bin normalized
!@!N
!@!SS
!@!M
!@!L 0.0 0.0 0.0 0.0
!@!XDegrees
!@!YCounts
53.000 7.455973
53.005 8.030544
53.010 8.603519
53.015 8.738478
53.020 9.100229
53.025 9.557469
53.030 9.677527
53.035 9.647379
53.040 9.507732
53.045 9.566365
53.050 9.428829
53.055 9.179369
53.060 9.000028
53.065 9.017076
53.070 9.224567
53.075 8.931015
53.080 9.190259
53.085 9.100068
53.090 8.923094
53.095 8.94693
53.100 9.021028
53.105 9.101566
53.110 9.120521
53.115 8.828823
53.120 9.083804
53.125 9.185842
53.130 9.482632
53.135 9.69542
53.140 9.695987
53.145 9.856214
53.150 10.177117
53.155 10.237179
53.160 10.394073
53.165 10.700571
53.170 10.30549
53.175 9.765608
53.180 9.451742
53.185 9.375897
53.190 8.818696
53.195 8.518249
53.200 8.285883
53.205 8.265759
53.210 8.439566
53.215 8.645051
53.220 8.548436
53.225 8.888194
53.230 8.710178
53.235 8.581801
53.240 8.856853
53.245 8.779539
53.250 8.717031
53.255 8.316731
53.260 8.423609
53.265 8.607958
53.270 8.561948
53.275 8.559596
53.280 8.711452
53.285 8.79934
53.290 9.057288
53.295 8.859885
53.300 9.047668
53.305 9.269984
53.310 9.371674
53.315 9.172559
53.320 9.418878
53.325 9.626245
53.330 9.850595
53.335 10.124799
53.340 10.103037
53.345 10.33534
53.350 10.065551
53.355 10.067375
53.360 9.853495
53.365 9.193852
53.370 8.755068
53.375 8.715966
53.380 8.54076
53.385 8.551251
53.390 8.288798
53.395 8.68994
53.400 9.068737
53.405 8.983052
53.410 9.023236
53.415 9.492664
53.420 9.783019
53.425 9.690826
53.430 8.963319
53.435 9.122903
53.440 9.422469
53.445 9.458774
53.450 9.309168
53.455 9.675136
53.460 10.206886
53.465 10.580565
53.470 10.755354
53.475 10.57326
53.480 10.357347
53.485 10.326438
53.490 10.175838
53.495 9.925566
53.500 10.138103
53.505 9.921627
53.510 10.27383
53.515 10.684604
53.520 10.414408
53.525 10.180172
53.530 9.943934
53.535 9.465525
53.540 9.435403
53.545 9.17451
53.550 8.987499
53.555 9.03735
53.560 9.180355
53.565 9.334569
53.570 9.381009
53.575 9.47341
53.580 9.667931
53.585 9.654568
53.590 9.567615
53.595 9.786972
53.600 9.640895
53.605 9.059341
53.610 8.744549
53.615 8.656723
53.620 8.659716
53.625 8.778826
53.630 8.49647
53.635 8.748801
53.640 9.038569
53.645 9.224225
53.650 9.542861
53.655 10.107979
53.660 10.342514
53.665 10.34891
53.670 10.143183
53.675 10.283525
53.680 10.262025
53.685 9.729142
53.690 8.950352
53.695 8.945459
53.700 9.577126
53.705 9.761962
53.710 9.382444
53.715 9.200022
53.720 9.432811
53.725 9.423349
53.730 9.515729
53.735 9.293479
53.740 9.391901
53.745 9.838974
53.750 10.188352
53.755 10.15103
53.760 10.324333
53.765 9.872673
53.770 9.642071
53.775 9.749337
53.780 9.154974
53.785 8.847193
53.790 9.251015
53.795 9.404501
53.800 9.423176
53.805 9.569075
53.810 9.810094
53.815 9.949125
53.820 10.078442
53.825 9.491206
53.830 9.144822
53.835 9.21112
53.840 9.033038
53.845 9.305742
53.850 9.283525
53.855 8.8676
53.860 9.104641
53.865 9.192996
53.870 9.541586
53.875 9.458429
53.880 9.319462
53.885 9.643074
53.890 9.620558
53.895 9.762201
53.900 9.640322
53.905 9.610107
53.910 9.313
53.915 9.339803
53.920 9.575106
53.925 9.634729
53.930 9.90967
53.935 10.584264
53.940 10.593023
53.945 10.579464
53.950 10.29442
53.955 10.11922
53.960 10.347998
53.965 9.678939
53.970 9.352407
53.975 9.233908
53.980 9.24185
53.985 9.706391
53.990 9.618719
53.995 9.921618
54.000 10.089222
54.005 10.43216
54.010 10.80609
54.015 10.93113
54.020 10.966747
54.025 10.736207
54.030 10.944166
54.035 10.575399
54.040 10.017194
54.045 9.884315
54.050 9.569563
54.055 9.642563
54.060 9.669368
54.065 9.513954
54.070 9.724489
54.075 9.989649
54.080 10.219257
54.085 10.205596
54.090 10.371549
54.095 10.45163
54.100 10.524979
54.105 10.645841
54.110 10.472483
54.115 9.989252
54.120 10.012291
54.125 9.910114
54.130 9.454685
54.135 9.24811
54.140 9.305853
54.145 9.539211
54.150 9.494837
54.155 9.115219
54.160 9.048476
54.165 9.071248
54.170 9.064853
54.175 9.193789
54.180 9.406322
54.185 9.738383
54.190 9.699615
54.195 9.55937
54.200 9.383488
54.205 9.072729
54.210 8.975932
54.215 8.410759
54.220 8.234223
54.225 8.416719
54.230 9.161224
54.235 9.886911
54.240 9.815757
54.245 9.699392
54.250 9.956697
54.255 10.455936
54.260 10.29039
54.265 10.098764
54.270 10.156701
54.275 10.27868
54.280 10.050959
54.285 10.42156
54.290 10.331429
54.295 10.497824
54.300 10.402549
54.305 10.236446
54.310 9.980624
54.315 10.063177
54.320 9.936344
54.325 9.971914
54.330 9.974184
54.335 10.393266
54.340 10.728572
54.345 11.429552
54.350 11.54061
54.355 11.206572
54.360 11.295296
54.365 11.330565
54.370 11.219472
54.375 11.190508
54.380 11.094162
54.385 11.372458
54.390 11.559952
54.395 11.333827
54.400 11.390293
54.405 11.155968
54.410 10.592655
54.415 10.615479
54.420 10.491881
54.425 10.207315
54.430 9.608936
54.435 8.800527
54.440 8.66705
54.445 9.22674
54.450 9.104636
54.455 9.023008
54.460 9.370889
54.465 9.624867
54.470 10.571882
54.475 10.669017
54.480 10.413872
54.485 10.180352
54.490 10.63049
54.495 10.66014
54.500 10.787646
54.505 9.945941
54.510 10.016558
54.515 10.458739
54.520 10.818345
54.525 10.560144
54.530 10.623329
54.535 10.744607
54.540 10.644782
54.545 10.332074
54.550 9.665516
54.555 9.70986
54.560 9.799525
54.565 10.006392
54.570 10.304868
54.575 10.990495
54.580 11.524896
54.585 12.106863
54.590 11.992737
54.595 11.985944
54.600 11.919462
54.605 11.983604
54.610 11.831405
54.615 11.888804
54.620 11.113379
54.625 10.885746
54.630 10.574692
54.635 10.410177
54.640 10.264983
54.645 9.876615
54.650 9.518253
54.655 9.9549
54.660 10.216172
54.665 10.389624
54.670 10.114336
54.675 10.298429
54.680 10.703844
54.685 11.091444
54.690 10.874257
54.695 10.738144
54.700 10.979757
54.705 11.248667
54.710 11.158094
54.715 10.909795
54.720 10.771386
54.725 10.825069
54.730 11.291185
54.735 11.619598
54.740 11.45897
54.745 11.782554
54.750 11.857016
54.755 11.935484
54.760 12.139524
54.765 11.678188
54.770 11.676398
54.775 11.943138
54.780 11.84126
54.785 11.930533
54.790 11.77808
54.795 11.320299
54.800 11.428497
54.805 11.13098
54.810 10.554595
54.815 10.024977
54.820 9.842324
54.825 10.358114
54.830 10.339183
54.835 10.524732
54.840 10.770261
54.845 11.333721
54.850 11.660772
54.855 11.914804
54.860 11.557269
54.865 11.704109
54.870 11.392884
54.875 10.980316
54.880 10.965755
54.885 10.813133
54.890 10.461516
54.895 11.047486
54.900 10.60688
54.905 10.584555
54.910 10.813605
54.915 10.5509
54.920 10.78371
54.925 10.926157
54.930 10.353492
54.935 10.696097
54.940 10.877692
54.945 11.138152
54.950 11.533825
54.955 11.522396
54.960 11.535297
54.965 11.895584
54.970 11.960279
54.975 12.1654
54.980 12.155152
54.985 12.305815
54.990 12.218394
54.995 11.952419
55.000 11.646195
55.005 10.711764
55.010 10.290372
55.015 10.214563
55.020 10.218595
55.025 10.331397
55.030 10.456266
55.035 10.847836
55.040 11.348448
55.045 11.422076
55.050 11.157979
55.055 10.988106
55.060 10.993387
55.065 11.373713
55.070 11.624623
55.075 11.983133
55.080 11.800992
55.085 11.809221
55.090 11.708267
55.095 11.635365
55.100 11.274783
55.105 11.150868
55.110 10.942786
55.115 10.798715
55.120 10.363058
55.125 10.098216
55.130 10.087943
55.135 9.95859
55.140 9.943562
55.145 9.650522
55.150 9.871892
55.155 10.251699
55.160 10.396502
55.165 10.268895
55.170 10.611382
55.175 10.906531
55.180 11.106021
55.185 11.115421
55.190 11.268468
55.195 11.31445
55.200 11.435256
55.205 11.296775
55.210 11.248422
55.215 10.942734
55.220 10.765259
55.225 10.648658
55.230 10.766442
55.235 10.833995
55.240 10.67111
55.245 10.744882
55.250 11.5849
55.255 11.962783
55.260 12.348573
55.265 12.439762
55.270 12.388995
55.275 12.715676
55.280 12.854125
55.285 12.701325
55.290 12.563746
55.295 12.190855
55.300 12.27926
55.305 12.235813
55.310 11.887145
55.315 11.381601
55.320 11.264847
55.325 11.084981
55.330 11.381268
55.335 11.011387
55.340 11.113642
55.345 11.329585
55.350 11.439453
55.355 11.474478
55.360 11.55168
55.365 11.819232
55.370 11.828561
55.375 11.562585
55.380 11.158278
55.385 11.21448
55.390 10.84365
55.395 10.544259
55.400 10.42602
55.405 10.47736
55.410 10.848158
55.415 11.109264
55.420 10.944009
55.425 10.758715
55.430 10.478124
55.435 10.031281
55.440 10.017987
55.445 9.766454
55.450 9.977373
55.455 10.024744
55.460 10.116726
55.465 10.773396
55.470 11.119657
55.475 10.913085
55.480 10.857302
55.485 10.765617
55.490 11.147618
55.495 11.491578
55.500 11.446229
55.505 12.011434
55.510 11.889018
55.515 11.854034
55.520 11.851729
55.525 11.957809
55.530 11.957253
55.535 11.844
55.540 11.539937
55.545 11.945402
55.550 12.22195
55.555 12.004491
55.560 11.288501
55.565 10.691248
55.570 10.749014
55.575 10.963171
55.580 11.055576
55.585 10.975043
55.590 11.491644
55.595 12.191683
55.600 12.757685
55.605 13.031246
55.610 12.938459
55.615 13.109516
55.620 13.430425
55.625 13.216886
55.630 12.766728
55.635 12.371997
55.640 12.230336
55.645 11.859536
55.650 11.643102
55.655 11.243169
55.660 11.054579
55.665 11.217283
55.670 10.982423
55.675 10.755907
55.680 11.216763
55.685 11.155325
55.690 11.397655
55.695 11.545615
55.700 11.356277
55.705 11.529793
55.710 11.803747
55.715 11.788313
55.720 12.033071
55.725 11.910914
55.730 11.891368
55.735 12.382453
55.740 12.548252
55.745 12.230292
55.750 11.994463
55.755 11.483202
55.760 11.395012
55.765 11.348187
55.770 10.975885
55.775 10.883663
55.780 10.552382
55.785 10.509562
55.790 10.358046
55.795 10.7192
55.800 10.966909
55.805 11.002109
55.810 11.008767
55.815 11.538585
55.820 11.907808
55.825 12.251345
55.830 12.113975
55.835 12.371757
55.840 12.32493
55.845 12.21142
55.850 11.805854
55.855 11.547525
55.860 11.132463
55.865 10.910236
55.870 10.655765
55.875 10.647861
55.880 10.980206
55.885 11.681012
55.890 11.921593
55.895 12.425508
55.900 12.777931
55.905 13.053297
55.910 13.130099
55.915 13.065229
55.920 12.777587
55.925 12.502592
55.930 12.376463
55.935 12.184826
55.940 12.108235
55.945 11.869206
55.950 11.242258
55.955 11.283711
55.960 11.862041
55.965 11.562812
55.970 11.503522
55.975 11.758617
55.980 11.984634
55.985 12.139262
55.990 12.023226
55.995 11.678363
56.000 11.825849
56.005 12.071907
56.010 11.627667
56.015 11.828362
56.020 12.124349
56.025 12.222236
56.030 12.220743
56.035 12.070965
56.040 11.77821
56.045 11.890203
56.050 12.448486
56.055 12.408553
56.060 12.304481
56.065 12.380446
56.070 12.788355
56.075 12.409836
56.080 12.167067
56.085 11.886507
56.090 12.140095
56.095 12.086833
56.100 11.874835
56.105 11.729795
56.110 12.028101
56.115 11.588241
56.120 11.51569
56.125 11.362595
56.130 11.757597
56.135 11.732611
56.140 12.249311
56.145 12.141561
56.150 12.031604
56.155 12.030283
56.160 12.482409
56.165 12.521199
56.170 12.396195
56.175 11.962511
56.180 12.395138
56.185 12.596422
56.190 12.155655
56.195 11.967541
56.200 12.582027
56.205 12.670209
56.210 13.042181
56.215 12.965439
56.220 12.974378
56.225 13.341677
56.230 12.591913
56.235 12.332402
56.240 12.571788
56.245 12.246998
56.250 12.476384
56.255 12.440644
56.260 12.224889
56.265 12.680489
56.270 12.449322
56.275 12.221142
56.280 11.962477
56.285 11.890208
56.290 12.095321
56.295 12.297786
56.300 12.30517
56.305 12.342677
56.310 12.40579
56.315 12.73946
56.320 12.624036
56.325 12.603768
56.330 12.468838
56.335 11.967072
56.340 11.589038
56.345 11.486082
56.350 11.148992
56.355 11.255104
56.360 11.031969
56.365 11.101528
56.370 11.484842
56.375 11.96336
56.380 12.095048
56.385 12.284032
56.390 12.347917
56.395 12.614303
56.400 12.737334
56.405 12.851756
56.410 12.665545
56.415 12.701332
56.420 13.458884
56.425 13.796375
56.430 14.045162
56.435 14.196379
56.440 14.053614
56.445 13.912737
56.450 13.423516
56.455 13.101254
56.460 12.879401
56.465 12.198306
56.470 12.575265
56.475 12.579766
56.480 13.001557
56.485 13.097527
56.490 12.915152
56.495 12.919348
56.500 13.041851
56.505 12.597795
56.510 12.901282
56.515 13.021684
56.520 13.57205
56.525 13.4049
56.530 13.312643
56.535 13.334476
56.540 13.144389
56.545 12.654888
56.550 12.439521
56.555 11.596734
56.560 11.946364
56.565 12.238642
56.570 12.134146
56.575 13.026967
56.580 13.507152
56.585 13.541181
56.590 13.92086
56.595 13.924422
56.600 14.320344
56.605 14.14019
56.610 13.467134
56.615 13.139013
56.620 12.989771
56.625 13.287151
56.630 13.014602
56.635 12.667522
56.640 12.473025
56.645 12.681164
56.650 12.989986
56.655 12.757416
56.660 12.399749
56.665 12.196217
56.670 12.197467
56.675 12.585173
56.680 12.732507
56.685 12.78716
56.690 13.374153
56.695 13.475844
56.700 13.332705
56.705 13.180762
56.710 13.273904
56.715 13.152949
56.720 13.14025
56.725 13.145994
56.730 13.182152
56.735 13.777195
56.740 14.00512
56.745 13.594868
56.750 13.479274
56.755 13.426281
56.760 13.335771
56.765 13.123064
56.770 13.232731
56.775 12.808802
56.780 13.07999
56.785 12.997345
56.790 12.600702
56.795 12.471093
56.800 12.529974
56.805 12.678275
56.810 13.196157
56.815 12.829479
56.820 12.735884
56.825 13.14502
56.830 13.483406
56.835 13.748713
56.840 13.590521
56.845 13.642793
56.850 13.720782
56.855 13.910604
56.860 13.518757
56.865 13.210232
56.870 12.983959
56.875 12.760881
56.880 12.581841
56.885 12.303492
56.890 12.120028
56.895 12.400532
56.900 13.022696
56.905 13.139166
56.910 13.311615
56.915 13.372252
56.920 13.584303
56.925 13.540063
56.930 13.24129
56.935 12.325895
56.940 12.518672
56.945 12.376465
56.950 12.598229
56.955 12.78632
56.960 13.069245
56.965 13.28096
56.970 13.809856
56.975 13.302903
56.980 13.19778
56.985 12.963037
56.990 13.304394
56.995 13.334427
57.000 13.169301
57.005 12.877824
57.010 12.479873
57.015 12.267045
57.020 12.102823
57.025 11.792365
57.030 12.154132
57.035 12.331059
57.040 12.574347
57.045 13.29524
57.050 13.352023
57.055 13.139962
57.060 12.67788
57.065 12.192632
57.070 12.481567
57.075 12.033108
57.080 11.685486
57.085 12.148452
57.090 12.959198
57.095 13.652863
57.100 13.962636
57.105 13.995887
57.110 14.45001
57.115 14.252851
57.120 14.031856
57.125 13.343344
57.130 13.035307
57.135 12.524816
57.140 12.498214
57.145 12.609019
57.150 12.564713
57.155 12.327844
57.160 12.750648
57.165 12.849954
57.170 13.311057
57.175 13.574526
57.180 13.623421
57.185 13.912333
57.190 14.348447
57.195 14.169137
57.200 13.858658
57.205 13.700765
57.210 13.655823
57.215 13.91291
57.220 14.597199
57.225 14.820827
57.230 15.141343
57.235 15.445596
57.240 15.775389
57.245 14.900111
57.250 14.427578
57.255 13.351866
57.260 13.348681
57.265 13.800505
57.270 14.177541
57.275 13.80298
57.280 14.327851
57.285 14.803114
57.290 15.008214
57.295 14.616545
57.300 14.156465
57.305 13.639709
57.310 13.696435
57.315 13.319274
57.320 13.236573
57.325 13.621178
57.330 13.605472
57.335 13.551679
57.340 13.408
57.345 13.696618
57.350 13.975142
57.355 14.018032
57.360 14.002076
57.365 13.936334
57.370 13.887958
57.375 13.860009
57.380 14.029277
57.385 14.18338
57.390 14.493019
57.395 14.859268
57.400 14.988196
57.405 14.887508
57.410 14.994778
57.415 14.867157
57.420 14.427949
57.425 13.607115
57.430 13.322545
57.435 13.488957
57.440 14.115934
57.445 14.436767
57.450 14.784081
57.455 14.922662
57.460 14.922119
57.465 15.056529
57.470 14.696736
57.475 13.946913
57.480 13.639332
57.485 13.744083
57.490 13.851495
57.495 14.298227
57.500 14.549127
57.505 14.820742
57.510 15.288724
57.515 15.388611
57.520 14.938874
57.525 14.982192
57.530 14.499667
57.535 13.997918
57.540 14.067765
57.545 14.114297
57.550 13.857859
57.555 14.197141
57.560 14.12544
57.565 14.142088
57.570 14.151326
57.575 14.082096
57.580 13.818674
57.585 14.281612
57.590 14.359504
57.595 14.619302
57.600 14.960158
57.605 14.492612
57.610 14.433048
57.615 14.404004
57.620 14.122039
57.625 14.122504
57.630 14.211542
57.635 14.287678
57.640 14.473694
57.645 14.170833
57.650 14.382605
57.655 14.874944
57.660 14.802646
57.665 14.022526
57.670 13.930214
57.675 14.240215
57.680 14.472953
57.685 14.334617
57.690 13.75596
57.695 13.376392
57.700 14.195441
57.705 14.123428
57.710 13.863683
57.715 13.859252
57.720 13.709522
57.725 14.037832
57.730 14.528471
57.735 14.579956
57.740 14.573649
57.745 14.751099
57.750 14.585291
57.755 14.344538
57.760 14.078205
57.765 13.997498
57.770 13.767042
57.775 14.156394
57.780 14.069725
57.785 14.091138
57.790 14.62466
57.795 14.519878
57.800 14.118445
57.805 13.237592
57.810 13.085036
57.815 13.301958
57.820 13.581447
57.825 13.513921
57.830 13.870292
57.835 14.867338
57.840 15.88174
57.845 15.830832
57.850 15.665172
57.855 15.862301
57.860 15.7422
57.865 15.514982
57.870 15.269139
57.875 14.548902
57.880 14.649308
57.885 14.414477
57.890 13.927985
57.895 13.999119
57.900 13.622358
57.905 13.31311
57.910 13.320503
57.915 13.006838
57.920 13.414048
57.925 13.585262
57.930 13.801208
57.935 14.028364
57.940 14.329214
57.945 14.993938
57.950 15.095834
57.955 14.903915
57.960 14.768998
57.965 14.839721
57.970 15.074772
57.975 15.576237
57.980 15.861881
57.985 16.424536
57.990 16.216463
57.995 16.0397
58.000 15.972581
58.005 15.795597
58.010 15.48321
58.015 15.267437
58.020 15.255192
58.025 15.477992
58.030 15.911654
58.035 16.09129
58.040 16.664827
58.045 16.986845
58.050 16.894472
58.055 17.215208
58.060 17.575151
58.065 17.585184
58.070 17.875574
58.075 17.566555
58.080 16.891272
58.085 16.615303
58.090 15.66258
58.095 15.145929
58.100 14.882992
58.105 15.113817
58.110 15.501594
58.115 15.588861
58.120 16.200016
58.125 16.411413
58.130 16.585503
58.135 16.741751
58.140 16.351421
58.145 16.490252
58.150 16.931625
58.155 17.01618
58.160 17.806328
58.165 17.750044
58.170 18.442932
58.175 18.593451
58.180 18.337393
58.185 18.374163
58.190 18.474157
58.195 19.05839
58.200 19.586128
58.205 19.108982
58.210 18.546036
58.215 18.641451
58.220 18.727783
58.225 18.585365
58.230 17.833431
58.235 17.608679
58.240 17.309025
58.245 17.196672
58.250 17.528236
58.255 17.672182
58.260 17.328684
58.265 17.24674
58.270 17.678976
58.275 17.945677
58.280 18.433969
58.285 17.641449
58.290 18.113914
58.295 18.124016
58.300 18.264042
58.305 18.208611
58.310 18.37365
58.315 18.090448
58.320 18.566586
58.325 18.563324
58.330 18.902473
58.335 19.113651
58.340 18.976357
58.345 18.92288
58.350 19.603962
58.355 19.684504
58.360 19.755325
58.365 20.008171
58.370 19.852764
58.375 20.12743
58.380 20.036604
58.385 20.23473
58.390 20.527752
58.395 21.020563
58.400 20.95422
58.405 20.974375
58.410 21.495913
58.415 21.757299
58.420 21.580753
58.425 22.378313
58.430 22.815176
58.435 23.261446
58.440 23.781841
58.445 24.100252
58.450 24.890047
58.455 25.144836
58.460 24.286066
58.465 23.568293
58.470 24.115437
58.475 24.389009
58.480 24.588942
58.485 24.67099
58.490 25.834679
58.495 27.12355
58.500 27.702831
