!@!!GADDS PLOTSO FILE: Chi integration type
!@!!Title/SampleName: map-7b
!@!!Comment: ?
!@!!User: Bruker Instrument Administrator
!@!!Site: University of Illinois Chicago
!@!!Frame: map-7b_01_000.gfrm
!@!!Wavelengths    1.54184   1.54056   1.54439
!@!!Frame angles: 2Theta: 63.000 Omega: 50.000 Phi: 0.000 Chi: 90.000
!@!!Integration range: 2Theta: 53.000 to 73.000  Gamma: -105.000 to -75.000
!@!!Integration method: bin normalized
!@!N
!@!SS
!@!M
!@!L 0.0 0.0 0.0 0.0
!@!XDegrees
!@!YCounts
53.000 8.212623
53.005 8.091201
53.010 8.219367
53.015 8.314896
53.020 8.347624
53.025 8.38668
53.030 8.050827
53.035 8.284826
53.040 7.980337
53.045 8.193025
53.050 8.250154
53.055 7.84586
53.060 7.941801
53.065 8.136331
53.070 8.651505
53.075 9.352208
53.080 9.128628
53.085 9.284461
53.090 9.379341
53.095 8.888839
53.100 8.718227
53.105 8.35346
53.110 7.900823
53.115 8.086763
53.120 7.940944
53.125 8.111666
53.130 8.167724
53.135 8.129545
53.140 8.415836
53.145 8.204365
53.150 8.315941
53.155 8.332189
53.160 8.8512
53.165 9.027579
53.170 8.998808
53.175 9.34037
53.180 9.815443
53.185 9.686917
53.190 9.59605
53.195 9.227397
53.200 9.129794
53.205 8.927696
53.210 8.363985
53.215 8.027539
53.220 8.216006
53.225 8.489692
53.230 8.427125
53.235 8.583761
53.240 8.543855
53.245 8.213919
53.250 8.176656
53.255 8.074108
53.260 7.824972
53.265 7.657782
53.270 7.59357
53.275 7.967851
53.280 8.328722
53.285 8.389726
53.290 8.176553
53.295 8.449202
53.300 8.2479
53.305 7.928391
53.310 7.792377
53.315 7.481962
53.320 7.412114
53.325 6.992566
53.330 6.916686
53.335 6.7576
53.340 6.480775
53.345 6.564847
53.350 6.227438
53.355 5.951922
53.360 6.005657
53.365 6.289707
53.370 6.972385
53.375 7.565893
53.380 7.752003
53.385 8.161015
53.390 8.440163
53.395 8.928658
53.400 8.937094
53.405 8.640076
53.410 8.293902
53.415 8.277499
53.420 8.818831
53.425 8.74116
53.430 8.501347
53.435 8.435436
53.440 8.551848
53.445 8.914133
53.450 8.612529
53.455 8.26033
53.460 8.1709
53.465 7.997267
53.470 7.855532
53.475 7.789902
53.480 7.930997
53.485 8.181026
53.490 8.498232
53.495 8.854866
53.500 8.729816
53.505 8.747052
53.510 8.710974
53.515 8.466661
53.520 8.977671
53.525 8.937319
53.530 9.053802
53.535 9.580263
53.540 9.668881
53.545 9.737447
53.550 9.722536
53.555 9.082154
53.560 8.627368
53.565 8.180902
53.570 7.559602
53.575 7.514123
53.580 7.23772
53.585 7.158801
53.590 7.691897
53.595 8.434108
53.600 8.685983
53.605 9.101281
53.610 8.983821
53.615 9.299562
53.620 9.236888
53.625 9.284673
53.630 9.158158
53.635 9.375529
53.640 9.509819
53.645 9.593513
53.650 9.624148
53.655 9.609918
53.660 9.257004
53.665 9.095387
53.670 8.93418
53.675 8.866866
53.680 9.209077
53.685 9.427023
53.690 9.807996
53.695 9.826755
53.700 9.740928
53.705 9.870763
53.710 10.055399
53.715 9.807269
53.720 9.705557
53.725 9.584468
53.730 9.751692
53.735 9.541045
53.740 9.722221
53.745 9.585846
53.750 9.490015
53.755 9.620397
53.760 9.517621
53.765 9.53408
53.770 9.619838
53.775 9.429017
53.780 9.604528
53.785 9.577351
53.790 9.537813
53.795 9.662231
53.800 9.809347
53.805 9.54774
53.810 9.246498
53.815 8.699978
53.820 8.233669
53.825 8.157893
53.830 7.959232
53.835 8.299126
53.840 8.395474
53.845 8.673698
53.850 8.881374
53.855 9.106223
53.860 9.091185
53.865 9.0655
53.870 8.922139
53.875 8.745513
53.880 8.64184
53.885 8.472732
53.890 8.326516
53.895 8.490162
53.900 8.080748
53.905 8.451751
53.910 8.910434
53.915 9.259225
53.920 9.530531
53.925 9.649016
53.930 9.327301
53.935 9.356496
53.940 8.979557
53.945 8.519774
53.950 8.27798
53.955 8.328966
53.960 8.584856
53.965 8.803988
53.970 8.499411
53.975 8.482537
53.980 8.469789
53.985 8.184862
53.990 7.994813
53.995 7.944207
54.000 8.149172
54.005 8.308706
54.010 8.72729
54.015 8.959555
54.020 9.094446
54.025 9.009906
54.030 8.616384
54.035 8.927209
54.040 9.412255
54.045 9.212153
54.050 9.574664
54.055 9.494471
54.060 9.286212
54.065 9.344904
54.070 8.925889
54.075 8.591358
54.080 8.556896
54.085 8.833446
54.090 9.32574
54.095 9.417983
54.100 9.311489
54.105 9.280521
54.110 9.580333
54.115 9.26996
54.120 8.743269
54.125 8.329076
54.130 8.690125
54.135 9.055706
54.140 9.075032
54.145 8.867188
54.150 8.963927
54.155 9.256066
54.160 9.53333
54.165 9.358395
54.170 9.217645
54.175 9.24371
54.180 9.452304
54.185 9.743443
54.190 9.467548
54.195 9.266907
54.200 9.357435
54.205 9.36216
54.210 9.391672
54.215 8.995367
54.220 8.737867
54.225 9.050882
54.230 9.45111
54.235 9.46172
54.240 9.770112
54.245 10.14782
54.250 10.290032
54.255 10.354184
54.260 10.358177
54.265 10.503451
54.270 10.665057
54.275 10.374918
54.280 10.46563
54.285 10.543719
54.290 10.354423
54.295 10.019482
54.300 9.566183
54.305 9.577844
54.310 9.223229
54.315 8.710831
54.320 8.943926
54.325 9.12946
54.330 8.998944
54.335 8.973826
54.340 8.922729
54.345 9.399881
54.350 9.718048
54.355 9.430357
54.360 9.130777
54.365 9.273107
54.370 9.198739
54.375 9.204491
54.380 8.756222
54.385 8.497614
54.390 8.978847
54.395 9.142128
54.400 9.605986
54.405 9.538679
54.410 9.603141
54.415 10.241987
54.420 10.259606
54.425 9.956149
54.430 9.766932
54.435 9.313086
54.440 9.64534
54.445 9.937156
54.450 10.096819
54.455 10.016582
54.460 10.024343
54.465 10.093166
54.470 9.784473
54.475 9.214272
54.480 8.879348
54.485 8.738029
54.490 8.678658
54.495 8.922357
54.500 8.737536
54.505 8.855581
54.510 9.18897
54.515 9.20104
54.520 9.549435
54.525 10.180084
54.530 10.524047
54.535 10.92475
54.540 11.287085
54.545 11.190069
54.550 11.174508
54.555 10.910914
54.560 10.671232
54.565 10.489751
54.570 10.593305
54.575 10.462309
54.580 10.161475
54.585 10.225047
54.590 9.896152
54.595 9.59263
54.600 9.46041
54.605 9.166919
54.610 8.851966
54.615 9.156688
54.620 9.127598
54.625 9.074301
54.630 9.28053
54.635 9.655499
54.640 9.525002
54.645 9.491401
54.650 9.21325
54.655 8.941889
54.660 9.758693
54.665 10.003575
54.670 10.077523
54.675 10.524396
54.680 10.938334
54.685 11.085876
54.690 10.610428
54.695 9.739303
54.700 9.100436
54.705 8.730884
54.710 8.489336
54.715 8.393581
54.720 8.443205
54.725 8.816094
54.730 9.401209
54.735 9.701304
54.740 9.989391
54.745 10.233633
54.750 9.888496
54.755 9.996866
54.760 10.267642
54.765 10.291351
54.770 9.856019
54.775 9.826233
54.780 10.307117
54.785 10.653736
54.790 10.914922
54.795 10.666463
54.800 10.738923
54.805 11.235975
54.810 10.859049
54.815 10.452073
54.820 10.247395
54.825 10.370313
54.830 10.485375
54.835 10.859362
54.840 10.759314
54.845 10.846915
54.850 11.159701
54.855 11.085062
54.860 10.817553
54.865 10.696849
54.870 10.444766
54.875 10.313134
54.880 10.300591
54.885 9.806911
54.890 9.533374
54.895 9.654118
54.900 9.489923
54.905 9.585643
54.910 10.011848
54.915 10.41953
54.920 10.686543
54.925 10.852583
54.930 10.721913
54.935 10.454488
54.940 10.181037
54.945 10.093408
54.950 10.35724
54.955 10.682558
54.960 11.030807
54.965 11.197234
54.970 11.107606
54.975 11.401658
54.980 11.019468
54.985 10.286802
54.990 10.014339
54.995 9.842952
55.000 9.975096
55.005 9.936676
55.010 9.86348
55.015 10.302356
55.020 10.559854
55.025 10.432814
55.030 10.664241
55.035 10.592565
55.040 10.647895
55.045 10.644753
55.050 10.707001
55.055 10.940911
55.060 11.256738
55.065 10.921037
55.070 11.109208
55.075 11.340538
55.080 11.307464
55.085 10.862394
55.090 10.842818
55.095 10.750272
55.100 10.988548
55.105 10.905801
55.110 10.828572
55.115 10.62125
55.120 10.201975
55.125 9.573449
55.130 9.434638
55.135 9.441
55.140 9.448318
55.145 9.253958
55.150 9.189728
55.155 9.411648
55.160 9.633931
55.165 9.613891
55.170 9.503958
55.175 9.678947
55.180 9.755532
55.185 9.951563
55.190 10.699887
55.195 11.021483
55.200 11.118919
55.205 10.871561
55.210 10.538747
55.215 10.68252
55.220 10.9243
55.225 10.093047
55.230 9.727115
55.235 9.617226
55.240 9.690921
55.245 9.764021
55.250 10.056068
55.255 10.340062
55.260 10.810949
55.265 11.026258
55.270 10.972775
55.275 10.995902
55.280 11.237939
55.285 10.912851
55.290 10.504801
55.295 10.375186
55.300 10.911408
55.305 11.196069
55.310 10.843982
55.315 10.869156
55.320 11.01011
55.325 10.663651
55.330 10.492864
55.335 10.063208
55.340 10.32577
55.345 10.151808
55.350 10.053791
55.355 10.578114
55.360 11.072485
55.365 11.15234
55.370 10.814567
55.375 10.625388
55.380 11.181708
55.385 10.956649
55.390 10.282421
55.395 10.656747
55.400 11.183344
55.405 11.630198
55.410 11.778655
55.415 11.733515
55.420 11.45743
55.425 11.428787
55.430 11.237414
55.435 10.817104
55.440 10.404865
55.445 10.045663
55.450 10.195705
55.455 10.976129
55.460 10.545789
55.465 9.843651
55.470 9.814939
55.475 10.336812
55.480 10.458865
55.485 10.268918
55.490 10.090763
55.495 10.449891
55.500 10.661788
55.505 10.707041
55.510 10.724833
55.515 11.214287
55.520 11.286179
55.525 11.114228
55.530 11.049597
55.535 11.886888
55.540 11.973832
55.545 11.514672
55.550 11.291432
55.555 11.184546
55.560 10.995861
55.565 10.30977
55.570 8.938596
55.575 8.975416
55.580 9.136803
55.585 9.537547
55.590 9.509665
55.595 9.868921
55.600 10.747957
55.605 10.927044
55.610 10.44933
55.615 10.418615
55.620 10.338667
55.625 10.607795
55.630 10.471514
55.635 9.95092
55.640 9.949244
55.645 10.605455
55.650 10.631078
55.655 10.696919
55.660 10.983304
55.665 11.47958
55.670 11.986404
55.675 11.858644
55.680 11.066423
55.685 10.440082
55.690 10.289619
55.695 10.351499
55.700 10.2087
55.705 10.522285
55.710 10.80609
55.715 11.346322
55.720 11.93353
55.725 11.899769
55.730 11.543651
55.735 11.160204
55.740 10.771103
55.745 10.764101
55.750 10.760323
55.755 10.777899
55.760 10.86582
55.765 11.282206
55.770 11.31778
55.775 11.476377
55.780 11.521761
55.785 11.611221
55.790 11.495575
55.795 11.24881
55.800 11.002456
55.805 11.441151
55.810 11.61732
55.815 11.643884
55.820 11.790556
55.825 11.644659
55.830 11.960316
55.835 12.183183
55.840 11.728543
55.845 11.637568
55.850 11.679852
55.855 11.6236
55.860 11.733995
55.865 11.492183
55.870 11.482944
55.875 11.60048
55.880 11.40169
55.885 11.092335
55.890 10.714843
55.895 10.93244
55.900 10.725506
55.905 10.65503
55.910 10.968041
55.915 10.833306
55.920 11.182988
55.925 11.27839
55.930 11.314553
55.935 12.313518
55.940 12.398286
55.945 12.800743
55.950 13.309813
55.955 13.715443
55.960 13.864509
55.965 13.323312
55.970 12.596918
55.975 12.365013
55.980 11.99819
55.985 11.293738
55.990 10.905899
55.995 10.825845
56.000 10.959172
56.005 10.936324
56.010 10.947733
56.015 10.84863
56.020 11.078179
56.025 11.58051
56.030 11.701105
56.035 11.315193
56.040 11.19849
56.045 11.122155
56.050 11.260813
56.055 10.914335
56.060 10.299577
56.065 10.248559
56.070 10.444832
56.075 10.643712
56.080 10.506637
56.085 10.866752
56.090 11.003355
56.095 11.260958
56.100 11.21345
56.105 11.169966
56.110 10.698853
56.115 10.575464
56.120 10.193377
56.125 9.999038
56.130 9.861079
56.135 9.958447
56.140 10.47238
56.145 11.372678
56.150 11.567471
56.155 11.808355
56.160 12.094519
56.165 12.556573
56.170 12.746832
56.175 12.819817
56.180 12.828818
56.185 12.945751
56.190 12.718616
56.195 12.775096
56.200 12.082317
56.205 11.740028
56.210 11.565772
56.215 11.485213
56.220 11.392581
56.225 11.319206
56.230 11.104277
56.235 11.6616
56.240 12.62155
56.245 13.062511
56.250 13.155576
56.255 13.920921
56.260 14.170009
56.265 14.13643
56.270 13.7163
56.275 13.049997
56.280 12.116438
56.285 11.176473
56.290 10.822942
56.295 10.938439
56.300 11.297779
56.305 11.227885
56.310 10.920913
56.315 11.349841
56.320 11.55752
56.325 11.740174
56.330 11.539719
56.335 11.527441
56.340 11.884238
56.345 12.059838
56.350 13.004717
56.355 13.482121
56.360 13.024191
56.365 13.053706
56.370 12.678585
56.375 12.538736
56.380 12.364868
56.385 11.509606
56.390 11.185404
56.395 11.55911
56.400 11.677669
56.405 11.617929
56.410 11.696182
56.415 11.683659
56.420 11.591413
56.425 11.7342
56.430 11.382423
56.435 11.167488
56.440 11.278458
56.445 11.431975
56.450 11.568279
56.455 11.786551
56.460 11.242804
56.465 11.367416
56.470 11.309878
56.475 11.216827
56.480 11.291077
56.485 11.515257
56.490 11.976922
56.495 12.636866
56.500 12.711981
56.505 12.858526
56.510 12.843476
56.515 12.649813
56.520 12.478291
56.525 11.963128
56.530 11.754226
56.535 11.689464
56.540 11.627463
56.545 11.553699
56.550 11.623936
56.555 11.471252
56.560 11.43165
56.565 11.154627
56.570 11.221003
56.575 10.932242
56.580 10.813193
56.585 10.697745
56.590 10.730428
56.595 11.228715
56.600 11.596318
56.605 11.690085
56.610 11.628607
56.615 11.675599
56.620 11.853628
56.625 11.862609
56.630 11.518843
56.635 11.16527
56.640 10.725711
56.645 10.650731
56.650 10.762191
56.655 10.750058
56.660 10.688755
56.665 10.702286
56.670 10.999217
56.675 11.177235
56.680 11.853669
56.685 11.742118
56.690 11.771698
56.695 12.017076
56.700 12.53545
56.705 13.069854
56.710 13.443588
56.715 13.234384
56.720 13.355677
56.725 13.762233
56.730 14.072312
56.735 13.933062
56.740 13.753296
56.745 13.711078
56.750 14.025447
56.755 14.170579
56.760 14.188024
56.765 13.48497
56.770 13.56751
56.775 13.360204
56.780 13.02331
56.785 12.817439
56.790 12.757601
56.795 12.384415
56.800 12.302107
56.805 11.820711
56.810 12.201846
56.815 12.035699
56.820 11.936529
56.825 11.627989
56.830 11.470636
56.835 11.688408
56.840 11.66788
56.845 11.348442
56.850 11.327888
56.855 11.184687
56.860 11.704927
56.865 12.377217
56.870 12.688852
56.875 12.665662
56.880 13.001623
56.885 13.163568
56.890 13.19271
56.895 12.930453
56.900 12.618354
56.905 12.838561
56.910 13.147182
56.915 12.935703
56.920 12.534156
56.925 12.634347
56.930 12.626471
56.935 11.621796
56.940 10.994045
56.945 10.567379
56.950 10.47368
56.955 10.759247
56.960 10.622417
56.965 11.052324
56.970 12.256163
56.975 12.879879
56.980 13.404261
56.985 13.586938
56.990 13.415079
56.995 13.057005
57.000 12.577335
57.005 11.78252
57.010 11.122409
57.015 11.07113
57.020 11.198581
57.025 12.015041
57.030 12.392067
57.035 12.815884
57.040 13.757073
57.045 14.281035
57.050 14.387741
57.055 14.57859
57.060 14.371211
57.065 14.249086
57.070 13.914678
57.075 13.48562
57.080 13.117257
57.085 12.702881
57.090 11.999701
57.095 11.57796
57.100 11.988108
57.105 12.330206
57.110 12.074858
57.115 12.084936
57.120 12.32664
57.125 12.629475
57.130 12.402442
57.135 12.395631
57.140 12.73262
57.145 13.006253
57.150 13.239284
57.155 13.44279
57.160 13.912674
57.165 14.552347
57.170 14.688262
57.175 14.394847
57.180 14.746992
57.185 14.942947
57.190 14.892208
57.195 14.747673
57.200 14.526328
57.205 14.082539
57.210 13.631187
57.215 13.440694
57.220 12.991942
57.225 12.692507
57.230 12.319174
57.235 12.261401
57.240 12.183647
57.245 12.034969
57.250 11.954053
57.255 12.350282
57.260 12.319839
57.265 12.549245
57.270 12.372806
57.275 12.539731
57.280 12.599633
57.285 12.241293
57.290 11.940292
57.295 12.233702
57.300 12.480188
57.305 12.567653
57.310 12.504523
57.315 12.468451
57.320 12.878759
57.325 13.264267
57.330 13.275867
57.335 13.217353
57.340 13.219932
57.345 13.190879
57.350 13.30721
57.355 13.284169
57.360 13.213266
57.365 13.054132
57.370 12.991447
57.375 13.09565
57.380 13.372714
57.385 13.842708
57.390 13.581499
57.395 13.405723
57.400 13.577065
57.405 13.439667
57.410 13.279135
57.415 13.070162
57.420 12.963721
57.425 12.949521
57.430 12.725744
57.435 12.280614
57.440 12.189989
57.445 12.409634
57.450 12.299809
57.455 12.25489
57.460 12.792148
57.465 13.011724
57.470 13.555864
57.475 14.182769
57.480 14.330117
57.485 14.976099
57.490 15.015086
57.495 14.91759
57.500 14.970219
57.505 14.311958
57.510 13.868589
57.515 13.718946
57.520 13.197341
57.525 13.623849
57.530 13.55503
57.535 13.319674
57.540 13.911085
57.545 13.807972
57.550 13.487147
57.555 13.455318
57.560 13.239638
57.565 12.826973
57.570 12.914257
57.575 12.710404
57.580 13.40977
57.585 14.01975
57.590 14.118632
57.595 14.346124
57.600 14.470981
57.605 14.822727
57.610 14.646624
57.615 13.876822
57.620 13.748662
57.625 13.716826
57.630 13.792387
57.635 14.022657
57.640 13.633525
57.645 13.435151
57.650 13.429615
57.655 13.335361
57.660 14.053991
57.665 13.790171
57.670 13.369083
57.675 13.719995
57.680 13.809646
57.685 13.734249
57.690 13.71646
57.695 12.994286
57.700 12.801672
57.705 12.449185
57.710 12.008859
57.715 12.21997
57.720 12.51976
57.725 12.104638
57.730 12.075468
57.735 11.999694
57.740 12.301686
57.745 12.87937
57.750 13.123679
57.755 13.300131
57.760 13.959991
57.765 14.505213
57.770 14.892831
57.775 14.718635
57.780 14.41785
57.785 14.242129
57.790 14.407222
57.795 14.11552
57.800 13.730027
57.805 14.005245
57.810 14.465378
57.815 14.580469
57.820 14.219031
57.825 13.856219
57.830 13.624011
57.835 13.812
57.840 13.814709
57.845 13.673998
57.850 13.872321
57.855 14.152664
57.860 14.004093
57.865 14.033401
57.870 13.76491
57.875 13.850279
57.880 13.978925
57.885 14.521554
57.890 14.974986
57.895 15.315103
57.900 15.08236
57.905 15.035677
57.910 14.96499
57.915 14.852375
57.920 14.80689
57.925 14.446333
57.930 14.435987
57.935 14.696776
57.940 14.800203
57.945 14.741456
57.950 14.747746
57.955 14.683088
57.960 14.712374
57.965 14.824836
57.970 14.744486
57.975 14.535284
57.980 14.875287
57.985 14.273909
57.990 13.721206
57.995 13.797235
58.000 13.599482
58.005 13.471249
58.010 13.248639
58.015 12.980929
58.020 13.146606
58.025 13.599447
58.030 13.611032
58.035 13.6444
58.040 14.285033
58.045 13.95713
58.050 13.531529
58.055 13.514598
58.060 13.815608
58.065 14.492261
58.070 14.772673
58.075 14.581338
58.080 15.592969
58.085 15.910654
58.090 16.024111
58.095 15.901463
58.100 15.551319
58.105 15.984686
58.110 16.22542
58.115 15.918377
58.120 16.290419
58.125 16.066813
58.130 15.94674
58.135 16.167896
58.140 15.6663
58.145 15.745708
58.150 16.417639
58.155 16.194025
58.160 16.015905
58.165 15.87141
58.170 15.640968
58.175 15.194537
58.180 14.56119
58.185 14.483024
58.190 14.231098
58.195 14.287819
58.200 13.993449
58.205 13.510751
58.210 13.502921
58.215 12.953576
58.220 12.205165
58.225 12.441689
58.230 12.232532
58.235 12.098833
58.240 11.796239
58.245 12.012395
58.250 12.308565
58.255 12.770276
58.260 12.614985
58.265 13.070767
58.270 13.792679
58.275 14.416183
58.280 14.653773
58.285 14.911943
58.290 14.856493
58.295 14.546033
58.300 14.557575
58.305 14.802404
58.310 14.60146
58.315 13.788031
58.320 13.1766
58.325 13.033052
58.330 13.652254
58.335 13.646508
58.340 13.651645
58.345 13.882414
58.350 14.968784
58.355 14.829958
58.360 14.311134
58.365 13.815834
58.370 13.482922
58.375 13.64826
58.380 13.360979
58.385 12.577146
58.390 13.388608
58.395 13.713675
58.400 14.005104
58.405 13.848642
58.410 13.16557
58.415 13.372455
58.420 13.815509
58.425 13.69244
58.430 13.603092
58.435 13.994266
58.440 13.871648
58.445 14.103621
58.450 14.366069
58.455 14.452499
58.460 14.209254
58.465 14.286386
58.470 14.144551
58.475 14.955942
58.480 15.041655
58.485 15.202615
58.490 15.297831
58.495 15.636085
58.500 15.79982
58.505 15.246371
58.510 14.615789
58.515 14.461999
58.520 14.56387
58.525 14.437041
58.530 14.277526
58.535 14.391579
58.540 15.121398
58.545 15.497638
