!@!!GADDS PLOTSO FILE: Chi integration type
!@!!Title/SampleName: map-d0
!@!!Comment: ?
!@!!User: Bruker Instrument Administrator
!@!!Site: University of Illinois Chicago
!@!!Frame: map-d0_01_000.gfrm
!@!!Wavelengths    1.54184   1.54056   1.54439
!@!!Frame angles: 2Theta: 63.000 Omega: 50.000 Phi: 0.000 Chi: 90.000
!@!!Integration range: 2Theta: 53.000 to 73.000  Gamma: -105.000 to -75.000
!@!!Integration method: bin normalized
!@!N
!@!SS
!@!M
!@!L 0.0 0.0 0.0 0.0
!@!XDegrees
!@!YCounts
53.000 9.713984
53.005 10.113677
53.010 10.480857
53.015 10.987464
53.020 11.183425
53.025 10.829019
53.030 10.901633
53.035 11.25385
53.040 11.498779
53.045 11.294659
53.050 10.977697
53.055 11.073512
53.060 11.30237
53.065 11.017772
53.070 10.425263
53.075 9.901546
53.080 9.927307
53.085 9.671541
53.090 9.623162
53.095 9.24473
53.100 9.423752
53.105 9.39038
53.110 9.50615
53.115 9.661492
53.120 9.299441
53.125 9.593257
53.130 9.940901
53.135 10.4647
53.140 10.581145
53.145 10.784442
53.150 11.059995
53.155 11.127868
53.160 11.017407
53.165 10.74797
53.170 10.401167
53.175 10.186201
53.180 9.9129
53.185 9.715985
53.190 10.012817
53.195 9.890818
53.200 9.766718
53.205 9.50427
53.210 9.360954
53.215 9.441461
53.220 10.23412
53.225 10.08234
53.230 10.069165
53.235 10.277168
53.240 10.791839
53.245 11.228333
53.250 11.45644
53.255 11.509288
53.260 11.621071
53.265 11.316561
53.270 11.216862
53.275 11.127514
53.280 10.8473
53.285 10.352854
53.290 10.22669
53.295 10.33223
53.300 10.523684
53.305 10.412292
53.310 10.337208
53.315 9.978278
53.320 9.641622
53.325 9.618557
53.330 9.662927
53.335 9.504264
53.340 9.437483
53.345 9.220154
53.350 9.772943
53.355 9.593329
53.360 9.17503
53.365 9.156038
53.370 9.203005
53.375 9.580172
53.380 10.173808
53.385 10.406463
53.390 10.431989
53.395 10.331966
53.400 10.103708
53.405 9.922177
53.410 9.570436
53.415 9.012399
53.420 8.888553
53.425 9.123399
53.430 9.327195
53.435 9.893788
53.440 10.08087
53.445 9.854182
53.450 9.835757
53.455 9.882142
53.460 9.983708
53.465 9.481366
53.470 8.907729
53.475 9.092872
53.480 9.815973
53.485 10.487851
53.490 10.425845
53.495 10.862664
53.500 11.945189
53.505 12.445646
53.510 12.027941
53.515 11.736971
53.520 11.27269
53.525 11.420918
53.530 10.93488
53.535 10.670579
53.540 10.835413
53.545 11.092669
53.550 10.695215
53.555 10.394314
53.560 10.383711
53.565 10.292246
53.570 10.2847
53.575 10.040007
53.580 10.136144
53.585 10.709182
53.590 11.491412
53.595 11.70447
53.600 11.691186
53.605 11.760506
53.610 12.115093
53.615 12.04101
53.620 11.938812
53.625 12.031214
53.630 12.3188
53.635 12.119941
53.640 12.130278
53.645 11.735877
53.650 11.653523
53.655 11.513228
53.660 11.319059
53.665 11.396683
53.670 11.274171
53.675 10.734632
53.680 10.913319
53.685 10.909452
53.690 10.481371
53.695 10.036403
53.700 9.418946
53.705 9.591697
53.710 9.629959
53.715 9.514981
53.720 9.456135
53.725 10.237515
53.730 10.412419
53.735 10.723669
53.740 10.945768
53.745 11.098757
53.750 10.824636
53.755 10.731023
53.760 10.31828
53.765 10.258874
53.770 10.12314
53.775 10.274554
53.780 10.696432
53.785 10.925856
53.790 10.510948
53.795 10.161401
53.800 10.398794
53.805 10.822092
53.810 10.794827
53.815 10.696033
53.820 10.879592
53.825 11.491117
53.830 11.220988
53.835 10.974965
53.840 10.625401
53.845 10.492071
53.850 10.687559
53.855 10.637083
53.860 10.610696
53.865 11.195543
53.870 11.183622
53.875 11.278154
53.880 11.142921
53.885 10.795482
53.890 10.644815
53.895 10.216308
53.900 10.138228
53.905 9.778785
53.910 9.821938
53.915 10.482183
53.920 10.557865
53.925 10.711112
53.930 10.94844
53.935 11.222894
53.940 11.284293
53.945 10.847152
53.950 10.306319
53.955 10.608683
53.960 10.552471
53.965 9.750609
53.970 9.799541
53.975 10.068461
53.980 10.127439
53.985 10.197974
53.990 9.619425
53.995 10.336617
54.000 10.83392
54.005 10.619175
54.010 10.455792
54.015 10.380637
54.020 10.978046
54.025 11.351079
54.030 11.360614
54.035 11.445309
54.040 11.674112
54.045 11.896441
54.050 12.119925
54.055 11.751884
54.060 11.210811
54.065 10.588027
54.070 10.387802
54.075 10.356831
54.080 10.201792
54.085 10.393911
54.090 10.677533
54.095 11.181958
54.100 11.227242
54.105 10.937978
54.110 10.985475
54.115 10.882521
54.120 10.784677
54.125 10.781643
54.130 10.887711
54.135 11.086691
54.140 11.233002
54.145 11.506574
54.150 11.477913
54.155 11.214598
54.160 10.977893
54.165 11.145708
54.170 11.434305
54.175 11.530843
54.180 11.367205
54.185 11.190149
54.190 11.241231
54.195 10.813944
54.200 10.61339
54.205 10.467859
54.210 10.259278
54.215 10.328524
54.220 10.539232
54.225 11.266628
54.230 11.819098
54.235 12.381637
54.240 12.557405
54.245 12.24989
54.250 12.028728
54.255 11.640964
54.260 11.392572
54.265 11.77002
54.270 11.814357
54.275 12.027155
54.280 12.520924
54.285 12.998199
54.290 13.185779
54.295 13.054257
54.300 12.501219
54.305 11.9406
54.310 11.713235
54.315 11.65826
54.320 11.629438
54.325 11.604586
54.330 11.691689
54.335 11.437939
54.340 11.273705
54.345 11.130034
54.350 11.141253
54.355 10.939963
54.360 10.891899
54.365 10.915243
54.370 11.130053
54.375 11.509451
54.380 11.339981
54.385 11.036139
54.390 11.12347
54.395 11.669218
54.400 11.644083
54.405 11.940099
54.410 11.872415
54.415 12.279676
54.420 12.539386
54.425 12.034946
54.430 11.431633
54.435 11.454748
54.440 11.635454
54.445 11.361443
54.450 10.862681
54.455 10.597696
54.460 10.581367
54.465 10.518204
54.470 10.352921
54.475 9.970165
54.480 10.357926
54.485 10.917071
54.490 11.443645
54.495 12.020389
54.500 12.049855
54.505 11.617423
54.510 11.498247
54.515 11.438331
54.520 10.958351
54.525 10.647724
54.530 10.125761
54.535 10.312465
54.540 10.371176
54.545 10.19216
54.550 10.118454
54.555 10.42486
54.560 10.483971
54.565 10.946037
54.570 11.181282
54.575 11.739367
54.580 12.293019
54.585 12.844635
54.590 12.511889
54.595 12.257626
54.600 11.56396
54.605 11.221494
54.610 11.18548
54.615 11.132625
54.620 11.492345
54.625 11.759474
54.630 12.154909
54.635 12.460655
54.640 12.627092
54.645 12.377963
54.650 11.440766
54.655 10.866459
54.660 10.525328
54.665 10.498419
54.670 11.03686
54.675 11.316838
54.680 11.751292
54.685 12.525669
54.690 12.827728
54.695 13.132566
54.700 13.053574
54.705 12.602864
54.710 11.955077
54.715 11.621669
54.720 11.509816
54.725 11.29046
54.730 11.063616
54.735 10.952922
54.740 10.938329
54.745 11.406779
54.750 11.488313
54.755 11.117708
54.760 11.09374
54.765 11.226651
54.770 11.425072
54.775 12.14636
54.780 12.118958
54.785 11.867078
54.790 11.979575
54.795 12.330006
54.800 12.071521
54.805 11.689564
54.810 11.585823
54.815 11.571218
54.820 12.013079
54.825 12.594536
54.830 12.774315
54.835 12.808097
54.840 12.861004
54.845 13.131773
54.850 13.090904
54.855 12.803023
54.860 11.863321
54.865 11.462318
54.870 11.981578
54.875 11.95693
54.880 11.74759
54.885 12.049853
54.890 12.534611
54.895 13.004038
54.900 13.18084
54.905 12.738662
54.910 12.645881
54.915 12.535055
54.920 12.255527
54.925 11.939983
54.930 12.12243
54.935 12.263836
54.940 12.789516
54.945 12.630368
54.950 12.495661
54.955 12.625349
54.960 12.566936
54.965 12.361426
54.970 11.705563
54.975 11.275433
54.980 11.468822
54.985 11.955061
54.990 11.829412
54.995 11.993587
55.000 11.888773
55.005 12.142542
55.010 12.353006
55.015 12.165504
55.020 11.978786
55.025 12.191041
55.030 11.619321
55.035 11.382298
55.040 11.251068
55.045 10.954475
55.050 10.701025
55.055 10.210012
55.060 10.327373
55.065 11.048403
55.070 11.494285
55.075 11.773185
55.080 12.120279
55.085 12.476122
55.090 12.430959
55.095 12.754425
55.100 12.90453
55.105 12.991622
55.110 12.987032
55.115 12.497987
55.120 12.713235
55.125 13.699808
55.130 13.394243
55.135 13.234137
55.140 13.065269
55.145 13.13788
55.150 13.462798
55.155 13.067496
55.160 12.471698
55.165 12.839919
55.170 13.056694
55.175 13.258473
55.180 13.236516
55.185 13.131185
55.190 12.916016
55.195 12.648174
55.200 12.464501
55.205 12.242007
55.210 12.156345
55.215 12.309084
55.220 12.086834
55.225 12.27366
55.230 12.429478
55.235 12.022727
55.240 11.958656
55.245 11.804118
55.250 12.081707
55.255 11.940416
55.260 11.827971
55.265 11.579003
55.270 12.020588
55.275 11.675127
55.280 11.523525
55.285 11.541742
55.290 11.729091
55.295 11.413918
55.300 11.375679
55.305 11.244236
55.310 11.803523
55.315 11.976299
55.320 11.655674
55.325 11.6718
55.330 11.860766
55.335 11.640059
55.340 11.705954
55.345 11.81311
55.350 12.140038
55.355 12.488004
55.360 12.556566
55.365 12.340609
55.370 12.161484
55.375 12.003883
55.380 11.801308
55.385 11.457096
55.390 11.3345
55.395 11.712676
55.400 12.220055
55.405 12.635499
55.410 12.406405
55.415 12.367174
55.420 12.450451
55.425 12.173383
55.430 12.443005
55.435 12.614822
55.440 12.812234
55.445 13.70532
55.450 13.918181
55.455 13.940315
55.460 13.965569
55.465 13.510621
55.470 13.563382
55.475 13.362168
55.480 12.751709
55.485 12.647036
55.490 12.78832
55.495 12.911901
55.500 12.91797
55.505 12.707916
55.510 12.769222
55.515 12.730933
55.520 13.230262
55.525 13.235633
55.530 13.13384
55.535 13.600419
55.540 13.899153
55.545 13.919929
55.550 14.028436
55.555 13.438364
55.560 13.642813
55.565 14.051861
55.570 13.782289
55.575 13.558657
55.580 13.771285
55.585 13.819453
55.590 13.547853
55.595 13.07739
55.600 13.172364
55.605 13.380873
55.610 13.086392
55.615 13.227365
55.620 13.122064
55.625 13.442867
55.630 13.322659
55.635 12.397869
55.640 12.10851
55.645 12.145421
55.650 11.758286
55.655 11.439286
55.660 11.228975
55.665 11.13382
55.670 11.874575
55.675 12.688164
55.680 12.902361
55.685 13.028718
55.690 13.560292
55.695 13.793336
55.700 14.055188
55.705 13.411814
55.710 12.858557
55.715 12.85983
55.720 13.174651
55.725 12.838504
55.730 12.607303
55.735 12.219201
55.740 12.377139
55.745 12.380782
55.750 12.46455
55.755 11.796581
55.760 12.10648
55.765 12.464791
55.770 12.761239
55.775 13.155429
55.780 13.102273
55.785 13.411674
55.790 13.89558
55.795 13.338844
55.800 13.08978
55.805 13.36004
55.810 13.62683
55.815 13.822355
55.820 13.5903
55.825 13.961987
55.830 14.560452
55.835 15.038342
55.840 14.774849
55.845 14.129299
55.850 14.110757
55.855 13.82044
55.860 13.577132
55.865 13.127709
55.870 12.670458
55.875 13.221015
55.880 13.334061
55.885 12.949121
55.890 12.84173
55.895 12.63424
55.900 12.765988
55.905 12.870522
55.910 12.296633
55.915 12.134715
55.920 12.386727
55.925 12.472465
55.930 12.952407
55.935 13.005823
55.940 13.016505
55.945 13.64407
55.950 13.993674
55.955 14.226136
55.960 13.950948
55.965 13.502829
55.970 13.575541
55.975 13.165236
55.980 12.589858
55.985 12.303402
55.990 12.152825
55.995 12.391735
56.000 12.76137
56.005 12.998368
56.010 13.610222
56.015 13.846245
56.020 14.03099
56.025 14.02494
56.030 14.032928
56.035 13.852468
56.040 14.324137
56.045 14.085443
56.050 14.119299
56.055 13.971403
56.060 14.063169
56.065 14.267899
56.070 14.216418
56.075 13.524966
56.080 14.091921
56.085 14.349796
56.090 14.76927
56.095 15.049072
56.100 14.258455
56.105 13.638074
56.110 13.200234
56.115 12.786414
56.120 12.471791
56.125 12.309613
56.130 12.248862
56.135 12.741203
56.140 13.584929
56.145 13.917364
56.150 13.570697
56.155 13.390862
56.160 13.007311
56.165 13.035889
56.170 13.094875
56.175 12.781455
56.180 11.80138
56.185 11.92944
56.190 12.262164
56.195 12.544673
56.200 12.576586
56.205 12.32829
56.210 12.538006
56.215 13.441548
56.220 13.578591
56.225 13.332075
56.230 13.195762
56.235 13.529715
56.240 13.774272
56.245 13.42447
56.250 13.524752
56.255 13.434278
56.260 13.313657
56.265 13.025331
56.270 12.484773
56.275 12.516606
56.280 12.455197
56.285 12.201877
56.290 12.546458
56.295 12.790564
56.300 12.994507
56.305 13.440971
56.310 14.009789
56.315 14.314943
56.320 13.913945
56.325 14.11305
56.330 14.063396
56.335 14.18331
56.340 14.198598
56.345 14.324289
56.350 14.790301
56.355 15.263259
56.360 14.731521
56.365 14.711312
56.370 14.733651
56.375 14.368743
56.380 14.235427
56.385 14.177835
56.390 14.061462
56.395 14.052747
56.400 13.68687
56.405 13.294282
56.410 13.023497
56.415 12.710164
56.420 12.271659
56.425 12.494211
56.430 12.550887
56.435 12.91179
56.440 12.989572
56.445 12.89286
56.450 12.55846
56.455 12.269665
56.460 12.357417
56.465 12.757106
56.470 12.372046
56.475 12.534553
56.480 12.831411
56.485 12.953861
56.490 13.232417
56.495 12.791186
56.500 12.526135
56.505 13.814322
56.510 14.074324
56.515 13.987453
56.520 14.40213
56.525 14.39669
56.530 14.56947
56.535 14.403946
56.540 13.843429
56.545 13.700577
56.550 13.615229
56.555 12.928371
56.560 12.958941
56.565 13.410949
56.570 13.660964
56.575 13.504429
56.580 13.759637
56.585 14.176085
56.590 14.41993
56.595 14.186885
56.600 13.858759
56.605 13.514396
56.610 12.987971
56.615 12.557899
56.620 11.941377
56.625 11.751421
56.630 11.68831
56.635 11.717017
56.640 12.134588
56.645 12.222801
56.650 12.267984
56.655 12.83189
56.660 13.855906
56.665 14.373172
56.670 14.85906
56.675 14.914093
56.680 15.495575
56.685 15.632516
56.690 15.879349
56.695 15.936768
56.700 15.72653
56.705 15.571705
56.710 15.316283
56.715 15.324615
56.720 15.300876
56.725 14.872434
56.730 14.82798
56.735 15.162673
56.740 15.220482
56.745 15.410856
56.750 15.036226
56.755 15.249623
56.760 15.438269
56.765 14.950055
56.770 14.768909
56.775 15.339985
56.780 15.636114
56.785 15.302065
56.790 14.896572
56.795 15.086122
56.800 15.818967
56.805 15.54573
56.810 15.259849
56.815 14.965012
56.820 15.848447
56.825 16.213846
56.830 15.565128
56.835 15.109848
56.840 14.526768
56.845 13.973778
56.850 14.347593
56.855 13.984492
56.860 13.863394
56.865 13.953712
56.870 13.972216
56.875 14.505816
56.880 14.383339
56.885 13.931475
56.890 14.100026
56.895 14.06027
56.900 14.34592
56.905 14.441704
56.910 14.769785
56.915 15.241588
56.920 15.382306
56.925 15.881173
56.930 16.406719
56.935 16.551323
56.940 16.562481
56.945 16.369911
56.950 16.506762
56.955 15.936412
56.960 14.761642
56.965 14.697523
56.970 14.032121
56.975 13.656238
56.980 13.264478
56.985 12.998108
56.990 13.310353
56.995 13.449334
57.000 12.993853
57.005 13.159506
57.010 13.502673
57.015 13.610806
57.020 13.468663
57.025 13.482906
57.030 13.768862
57.035 13.924788
57.040 14.354517
57.045 14.33533
57.050 14.151817
57.055 14.495584
57.060 14.843572
57.065 14.669563
57.070 14.390941
57.075 14.37357
57.080 14.304173
57.085 14.413403
57.090 13.766657
57.095 13.845521
57.100 14.104892
57.105 14.395135
57.110 13.994785
57.115 14.96293
57.120 15.282002
57.125 15.548641
57.130 15.431394
57.135 15.10344
57.140 14.710615
57.145 14.663709
57.150 13.963951
57.155 14.198132
57.160 14.722907
57.165 14.927239
57.170 15.123169
57.175 15.776165
57.180 16.07309
57.185 16.13146
57.190 15.907723
57.195 15.289305
57.200 15.129184
57.205 14.889942
57.210 14.71108
57.215 14.725637
57.220 14.620815
57.225 14.478781
57.230 14.05003
57.235 14.507189
57.240 14.986208
57.245 14.595645
57.250 14.233068
57.255 13.912065
57.260 13.967895
57.265 14.355748
57.270 14.23223
57.275 13.877513
57.280 13.388905
57.285 13.848447
57.290 14.202916
57.295 14.545
57.300 14.840367
57.305 14.785891
57.310 14.913033
57.315 15.18765
57.320 14.295726
57.325 13.98732
57.330 13.68056
57.335 13.502758
57.340 13.614411
57.345 13.929766
57.350 14.392479
57.355 15.161579
57.360 15.028062
57.365 15.150182
57.370 15.41182
57.375 15.654749
57.380 15.828107
57.385 15.710599
57.390 15.789946
57.395 15.810761
57.400 15.705812
57.405 15.159895
57.410 14.680347
57.415 14.654062
57.420 14.804863
57.425 15.055124
57.430 15.331273
57.435 14.92039
57.440 14.803477
57.445 14.903644
57.450 14.458897
57.455 14.582316
57.460 14.270408
57.465 14.599139
57.470 14.955138
57.475 15.161166
57.480 14.661133
57.485 15.088844
57.490 15.23671
57.495 14.883174
57.500 14.448808
57.505 14.689931
57.510 14.645537
57.515 15.403592
57.520 15.10933
57.525 15.656411
57.530 16.646118
57.535 17.150404
57.540 17.00316
57.545 16.715574
57.550 16.162014
57.555 16.02276
57.560 15.540256
57.565 15.125677
57.570 14.909163
57.575 14.88376
57.580 15.178871
57.585 15.146089
57.590 15.674028
57.595 15.457083
57.600 15.057117
57.605 15.151813
57.610 15.617404
57.615 15.954382
57.620 16.436497
57.625 16.240387
57.630 16.48213
57.635 16.846691
57.640 16.958717
57.645 17.058943
57.650 17.18314
57.655 16.908953
57.660 16.355778
57.665 16.106138
57.670 16.776466
57.675 16.327349
57.680 16.088655
57.685 16.077942
57.690 15.992464
57.695 16.575314
57.700 17.118004
57.705 16.32267
57.710 16.555454
57.715 16.198793
57.720 16.390289
57.725 16.103384
57.730 15.970019
57.735 15.182709
57.740 15.449814
57.745 15.028397
57.750 14.634467
57.755 14.313189
57.760 14.416659
57.765 13.771674
57.770 13.888198
57.775 14.024682
57.780 14.463491
57.785 15.252851
57.790 15.331916
57.795 15.655422
57.800 15.934496
57.805 15.566315
57.810 15.091669
57.815 15.013586
57.820 14.859882
57.825 14.542038
57.830 14.198028
57.835 14.256569
57.840 14.782543
57.845 15.000564
57.850 14.993698
57.855 14.821906
57.860 15.400068
57.865 15.485649
57.870 16.067949
57.875 16.297112
57.880 16.784708
57.885 16.890259
57.890 16.857891
57.895 16.453987
57.900 16.900352
57.905 16.493954
57.910 16.224874
57.915 15.85954
57.920 15.970479
57.925 16.451109
57.930 16.664135
57.935 16.257408
57.940 16.146713
57.945 16.027317
57.950 15.782458
57.955 15.180081
57.960 14.602541
57.965 14.174983
57.970 14.391302
57.975 14.446157
57.980 14.777287
57.985 15.316851
57.990 15.544785
57.995 15.630445
58.000 15.702129
58.005 16.053244
58.010 15.874648
58.015 15.177731
58.020 14.758654
58.025 14.776647
58.030 14.745109
58.035 14.611425
58.040 14.368412
58.045 14.448042
58.050 15.209149
58.055 15.387969
58.060 15.142071
58.065 15.108401
58.070 15.352069
58.075 15.511271
58.080 15.292018
58.085 15.394882
58.090 15.486384
58.095 15.420451
58.100 15.71158
58.105 15.636157
58.110 15.815146
58.115 15.641788
58.120 15.238814
58.125 15.304892
58.130 15.676122
58.135 15.536501
58.140 15.677494
58.145 15.515285
58.150 15.53486
58.155 16.043776
58.160 15.761191
58.165 15.96307
58.170 16.023087
58.175 15.602938
58.180 15.367997
58.185 15.213006
58.190 14.845629
58.195 14.642379
58.200 14.306474
58.205 13.877977
58.210 13.896854
58.215 14.744533
58.220 15.502797
58.225 15.686934
58.230 15.586144
58.235 15.591338
58.240 15.831317
58.245 16.041521
58.250 15.441971
58.255 14.983227
58.260 15.434028
58.265 15.732464
58.270 15.390571
58.275 15.141171
58.280 15.359929
58.285 15.499117
58.290 15.006703
58.295 14.475842
58.300 14.886523
58.305 15.491582
58.310 15.653026
58.315 14.851429
58.320 14.427031
58.325 14.64033
58.330 14.673136
58.335 14.138659
58.340 14.108837
58.345 14.697229
58.350 15.06319
58.355 15.506923
58.360 15.916524
58.365 16.413548
58.370 16.687624
58.375 16.539858
58.380 15.878049
58.385 16.110977
58.390 16.459017
58.395 16.305115
58.400 15.686251
58.405 15.103011
58.410 14.941249
58.415 14.604894
58.420 14.352776
58.425 13.931332
58.430 13.63109
58.435 13.566428
58.440 14.14382
58.445 14.962986
58.450 15.525422
58.455 15.806859
58.460 16.386772
