!@!!GADDS PLOTSO FILE: Chi integration type
!@!!Title/SampleName: map-b
!@!!Comment: ?
!@!!User: Bruker Instrument Administrator
!@!!Site: University of Illinois Chicago
!@!!Frame: map-b_01_000.gfrm
!@!!Wavelengths    1.54184   1.54056   1.54439
!@!!Frame angles: 2Theta: 63.000 Omega: 50.000 Phi: 0.000 Chi: 90.000
!@!!Integration range: 2Theta: 53.000 to 73.000  Gamma: -105.000 to -75.000
!@!!Integration method: bin normalized
!@!N
!@!SS
!@!M
!@!L 0.0 0.0 0.0 0.0
!@!XDegrees
!@!YCounts
53.000 7.290015
53.005 7.194067
53.010 7.131044
53.015 7.217743
53.020 6.770854
53.025 6.989583
53.030 6.944649
53.035 6.818726
53.040 6.732345
53.045 6.653304
53.050 6.832684
53.055 7.091539
53.060 7.104192
53.065 6.817126
53.070 6.642962
53.075 6.939102
53.080 6.446915
53.085 6.368619
53.090 6.459441
53.095 7.058153
53.100 7.614033
53.105 8.121177
53.110 7.961621
53.115 8.171672
53.120 8.28525
53.125 7.914242
53.130 7.622167
53.135 7.100099
53.140 6.600654
53.145 6.532945
53.150 6.103373
53.155 5.70488
53.160 5.869588
53.165 6.095019
53.170 6.301365
53.175 6.525411
53.180 6.694674
53.185 6.985659
53.190 6.957579
53.195 6.823355
53.200 6.726538
53.205 6.682632
53.210 6.414019
53.215 5.950494
53.220 5.937641
53.225 6.307207
53.230 6.504189
53.235 6.452551
53.240 6.525314
53.245 6.791718
53.250 7.167677
53.255 6.916359
53.260 6.640648
53.265 6.633475
53.270 6.694172
53.275 6.612859
53.280 6.695279
53.285 7.114045
53.290 7.276708
53.295 6.993362
53.300 6.996487
53.305 7.172421
53.310 7.457274
53.315 7.789151
53.320 7.523695
53.325 7.242641
53.330 7.270858
53.335 7.394534
53.340 7.292234
53.345 6.870553
53.350 6.457434
53.355 6.391388
53.360 6.684903
53.365 6.980711
53.370 7.032645
53.375 7.240661
53.380 7.395018
53.385 7.704677
53.390 8.051376
53.395 8.095223
53.400 7.870466
53.405 7.708276
53.410 7.363017
53.415 7.411571
53.420 7.136261
53.425 6.926303
53.430 6.727262
53.435 6.611189
53.440 6.617522
53.445 6.884659
53.450 6.899705
53.455 7.041587
53.460 6.952983
53.465 6.894072
53.470 7.436343
53.475 7.484354
53.480 7.380898
53.485 7.344367
53.490 7.543736
53.495 7.986038
53.500 8.087191
53.505 7.654036
53.510 7.668068
53.515 7.896579
53.520 7.706544
53.525 7.905926
53.530 7.796618
53.535 7.226128
53.540 7.062054
53.545 7.040635
53.550 7.352816
53.555 7.309244
53.560 6.86035
53.565 7.082675
53.570 7.653138
53.575 8.193174
53.580 8.520612
53.585 8.153264
53.590 8.1641
53.595 8.355461
53.600 8.454111
53.605 8.230993
53.610 8.017097
53.615 7.717784
53.620 7.721212
53.625 7.744057
53.630 7.487012
53.635 7.196272
53.640 7.255436
53.645 7.28457
53.650 7.198402
53.655 7.023258
53.660 6.991084
53.665 7.11368
53.670 7.003527
53.675 6.873476
53.680 6.973145
53.685 7.850013
53.690 8.759583
53.695 9.148512
53.700 9.36119
53.705 9.321804
53.710 8.979162
53.715 8.448216
53.720 7.5407
53.725 7.041438
53.730 6.803359
53.735 6.590222
53.740 7.092912
53.745 7.178714
53.750 7.431419
53.755 7.5636
53.760 7.914261
53.765 7.975784
53.770 8.170807
53.775 8.178173
53.780 8.301056
53.785 8.26163
53.790 8.250469
53.795 7.817861
53.800 7.884462
53.805 7.39948
53.810 7.083092
53.815 7.332623
53.820 7.526442
53.825 7.483899
53.830 7.351593
53.835 7.432031
53.840 8.004493
53.845 7.997687
53.850 8.066194
53.855 7.93532
53.860 8.341846
53.865 8.623327
53.870 8.303425
53.875 8.069373
53.880 8.230429
53.885 8.109403
53.890 8.332487
53.895 8.128321
53.900 8.018965
53.905 7.951246
53.910 7.912304
53.915 7.815306
53.920 7.564946
53.925 7.235852
53.930 7.632506
53.935 7.528021
53.940 8.187592
53.945 8.24008
53.950 7.932384
53.955 8.082495
53.960 8.097044
53.965 7.924891
53.970 7.517154
53.975 7.298081
53.980 7.490298
53.985 7.84647
53.990 8.016082
53.995 7.55444
54.000 7.763189
54.005 8.164545
54.010 8.239368
54.015 8.089265
54.020 7.77418
54.025 7.833868
54.030 8.610862
54.035 8.607258
54.040 8.593706
54.045 8.733651
54.050 8.821675
54.055 8.666173
54.060 8.624331
54.065 8.240346
54.070 8.414356
54.075 8.726704
54.080 8.850584
54.085 9.145821
54.090 9.42417
54.095 9.357041
54.100 9.648924
54.105 9.486822
54.110 8.874419
54.115 8.636202
54.120 8.246034
54.125 8.057478
54.130 8.5424
54.135 8.0358
54.140 7.968143
54.145 8.163786
54.150 8.206343
54.155 8.224149
54.160 8.031498
54.165 7.756073
54.170 8.034134
54.175 8.09649
54.180 8.029801
54.185 8.125951
54.190 8.311734
54.195 8.361914
54.200 8.081696
54.205 8.051403
54.210 7.650767
54.215 7.977424
54.220 7.930641
54.225 8.038118
54.230 8.16767
54.235 8.624666
54.240 8.574674
54.245 8.839437
54.250 8.52331
54.255 8.565633
54.260 8.829046
54.265 8.452216
54.270 8.161029
54.275 8.849931
54.280 9.168953
54.285 9.222283
54.290 9.356806
54.295 9.256404
54.300 9.491719
54.305 9.416715
54.310 8.932864
54.315 9.044019
54.320 8.904096
54.325 8.71619
54.330 8.748524
54.335 8.495348
54.340 8.727368
54.345 8.632627
54.350 8.432084
54.355 8.615417
54.360 8.447655
54.365 8.533628
54.370 8.31957
54.375 7.974351
54.380 7.927969
54.385 7.862721
54.390 7.444422
54.395 7.633905
54.400 7.586359
54.405 7.731429
54.410 7.556177
54.415 7.602469
54.420 7.995373
54.425 8.000444
54.430 8.112211
54.435 8.488153
54.440 8.390636
54.445 8.61954
54.450 8.434415
54.455 8.24484
54.460 8.123152
54.465 7.866485
54.470 7.74516
54.475 8.020229
54.480 8.289248
54.485 8.470862
54.490 8.559114
54.495 8.480866
54.500 8.459479
54.505 8.786468
54.510 8.853784
54.515 8.694405
54.520 8.870234
54.525 9.179394
54.530 9.249789
54.535 8.953729
54.540 8.791668
54.545 8.67063
54.550 8.489673
54.555 8.645761
54.560 8.556816
54.565 8.495833
54.570 8.595178
54.575 8.783609
54.580 9.179208
54.585 9.087588
54.590 8.697307
54.595 9.191758
54.600 9.798549
54.605 10.026622
54.610 9.966018
54.615 9.599032
54.620 9.811586
54.625 9.57001
54.630 8.962994
54.635 8.630001
54.640 8.582632
54.645 8.227577
54.650 8.267269
54.655 8.500414
54.660 8.68684
54.665 8.724128
54.670 8.715937
54.675 8.621767
54.680 8.829906
54.685 9.062601
54.690 8.998321
54.695 9.037884
54.700 9.089246
54.705 9.141438
54.710 9.123923
54.715 9.237954
54.720 8.933243
54.725 8.884969
54.730 8.738931
54.735 8.879285
54.740 8.690447
54.745 8.895704
54.750 8.914718
54.755 9.21891
54.760 9.258819
54.765 9.329082
54.770 8.928216
54.775 8.80157
54.780 8.787426
54.785 8.32275
54.790 8.100545
54.795 8.559892
54.800 8.657383
54.805 9.096732
54.810 9.159813
54.815 9.279565
54.820 9.613878
54.825 9.912959
54.830 9.838378
54.835 9.856289
54.840 9.671674
54.845 9.588499
54.850 9.358962
54.855 8.875607
54.860 8.659076
54.865 8.507691
54.870 8.371319
54.875 8.606901
54.880 8.514688
54.885 8.80754
54.890 9.19893
54.895 9.183276
54.900 9.022887
54.905 9.648261
54.910 9.685954
54.915 10.581766
54.920 10.866584
54.925 11.058259
54.930 10.987151
54.935 10.688832
54.940 10.394018
54.945 10.168732
54.950 9.972808
54.955 9.763271
54.960 9.500503
54.965 9.618706
54.970 9.553725
54.975 9.1663
54.980 8.657083
54.985 8.039195
54.990 7.802258
54.995 8.006507
55.000 8.131334
55.005 8.407916
55.010 8.542788
55.015 8.80625
55.020 8.707774
55.025 8.748441
55.030 8.589117
55.035 8.592158
55.040 8.368466
55.045 8.136867
55.050 8.378691
55.055 8.46113
55.060 8.45478
55.065 8.193912
55.070 8.138334
55.075 8.566993
55.080 8.850658
55.085 8.809367
55.090 8.79337
55.095 8.909726
55.100 9.095688
55.105 9.26884
55.110 9.121681
55.115 9.120397
55.120 8.789497
55.125 8.472013
55.130 8.538431
55.135 8.762999
55.140 9.129432
55.145 9.123626
55.150 8.862546
55.155 8.93843
55.160 9.664989
55.165 9.966521
55.170 9.87245
55.175 9.823079
55.180 9.892462
55.185 10.443148
55.190 10.69936
55.195 9.838599
55.200 9.621087
55.205 9.392201
55.210 9.38184
55.215 9.754135
55.220 9.658098
55.225 9.769032
55.230 10.06496
55.235 9.982059
55.240 10.043937
55.245 10.101386
55.250 9.928224
55.255 9.664884
55.260 9.5895
55.265 9.328784
55.270 9.163481
55.275 8.863435
55.280 8.513677
55.285 8.276525
55.290 8.359821
55.295 8.891105
55.300 9.462033
55.305 9.692788
55.310 9.59948
55.315 9.443921
55.320 9.546333
55.325 9.586443
55.330 9.26679
55.335 8.712075
55.340 8.980334
55.345 9.155218
55.350 9.418859
55.355 9.528207
55.360 9.596043
55.365 9.378269
55.370 9.180085
55.375 8.864561
55.380 8.848678
55.385 8.764043
55.390 8.599117
55.395 8.530765
55.400 9.166306
55.405 9.720042
55.410 9.51559
55.415 9.690701
55.420 9.488326
55.425 9.519948
55.430 9.42292
55.435 9.361602
55.440 9.199367
55.445 9.601595
55.450 9.809017
55.455 9.925089
55.460 9.838657
55.465 10.233406
55.470 10.480847
55.475 11.153469
55.480 11.027779
55.485 11.016113
55.490 11.211741
55.495 11.594675
55.500 10.954607
55.505 10.761147
55.510 10.355294
55.515 10.420545
55.520 10.477194
55.525 10.400597
55.530 9.881012
55.535 9.756415
55.540 9.647882
55.545 9.713173
55.550 10.024651
55.555 9.712642
55.560 9.998158
55.565 10.182479
55.570 10.433764
55.575 10.221389
55.580 10.034404
55.585 9.686566
55.590 9.736578
55.595 9.668682
55.600 9.733151
55.605 9.437019
55.610 9.72982
55.615 10.210679
55.620 10.366324
55.625 10.389812
55.630 9.966193
55.635 10.007426
55.640 10.364972
55.645 10.367659
55.650 10.043942
55.655 10.299486
55.660 10.649776
55.665 10.564137
55.670 10.707376
55.675 10.587403
55.680 10.029444
55.685 9.861342
55.690 9.231372
55.695 9.261742
55.700 9.792665
55.705 9.54423
55.710 9.831142
55.715 10.427208
55.720 10.737921
55.725 10.81426
55.730 10.321688
55.735 9.734641
55.740 9.645469
55.745 9.430687
55.750 9.018819
55.755 8.490048
55.760 8.92506
55.765 9.345136
55.770 9.291842
55.775 9.297974
55.780 9.605342
55.785 9.787083
55.790 9.824735
55.795 10.018287
55.800 10.335502
55.805 10.850359
55.810 10.67468
55.815 10.357212
55.820 10.491356
55.825 10.527148
55.830 10.140117
55.835 10.418948
55.840 10.461297
55.845 10.482758
55.850 10.51135
55.855 10.526059
55.860 10.535223
55.865 10.32995
55.870 10.294305
55.875 10.919981
55.880 11.502422
55.885 12.04318
55.890 12.349347
55.895 12.650945
55.900 12.407048
55.905 11.249278
55.910 10.751438
55.915 10.485093
55.920 10.341153
55.925 10.396586
55.930 10.384629
55.935 10.677892
55.940 11.584908
55.945 11.555109
55.950 11.466903
55.955 11.019026
55.960 10.761705
55.965 10.261009
55.970 10.386084
55.975 10.311646
55.980 10.535109
55.985 10.447736
55.990 10.467863
55.995 10.364186
56.000 10.372246
56.005 10.17228
56.010 10.116129
56.015 10.12727
56.020 10.531349
56.025 10.35778
56.030 10.401033
56.035 10.764346
56.040 10.509587
56.045 10.151523
56.050 9.536582
56.055 9.102095
56.060 9.448606
56.065 9.573316
56.070 9.335532
56.075 9.314044
56.080 9.28002
56.085 9.660737
56.090 10.05018
56.095 10.063493
56.100 10.250306
56.105 10.333892
56.110 10.718584
56.115 11.073801
56.120 11.037632
56.125 10.911085
56.130 10.887197
56.135 10.720435
56.140 10.883775
56.145 10.845613
56.150 11.305663
56.155 11.563088
56.160 11.416162
56.165 11.625618
56.170 11.519862
56.175 11.48126
56.180 11.194873
56.185 10.304523
56.190 9.966932
56.195 9.759753
56.200 9.837013
56.205 10.311527
56.210 10.245392
56.215 10.564958
56.220 10.637828
56.225 10.486567
56.230 10.977621
56.235 10.926774
56.240 10.256431
56.245 10.661738
56.250 10.612875
56.255 10.272751
56.260 10.323989
56.265 9.908093
56.270 9.614579
56.275 9.6346
56.280 8.974355
56.285 9.272728
56.290 9.992089
56.295 9.981475
56.300 10.425338
56.305 10.921474
56.310 11.185001
56.315 11.191216
56.320 11.137112
56.325 11.697316
56.330 11.769906
56.335 11.772917
56.340 11.537801
56.345 12.015286
56.350 12.40093
56.355 11.99896
56.360 11.453006
56.365 11.435347
56.370 11.344035
56.375 11.597326
56.380 11.368299
56.385 11.157454
56.390 11.304324
56.395 11.593319
56.400 11.816658
56.405 11.958137
56.410 11.618429
56.415 11.548383
56.420 11.298012
56.425 11.620362
56.430 12.272566
56.435 12.329629
56.440 11.746632
56.445 11.986358
56.450 11.707576
56.455 11.801968
56.460 11.324275
56.465 10.636262
56.470 10.753381
56.475 10.834771
56.480 10.585605
56.485 10.855691
56.490 11.265459
56.495 11.711532
56.500 12.370588
56.505 12.332583
56.510 12.451514
56.515 12.469393
56.520 12.435028
56.525 12.116373
56.530 11.648756
56.535 11.022934
56.540 11.092684
56.545 11.146484
56.550 11.814095
56.555 11.77584
56.560 11.349324
56.565 11.367404
56.570 11.276772
56.575 11.067534
56.580 10.735229
56.585 10.316711
56.590 10.941104
56.595 11.780946
56.600 11.642641
56.605 11.326714
56.610 11.208928
56.615 11.534827
56.620 11.644312
56.625 11.009224
56.630 10.640424
56.635 10.474179
56.640 10.460296
56.645 10.619643
56.650 10.317412
56.655 9.956532
56.660 9.606798
56.665 9.19805
56.670 9.331383
56.675 9.456597
56.680 9.417166
56.685 9.708155
56.690 10.236588
56.695 11.071041
56.700 10.99846
56.705 10.824963
56.710 10.964959
56.715 11.320414
56.720 10.644118
56.725 10.684051
56.730 10.482533
56.735 10.884109
56.740 11.166503
56.745 11.021745
56.750 11.512756
56.755 12.441717
56.760 12.165671
56.765 12.909359
56.770 13.300145
56.775 13.609625
56.780 13.585472
56.785 12.753851
56.790 12.21974
56.795 11.897584
56.800 11.520981
56.805 11.263139
56.810 11.152163
56.815 11.236829
56.820 11.668403
56.825 11.819941
56.830 11.790648
56.835 11.686913
56.840 12.487855
56.845 12.813987
56.850 12.913925
56.855 12.985409
56.860 13.043643
56.865 13.149333
56.870 12.583142
56.875 11.852617
56.880 11.261924
56.885 11.231366
56.890 10.762075
56.895 10.628874
56.900 10.996363
56.905 11.179512
56.910 11.108909
56.915 11.124712
56.920 10.926964
56.925 11.165795
56.930 11.053446
56.935 11.495145
56.940 11.71095
56.945 11.721524
56.950 11.944236
56.955 11.850546
56.960 11.737917
56.965 11.926471
56.970 11.00526
56.975 10.885552
56.980 10.636953
56.985 10.804423
56.990 11.156576
56.995 11.113781
57.000 11.14373
57.005 10.82927
57.010 10.499713
57.015 10.457645
57.020 10.089744
57.025 10.103042
57.030 9.919601
57.035 10.108153
57.040 10.563003
57.045 10.645542
57.050 10.769992
57.055 11.199847
57.060 11.315295
57.065 11.811468
57.070 11.848899
57.075 11.877314
57.080 12.257442
57.085 12.311131
57.090 12.128101
57.095 11.918091
57.100 11.727775
57.105 11.603126
57.110 11.741163
57.115 11.667583
57.120 11.951158
57.125 12.093029
57.130 11.923372
57.135 11.858826
57.140 11.78019
57.145 11.877041
57.150 11.771552
57.155 11.538973
57.160 11.528093
57.165 11.519043
57.170 11.609767
57.175 11.582008
57.180 11.304173
57.185 11.114266
57.190 11.201933
57.195 11.599006
57.200 11.541369
57.205 11.370185
57.210 11.314263
57.215 11.861901
57.220 12.221383
57.225 11.962058
57.230 11.744435
57.235 12.129345
57.240 12.217505
57.245 12.581714
57.250 12.557996
57.255 12.45071
57.260 12.154489
57.265 11.870096
57.270 12.091717
57.275 12.429914
57.280 12.302901
57.285 11.565239
57.290 11.98541
57.295 12.437924
57.300 12.492894
57.305 12.183487
57.310 11.932324
57.315 11.627081
57.320 12.152667
57.325 11.775834
57.330 11.997826
57.335 12.048467
57.340 11.574374
57.345 11.79961
57.350 11.783036
57.355 12.491632
57.360 12.689469
57.365 12.342025
57.370 12.126237
57.375 12.328268
57.380 12.255879
57.385 12.318841
57.390 11.703848
57.395 11.668048
57.400 11.355667
57.405 11.823244
57.410 12.251538
57.415 12.344897
57.420 12.259959
57.425 12.107341
57.430 12.264904
57.435 12.431497
57.440 12.328482
57.445 12.134018
57.450 12.389918
57.455 11.845967
57.460 12.108975
57.465 12.389271
57.470 12.512745
57.475 12.473163
57.480 12.315119
57.485 12.560121
57.490 13.090532
57.495 13.031592
57.500 12.897063
57.505 12.705299
57.510 12.801466
57.515 13.135373
57.520 12.721696
57.525 12.527364
57.530 12.372567
57.535 12.404385
57.540 12.242749
57.545 11.896546
57.550 11.925181
57.555 12.681837
57.560 12.890034
57.565 13.039595
57.570 13.208673
57.575 13.754139
57.580 13.955262
57.585 13.731941
57.590 13.125587
57.595 13.157319
57.600 13.248555
57.605 12.751335
57.610 12.488338
57.615 12.369282
57.620 11.818398
57.625 11.989557
57.630 12.594208
57.635 12.517015
57.640 12.867288
57.645 12.953883
57.650 12.972253
57.655 13.730664
57.660 13.62139
57.665 13.30642
57.670 13.597111
57.675 13.770709
57.680 13.697082
57.685 13.844316
57.690 13.73105
57.695 12.911441
57.700 12.598571
57.705 12.269271
57.710 11.942296
57.715 11.851236
57.720 11.337337
57.725 11.242718
57.730 11.317033
57.735 10.967059
57.740 10.861335
57.745 11.062959
57.750 11.460633
57.755 11.448131
57.760 11.866443
57.765 12.464618
57.770 12.311275
57.775 12.455774
57.780 12.037634
57.785 12.444127
57.790 12.710454
57.795 12.455339
57.800 12.624283
57.805 13.228638
57.810 13.1472
57.815 13.020368
57.820 12.412386
57.825 12.277719
57.830 12.475936
57.835 12.3901
57.840 12.018643
57.845 11.962718
57.850 12.146998
57.855 12.783668
57.860 12.783025
57.865 12.490032
57.870 12.354712
57.875 12.538824
57.880 12.39234
57.885 11.97812
57.890 11.640476
57.895 11.71144
57.900 11.616144
57.905 11.810829
57.910 11.814317
57.915 12.119805
57.920 12.591916
57.925 12.672848
57.930 12.456017
57.935 12.559415
57.940 12.632481
57.945 12.717043
57.950 12.565437
57.955 12.618697
57.960 12.530775
57.965 12.900929
57.970 13.028575
57.975 12.481726
57.980 13.005082
57.985 13.056076
57.990 12.895136
57.995 13.127814
58.000 13.182867
58.005 12.89309
58.010 13.416656
58.015 13.169102
58.020 13.397951
58.025 13.14362
58.030 12.768812
58.035 13.042052
58.040 13.254039
58.045 13.211407
58.050 13.766748
58.055 13.968915
58.060 13.868316
58.065 13.779336
58.070 13.508791
58.075 13.343008
58.080 13.498172
58.085 13.636516
58.090 13.515166
58.095 13.984296
58.100 14.370621
58.105 14.450449
58.110 14.829492
58.115 14.39965
58.120 13.991846
58.125 13.987709
58.130 13.976661
58.135 13.942772
58.140 14.102502
58.145 14.252415
58.150 14.197897
58.155 14.014399
58.160 14.125491
58.165 14.327026
58.170 14.341863
58.175 13.954497
58.180 13.45898
58.185 13.569223
58.190 13.705411
58.195 13.552157
58.200 13.059977
58.205 13.200543
58.210 13.273639
58.215 13.506177
58.220 13.225737
58.225 12.884218
58.230 12.950543
58.235 12.912396
58.240 12.743592
58.245 12.575345
58.250 12.267966
58.255 12.111552
58.260 12.039732
58.265 11.73166
58.270 11.809826
58.275 11.813928
58.280 12.0747
58.285 12.269779
58.290 12.856893
58.295 12.924423
58.300 13.029931
58.305 13.219803
58.310 13.009442
58.315 12.627249
58.320 12.259839
58.325 12.261794
58.330 12.379293
58.335 12.36779
58.340 12.220721
58.345 12.177873
58.350 12.30073
58.355 12.208793
58.360 12.015471
58.365 11.999288
58.370 12.105065
58.375 12.131068
58.380 12.186704
58.385 12.389839
58.390 12.404304
58.395 12.258548
58.400 12.459796
58.405 12.570041
58.410 12.857551
58.415 13.116528
58.420 12.806574
58.425 12.963689
58.430 13.729362
58.435 14.096128
58.440 13.805361
58.445 13.469239
58.450 13.689481
58.455 14.473563
58.460 14.546226
58.465 13.939054
58.470 13.657464
58.475 13.768672
58.480 13.578654
58.485 13.126244
58.490 13.196929
58.495 13.174114
58.500 12.815052
58.505 12.931234
58.510 13.064641
58.515 13.809037
58.520 13.760243
58.525 13.112993
58.530 12.958945
58.535 13.639659
58.540 13.361579
58.545 13.008131
58.550 12.338714
58.555 12.35813
58.560 12.796141
58.565 12.953938
58.570 13.151318
58.575 13.513357
58.580 13.164266
58.585 13.46846
