!@!!GADDS PLOTSO FILE: Chi integration type
!@!!Title/SampleName: map-17e
!@!!Comment: ?
!@!!User: Bruker Instrument Administrator
!@!!Site: University of Illinois Chicago
!@!!Frame: map-17e_01_000.gfrm
!@!!Wavelengths    1.54184   1.54056   1.54439
!@!!Frame angles: 2Theta: 63.000 Omega: 50.000 Phi: 0.000 Chi: 90.000
!@!!Integration range: 2Theta: 53.000 to 73.000  Gamma: -105.000 to -75.000
!@!!Integration method: bin normalized
!@!N
!@!SS
!@!M
!@!L 0.0 0.0 0.0 0.0
!@!XDegrees
!@!YCounts
53.000 8.367485
53.005 8.35758
53.010 8.24248
53.015 8.307091
53.020 8.013712
53.025 7.868266
53.030 7.938606
53.035 7.612069
53.040 7.794077
53.045 7.737001
53.050 7.812531
53.055 7.914671
53.060 8.024836
53.065 8.392094
53.070 8.897726
53.075 8.822818
53.080 8.834608
53.085 8.680757
53.090 8.846247
53.095 8.892929
53.100 8.296498
53.105 8.06104
53.110 8.397007
53.115 8.336037
53.120 8.733578
53.125 8.732215
53.130 8.470717
53.135 8.446014
53.140 8.407507
53.145 8.468586
53.150 8.444571
53.155 8.540814
53.160 8.577154
53.165 9.170908
53.170 9.374063
53.175 9.437541
53.180 9.199808
53.185 9.349755
53.190 9.397839
53.195 8.919623
53.200 8.619537
53.205 8.7271
53.210 9.079206
53.215 9.200545
53.220 9.099758
53.225 8.670077
53.230 9.031692
53.235 9.068942
53.240 8.401387
53.245 7.951246
53.250 7.903981
53.255 8.672758
53.260 8.777611
53.265 8.11107
53.270 8.293005
53.275 8.107515
53.280 8.101286
53.285 8.034855
53.290 7.626721
53.295 7.670301
53.300 7.770781
53.305 7.814802
53.310 8.563329
53.315 8.712879
53.320 8.635507
53.325 8.881029
53.330 8.881197
53.335 8.915214
53.340 9.130949
53.345 8.514029
53.350 8.568615
53.355 8.378104
53.360 8.428823
53.365 8.738926
53.370 8.863767
53.375 8.567973
53.380 8.814852
53.385 8.350478
53.390 8.499422
53.395 8.625522
53.400 8.749827
53.405 8.624057
53.410 8.786592
53.415 9.112973
53.420 9.287571
53.425 8.783282
53.430 8.324347
53.435 8.079547
53.440 7.814271
53.445 7.680722
53.450 7.583194
53.455 7.734161
53.460 8.235054
53.465 8.450538
53.470 8.346498
53.475 8.726525
53.480 8.691222
53.485 8.525221
53.490 8.723507
53.495 8.295325
53.500 8.423074
53.505 8.937829
53.510 8.867702
53.515 8.924376
53.520 8.770403
53.525 8.989114
53.530 9.44609
53.535 9.542101
53.540 9.34208
53.545 9.021127
53.550 9.22878
53.555 9.535399
53.560 9.763355
53.565 9.82339
53.570 9.725266
53.575 9.90048
53.580 9.979456
53.585 9.48926
53.590 8.834688
53.595 8.672747
53.600 8.625527
53.605 8.644995
53.610 9.029952
53.615 9.15239
53.620 9.493143
53.625 9.321256
53.630 9.174906
53.635 9.150644
53.640 9.303919
53.645 8.824575
53.650 8.803069
53.655 8.449818
53.660 8.661598
53.665 9.177828
53.670 9.155336
53.675 8.647401
53.680 8.677661
53.685 8.708962
53.690 8.844321
53.695 9.277089
53.700 8.69895
53.705 9.197688
53.710 9.499543
53.715 9.332667
53.720 9.696388
53.725 10.325103
53.730 9.930083
53.735 9.773024
53.740 9.247121
53.745 9.32479
53.750 9.481742
53.755 9.109776
53.760 8.547988
53.765 8.406027
53.770 8.580021
53.775 8.906555
53.780 9.014503
53.785 9.134352
53.790 9.11798
53.795 9.347807
53.800 9.19059
53.805 9.406664
53.810 9.726664
53.815 9.386361
53.820 9.048026
53.825 9.159686
53.830 9.127609
53.835 9.427688
53.840 8.708318
53.845 8.360896
53.850 8.947376
53.855 8.845951
53.860 8.810781
53.865 8.853476
53.870 8.787259
53.875 8.723856
53.880 9.032398
53.885 8.961206
53.890 9.022934
53.895 8.994847
53.900 8.42006
53.905 8.736852
53.910 8.987087
53.915 8.628338
53.920 8.71208
53.925 9.290504
53.930 9.862934
53.935 9.814075
53.940 9.194868
53.945 9.281556
53.950 9.429864
53.955 9.424036
53.960 8.808307
53.965 8.692625
53.970 9.299829
53.975 9.546035
53.980 9.282478
53.985 9.019813
53.990 8.877807
53.995 9.036994
54.000 9.094845
54.005 9.045081
54.010 9.123359
54.015 9.580589
54.020 9.686912
54.025 9.914581
54.030 9.923476
54.035 9.577466
54.040 9.400343
54.045 9.236461
54.050 8.98081
54.055 8.800591
54.060 8.376307
54.065 8.409684
54.070 8.678333
54.075 8.610974
54.080 8.852133
54.085 9.10962
54.090 9.525524
54.095 9.521698
54.100 9.545139
54.105 9.223857
54.110 9.082012
54.115 8.657197
54.120 8.233121
54.125 8.023765
54.130 7.947808
54.135 8.309137
54.140 8.721448
54.145 9.059776
54.150 9.363214
54.155 9.572745
54.160 9.807269
54.165 9.687959
54.170 9.269548
54.175 8.986938
54.180 8.963884
54.185 8.896064
54.190 9.128803
54.195 9.353883
54.200 9.726853
54.205 9.863243
54.210 9.9524
54.215 9.615691
54.220 9.623643
54.225 9.447285
54.230 9.540789
54.235 9.442639
54.240 9.423285
54.245 9.536872
54.250 9.872184
54.255 10.11367
54.260 10.280628
54.265 10.21849
54.270 10.69125
54.275 10.56894
54.280 10.231163
54.285 9.85021
54.290 9.673127
54.295 9.388666
54.300 8.758988
54.305 8.558416
54.310 9.189423
54.315 9.366108
54.320 9.718973
54.325 9.482675
54.330 9.564467
54.335 9.847495
54.340 9.290499
54.345 8.745967
54.350 9.128781
54.355 9.273616
54.360 9.487371
54.365 9.268123
54.370 9.073655
54.375 9.333376
54.380 9.063478
54.385 8.561893
54.390 8.037916
54.395 7.828738
54.400 7.83634
54.405 7.645523
54.410 7.864989
54.415 7.944758
54.420 7.945143
54.425 7.920874
54.430 7.853896
54.435 8.132118
54.440 8.277473
54.445 8.544588
54.450 8.945233
54.455 9.4701
54.460 9.87633
54.465 9.940198
54.470 9.939902
54.475 10.143996
54.480 10.171202
54.485 10.104424
54.490 9.92914
54.495 9.756315
54.500 9.921423
54.505 10.319826
54.510 9.92795
54.515 9.362676
54.520 8.900556
54.525 8.629413
54.530 8.583722
54.535 8.534576
54.540 8.203759
54.545 8.377834
54.550 8.55216
54.555 9.053412
54.560 9.673921
54.565 9.833809
54.570 9.772992
54.575 9.934697
54.580 9.964526
54.585 10.146399
54.590 9.674055
54.595 9.073412
54.600 8.880132
54.605 8.7974
54.610 8.554989
54.615 8.561189
54.620 8.658177
54.625 8.882936
54.630 9.136645
54.635 9.593824
54.640 9.962322
54.645 10.042423
54.650 10.286658
54.655 9.711107
54.660 9.483361
54.665 9.166053
54.670 8.890688
54.675 8.854135
54.680 8.785995
54.685 8.593455
54.690 9.440282
54.695 9.664121
54.700 9.62606
54.705 9.303432
54.710 9.067424
54.715 9.135919
54.720 9.230128
54.725 8.940155
54.730 9.229053
54.735 9.273582
54.740 9.855846
54.745 10.309942
54.750 10.515998
54.755 10.387288
54.760 9.900363
54.765 9.723633
54.770 9.757812
54.775 9.965601
54.780 9.498441
54.785 9.415964
54.790 9.46768
54.795 9.925922
54.800 10.066523
54.805 9.827826
54.810 9.480828
54.815 10.028794
54.820 9.685184
54.825 9.171321
54.830 8.755929
54.835 8.913648
54.840 8.82701
54.845 8.660419
54.850 8.354988
54.855 8.39946
54.860 8.665765
54.865 8.96113
54.870 8.913032
54.875 9.018356
54.880 9.023684
54.885 9.102223
54.890 9.737084
54.895 10.127188
54.900 10.39724
54.905 10.38524
54.910 10.591555
54.915 10.851758
54.920 11.189312
54.925 11.407753
54.930 11.056278
54.935 10.56855
54.940 10.613837
54.945 10.444972
54.950 10.415401
54.955 9.968262
54.960 9.691407
54.965 10.430842
54.970 10.48773
54.975 10.474433
54.980 10.224291
54.985 10.292642
54.990 10.311166
54.995 9.74825
55.000 9.372676
55.005 9.357876
55.010 9.850783
55.015 9.952669
55.020 10.083214
55.025 10.556211
55.030 10.618503
55.035 10.572797
55.040 10.265759
55.045 9.842887
55.050 9.544888
55.055 9.344445
55.060 9.513602
55.065 9.259361
55.070 9.227501
55.075 8.933331
55.080 9.04882
55.085 9.536061
55.090 9.153453
55.095 8.968922
55.100 9.143389
55.105 9.540656
55.110 9.987139
55.115 10.117455
55.120 10.896895
55.125 11.543158
55.130 11.870299
55.135 11.778875
55.140 11.540664
55.145 11.426142
55.150 10.517452
55.155 9.830637
55.160 9.428589
55.165 9.657214
55.170 9.790034
55.175 9.322222
55.180 8.922507
55.185 9.171776
55.190 9.232519
55.195 9.102794
55.200 8.585546
55.205 8.973418
55.210 9.389292
55.215 9.866506
55.220 10.258355
55.225 9.710885
55.230 9.561376
55.235 9.789179
55.240 9.470202
55.245 9.492514
55.250 9.33237
55.255 8.527853
55.260 8.884215
55.265 9.154764
55.270 8.997711
55.275 9.059219
55.280 9.005555
55.285 9.055803
55.290 9.339705
55.295 9.03784
55.300 8.904943
55.305 9.064763
55.310 9.084651
55.315 8.936016
55.320 9.013319
55.325 9.112662
55.330 9.565841
55.335 9.407825
55.340 9.574418
55.345 9.621971
55.350 9.814984
55.355 9.982549
55.360 10.165689
55.365 10.719374
55.370 10.811077
55.375 10.598999
55.380 10.862658
55.385 10.638141
55.390 10.703357
55.395 10.678942
55.400 10.225637
55.405 10.33246
55.410 10.290169
55.415 10.198104
55.420 10.709876
55.425 10.654713
55.430 10.816883
55.435 11.21888
55.440 11.313518
55.445 11.565291
55.450 11.25103
55.455 10.93084
55.460 10.877291
55.465 10.451796
55.470 10.315598
55.475 9.875248
55.480 9.993718
55.485 10.354218
55.490 10.127541
55.495 10.833136
55.500 10.533435
55.505 10.359254
55.510 10.14505
55.515 9.652348
55.520 9.907439
55.525 9.580254
55.530 8.824383
55.535 9.064675
55.540 8.919598
55.545 9.5599
55.550 9.699041
55.555 9.393799
55.560 9.734716
55.565 9.651341
55.570 9.718349
55.575 10.096416
55.580 10.198452
55.585 10.364933
55.590 10.621545
55.595 10.963501
55.600 11.277987
55.605 11.032054
55.610 11.215741
55.615 10.632236
55.620 10.576201
55.625 10.131266
55.630 10.03851
55.635 9.655054
55.640 9.549221
55.645 9.700552
55.650 10.139764
55.655 10.583529
55.660 10.639387
55.665 10.480101
55.670 10.558871
55.675 10.438586
55.680 10.213796
55.685 10.074134
55.690 10.238003
55.695 10.180958
55.700 10.006787
55.705 10.265653
55.710 10.322062
55.715 10.65531
55.720 10.656421
55.725 10.334397
55.730 10.521056
55.735 10.421759
55.740 10.322715
55.745 9.938016
55.750 9.673693
55.755 9.359333
55.760 9.394737
55.765 9.277996
55.770 9.405382
55.775 9.781284
55.780 10.009283
55.785 9.630454
55.790 9.84434
55.795 10.082847
55.800 10.314814
55.805 10.224663
55.810 9.774388
55.815 10.463584
55.820 10.851099
55.825 10.914286
55.830 10.394113
55.835 10.627338
55.840 11.538852
55.845 11.937349
55.850 11.765675
55.855 11.437693
55.860 11.083676
55.865 11.147559
55.870 10.714582
55.875 10.145235
55.880 10.180624
55.885 10.278773
55.890 10.527366
55.895 10.941208
55.900 10.928617
55.905 10.903762
55.910 10.504644
55.915 10.333898
55.920 9.902421
55.925 9.543958
55.930 9.401859
55.935 9.730073
55.940 10.05898
55.945 10.416465
55.950 10.210046
55.955 10.567568
55.960 10.63838
55.965 10.466357
55.970 10.18592
55.975 10.233974
55.980 10.73805
55.985 10.838864
55.990 11.236344
55.995 11.59932
56.000 11.732833
56.005 11.681937
56.010 10.824811
56.015 10.106004
56.020 10.026934
56.025 9.640127
56.030 9.777481
56.035 9.94232
56.040 10.522657
56.045 11.296292
56.050 11.545723
56.055 11.026269
56.060 10.58997
56.065 10.612391
56.070 10.468185
56.075 10.140688
56.080 9.848833
56.085 10.383438
56.090 10.809104
56.095 11.246688
56.100 10.760871
56.105 10.467248
56.110 10.699544
56.115 10.853054
56.120 10.57307
56.125 10.291404
56.130 10.302081
56.135 10.653254
56.140 11.193469
56.145 11.003235
56.150 10.787639
56.155 10.670526
56.160 11.105981
56.165 11.143953
56.170 10.728063
56.175 9.970513
56.180 9.444495
56.185 9.611382
56.190 9.940001
56.195 9.717689
56.200 9.351062
56.205 9.60892
56.210 9.952415
56.215 10.014988
56.220 9.694192
56.225 9.363932
56.230 9.584381
56.235 10.118005
56.240 10.491378
56.245 11.045821
56.250 11.2543
56.255 11.278196
56.260 11.179676
56.265 10.523257
56.270 9.895185
56.275 9.476251
56.280 9.474443
56.285 9.531342
56.290 9.578168
56.295 9.876539
56.300 10.026487
56.305 10.208011
56.310 10.068334
56.315 9.8744
56.320 10.344422
56.325 10.897846
56.330 11.186765
56.335 11.802046
56.340 11.674984
56.345 11.409619
56.350 11.262162
56.355 11.074688
56.360 10.494081
56.365 10.331157
56.370 10.106488
56.375 10.571314
56.380 10.787845
56.385 10.886222
56.390 11.221994
56.395 11.649418
56.400 11.495495
56.405 11.58631
56.410 11.709232
56.415 11.555676
56.420 11.44421
56.425 10.969917
56.430 11.110959
56.435 10.992028
56.440 10.789115
56.445 11.027465
56.450 11.414606
56.455 11.610678
56.460 11.535101
56.465 11.653047
56.470 11.742668
56.475 11.586451
56.480 11.38109
56.485 11.612386
56.490 11.843152
56.495 12.068241
56.500 11.747957
56.505 11.789431
56.510 12.083207
56.515 11.888844
56.520 11.554453
56.525 11.195222
56.530 10.878502
56.535 10.906938
56.540 10.904296
56.545 11.090508
56.550 11.115599
56.555 11.378006
56.560 11.337632
56.565 11.489985
56.570 11.831503
56.575 11.724981
56.580 11.540452
56.585 11.408043
56.590 11.095996
56.595 11.322445
56.600 11.058025
56.605 10.696988
56.610 11.031125
56.615 11.18119
56.620 11.434773
56.625 11.39879
56.630 11.025804
56.635 10.87795
56.640 10.994289
56.645 11.148742
56.650 10.920789
56.655 10.937031
56.660 10.992952
56.665 11.466132
56.670 11.988379
56.675 11.832979
56.680 11.650314
56.685 11.654079
56.690 11.922897
56.695 12.063363
56.700 11.962586
56.705 11.674499
56.710 11.389133
56.715 11.268399
56.720 11.446816
56.725 11.340206
56.730 11.243426
56.735 11.184443
56.740 11.272814
56.745 11.238087
56.750 11.651432
56.755 12.248263
56.760 12.766823
56.765 12.844558
56.770 12.911957
56.775 12.628791
56.780 12.709677
56.785 12.132833
56.790 11.318128
56.795 10.602673
56.800 11.443397
56.805 12.230424
56.810 12.671371
56.815 12.301345
56.820 12.299571
56.825 12.562267
56.830 12.387987
56.835 10.993404
56.840 10.30397
56.845 10.506557
56.850 10.508218
56.855 10.345543
56.860 9.961339
56.865 10.43395
56.870 10.838758
56.875 10.751802
56.880 10.349561
56.885 10.408714
56.890 10.387395
56.895 10.627584
56.900 10.459026
56.905 10.725319
56.910 11.176472
56.915 11.577215
56.920 11.404319
56.925 11.418859
56.930 11.368917
56.935 11.26831
56.940 10.858484
56.945 10.169023
56.950 10.445831
56.955 11.418768
56.960 11.980227
56.965 12.057693
56.970 12.09174
56.975 12.757842
56.980 13.136233
56.985 12.779189
56.990 12.216671
56.995 12.084163
57.000 12.227577
57.005 11.977772
57.010 11.51853
57.015 11.35774
57.020 11.19456
57.025 10.987308
57.030 10.574305
57.035 10.399101
57.040 10.180245
57.045 10.077471
57.050 9.998418
57.055 10.074871
57.060 10.077584
57.065 10.270574
57.070 10.704054
57.075 10.89217
57.080 11.035851
57.085 10.880027
57.090 10.703708
57.095 10.629012
57.100 10.733677
57.105 9.998248
57.110 9.757892
57.115 9.703961
57.120 9.70595
57.125 10.563217
57.130 11.087873
57.135 11.582243
57.140 12.160385
57.145 12.291029
57.150 12.273652
57.155 12.317056
57.160 11.656403
57.165 11.26128
57.170 11.187841
57.175 11.543049
57.180 11.774345
57.185 11.739738
57.190 11.717088
57.195 11.558473
57.200 11.241668
57.205 10.60171
57.210 10.259165
57.215 10.540476
57.220 10.650877
57.225 10.668315
57.230 11.209589
57.235 11.662486
57.240 12.201981
57.245 12.241199
57.250 12.031549
57.255 12.474278
57.260 12.504816
57.265 12.093969
57.270 12.012188
57.275 11.666132
57.280 11.362075
57.285 11.140986
57.290 10.499385
57.295 10.341464
57.300 10.907578
57.305 11.126518
57.310 10.848436
57.315 10.824565
57.320 11.379809
57.325 12.124439
57.330 12.289519
57.335 11.831281
57.340 11.776552
57.345 11.835112
57.350 12.112511
57.355 12.061635
57.360 11.827644
57.365 11.987728
57.370 12.009069
57.375 11.813241
57.380 11.745876
57.385 11.982297
57.390 12.242905
57.395 12.321366
57.400 12.045622
57.405 11.957946
57.410 11.813628
57.415 11.710939
57.420 11.035339
57.425 10.379905
57.430 9.767479
57.435 9.406872
57.440 9.249646
57.445 9.361063
57.450 9.438528
57.455 9.82881
57.460 10.188267
57.465 10.474031
57.470 11.118203
57.475 11.574487
57.480 12.018871
57.485 12.425956
57.490 12.613418
57.495 12.493356
57.500 12.305876
57.505 11.933664
57.510 11.511842
57.515 11.071525
57.520 10.844321
57.525 11.012687
57.530 10.980989
57.535 11.545164
57.540 11.767352
57.545 11.6863
57.550 11.784165
57.555 11.789632
57.560 11.968333
57.565 12.231652
57.570 12.0692
57.575 12.340747
57.580 12.629744
57.585 13.007814
57.590 13.08083
57.595 12.538992
57.600 12.291467
57.605 12.139383
57.610 11.977566
57.615 12.060096
57.620 12.340834
57.625 12.312299
57.630 12.099119
57.635 12.078513
57.640 12.182415
57.645 12.314684
57.650 11.792962
57.655 11.268406
57.660 11.064471
57.665 11.049008
57.670 11.003065
57.675 10.673981
57.680 10.374665
57.685 10.238337
57.690 10.121039
57.695 9.733062
57.700 9.825588
57.705 9.870617
57.710 9.861798
57.715 10.170408
57.720 10.538079
57.725 11.014975
57.730 11.418549
57.735 11.876032
57.740 11.900655
57.745 12.21772
57.750 12.062284
57.755 11.733136
57.760 11.609643
57.765 11.286427
57.770 11.067104
57.775 11.029836
57.780 11.043168
57.785 11.383231
57.790 11.559495
57.795 11.806149
57.800 11.931196
57.805 11.838113
57.810 11.978198
57.815 11.759991
57.820 11.61613
57.825 11.614536
57.830 11.387922
57.835 11.736088
57.840 11.739379
57.845 12.018028
57.850 11.973145
57.855 12.021085
57.860 12.3259
57.865 12.147952
57.870 11.853089
57.875 12.064452
57.880 11.660023
57.885 11.937869
57.890 12.147143
57.895 11.614651
57.900 11.632653
57.905 11.85535
57.910 11.771802
57.915 11.995821
57.920 11.591516
57.925 11.378133
57.930 12.008354
57.935 12.237134
57.940 12.255505
57.945 12.405622
57.950 12.092525
57.955 12.257378
57.960 12.479724
57.965 12.190394
57.970 11.764222
57.975 11.51591
57.980 11.810346
57.985 12.13553
57.990 11.874646
57.995 11.410373
58.000 11.477131
58.005 11.784204
58.010 11.948135
58.015 11.31194
58.020 11.170429
58.025 11.215544
58.030 11.431165
58.035 12.002546
58.040 12.044454
58.045 12.229199
58.050 12.497631
58.055 12.199507
58.060 12.153095
58.065 12.495969
58.070 12.638877
58.075 13.958647
58.080 13.894806
58.085 13.76582
58.090 14.3586
58.095 14.793077
58.100 14.437455
58.105 14.436005
58.110 13.107996
58.115 13.128988
58.120 13.185423
58.125 13.125574
58.130 12.73887
58.135 12.383484
58.140 12.020006
58.145 12.561702
58.150 13.056439
58.155 13.590163
58.160 13.51928
58.165 13.729923
58.170 13.800422
58.175 13.701667
58.180 13.32291
58.185 12.717322
58.190 12.366738
58.195 12.213557
58.200 12.146334
58.205 12.138154
58.210 12.562533
58.215 12.585338
58.220 12.453834
58.225 12.409022
58.230 12.643967
58.235 12.993672
58.240 13.197033
58.245 13.036479
58.250 13.035761
58.255 12.910963
58.260 13.329738
58.265 13.419797
58.270 13.108269
58.275 12.383255
58.280 12.453989
58.285 12.937278
58.290 13.086549
58.295 13.12632
58.300 13.316567
58.305 13.82455
58.310 14.293196
58.315 13.95781
58.320 13.865752
58.325 14.129078
58.330 13.530479
58.335 13.367039
58.340 13.555381
58.345 13.454167
58.350 13.48004
58.355 13.396891
58.360 13.407798
58.365 13.749981
58.370 13.64375
58.375 13.808411
58.380 13.923848
58.385 13.524778
58.390 13.838672
58.395 14.176403
58.400 13.807388
58.405 13.379288
58.410 13.411169
58.415 13.458266
58.420 13.500985
58.425 13.078717
58.430 13.182641
58.435 14.105069
58.440 14.445061
58.445 14.398074
58.450 14.783225
58.455 15.280362
58.460 15.695908
58.465 15.519351
58.470 14.974861
58.475 14.623966
58.480 14.198424
58.485 13.743227
58.490 13.203897
58.495 12.691422
58.500 12.687372
58.505 12.665541
58.510 12.676753
58.515 12.846097
58.520 13.069115
58.525 13.756922
58.530 13.561248
58.535 13.186982
58.540 13.115205
58.545 13.146163
58.550 13.247962
58.555 13.657267
58.560 14.237502
58.565 14.77362
58.570 15.114832
58.575 15.517177
