!@!!GADDS PLOTSO FILE: Chi integration type
!@!!Title/SampleName: map-db
!@!!Comment: ?
!@!!User: Bruker Instrument Administrator
!@!!Site: University of Illinois Chicago
!@!!Frame: map-db_01_000.gfrm
!@!!Wavelengths    1.54184   1.54056   1.54439
!@!!Frame angles: 2Theta: 63.000 Omega: 50.000 Phi: 0.000 Chi: 90.000
!@!!Integration range: 2Theta: 53.000 to 73.000  Gamma: -105.000 to -75.000
!@!!Integration method: bin normalized
!@!N
!@!SS
!@!M
!@!L 0.0 0.0 0.0 0.0
!@!XDegrees
!@!YCounts
53.000 9.472101
53.005 9.567671
53.010 9.56923
53.015 9.736458
53.020 9.354973
53.025 8.880858
53.030 8.615376
53.035 8.383756
53.040 8.173731
53.045 8.149968
53.050 8.153745
53.055 8.004293
53.060 7.617286
53.065 7.426575
53.070 7.559786
53.075 7.903426
53.080 7.798818
53.085 7.683553
53.090 8.574913
53.095 9.332484
53.100 9.663434
53.105 9.973281
53.110 9.878397
53.115 10.050346
53.120 10.558663
53.125 10.147321
53.130 9.68209
53.135 9.971241
53.140 9.836455
53.145 9.629227
53.150 9.634629
53.155 9.134548
53.160 9.360134
53.165 9.390764
53.170 8.93831
53.175 8.998452
53.180 8.84411
53.185 8.724504
53.190 9.08611
53.195 9.574075
53.200 9.929338
53.205 9.961468
53.210 9.969388
53.215 9.986427
53.220 9.587176
53.225 9.324136
53.230 8.882076
53.235 8.834398
53.240 8.779933
53.245 8.931284
53.250 9.180935
53.255 9.521258
53.260 9.125586
53.265 8.964507
53.270 8.879574
53.275 8.713736
53.280 8.464401
53.285 8.663503
53.290 8.725801
53.295 8.839911
53.300 8.568225
53.305 8.197172
53.310 8.136035
53.315 7.943337
53.320 7.471537
53.325 7.600879
53.330 8.110561
53.335 8.546314
53.340 9.172447
53.345 9.997803
53.350 10.542521
53.355 10.575639
53.360 10.591653
53.365 10.428115
53.370 10.654545
53.375 10.205168
53.380 9.617267
53.385 9.490305
53.390 9.626498
53.395 9.621692
53.400 9.329844
53.405 8.886512
53.410 8.820719
53.415 8.829746
53.420 8.615681
53.425 8.67162
53.430 8.865792
53.435 9.135812
53.440 9.515196
53.445 9.766574
53.450 9.438073
53.455 8.882113
53.460 8.516056
53.465 8.648014
53.470 8.490435
53.475 8.317008
53.480 8.414184
53.485 9.379217
53.490 9.95804
53.495 9.773409
53.500 9.834655
53.505 9.856983
53.510 9.878942
53.515 9.942702
53.520 9.847795
53.525 9.881592
53.530 9.876565
53.535 9.881187
53.540 10.038202
53.545 10.124205
53.550 9.678914
53.555 9.142361
53.560 9.580206
53.565 9.568313
53.570 9.21858
53.575 9.245147
53.580 9.198284
53.585 9.324378
53.590 9.597099
53.595 9.514401
53.600 9.630338
53.605 9.961972
53.610 10.13798
53.615 10.266744
53.620 10.168133
53.625 9.913988
53.630 9.543762
53.635 9.550005
53.640 9.407663
53.645 9.045029
53.650 9.516072
53.655 9.980818
53.660 10.413168
53.665 10.625175
53.670 10.524937
53.675 10.449054
53.680 10.444188
53.685 10.012745
53.690 9.6502
53.695 9.540544
53.700 9.424962
53.705 9.266194
53.710 9.125545
53.715 8.882318
53.720 9.051501
53.725 8.670918
53.730 8.387321
53.735 8.343783
53.740 8.889351
53.745 8.77286
53.750 8.675453
53.755 8.692476
53.760 9.418548
53.765 9.868388
53.770 10.283283
53.775 10.312556
53.780 10.385738
53.785 10.497158
53.790 10.814802
53.795 10.641027
53.800 10.264671
53.805 9.979666
53.810 9.750751
53.815 9.577175
53.820 9.355765
53.825 9.047976
53.830 9.411146
53.835 9.246072
53.840 9.118155
53.845 9.9532
53.850 10.745056
53.855 10.763272
53.860 10.590304
53.865 10.166257
53.870 10.692739
53.875 11.328674
53.880 10.570503
53.885 10.20077
53.890 10.183066
53.895 10.312932
53.900 10.360641
53.905 10.49631
53.910 10.413815
53.915 10.770909
53.920 10.823137
53.925 10.618595
53.930 10.830103
53.935 10.798697
53.940 10.21841
53.945 10.01654
53.950 10.082773
53.955 10.093601
53.960 10.099248
53.965 10.231906
53.970 10.659162
53.975 10.99488
53.980 11.150745
53.985 11.013961
53.990 11.148832
53.995 11.009322
54.000 10.72713
54.005 10.133173
54.010 9.699883
54.015 9.323004
54.020 9.403183
54.025 9.428046
54.030 9.791178
54.035 9.962564
54.040 10.195149
54.045 10.229424
54.050 10.323956
54.055 10.19387
54.060 10.30895
54.065 10.039389
54.070 9.941669
54.075 9.819664
54.080 10.384992
54.085 10.903784
54.090 11.04185
54.095 11.199979
54.100 11.181884
54.105 11.50464
54.110 11.289247
54.115 10.872259
54.120 10.662162
54.125 10.373228
54.130 10.107509
54.135 9.961149
54.140 9.800651
54.145 10.231427
54.150 10.448831
54.155 10.238806
54.160 10.105106
54.165 10.148978
54.170 10.334447
54.175 10.460087
54.180 10.317671
54.185 10.280021
54.190 11.138203
54.195 11.498509
54.200 11.497918
54.205 11.147495
54.210 10.778438
54.215 10.826974
54.220 10.436219
54.225 9.649002
54.230 9.576829
54.235 10.229598
54.240 10.739826
54.245 10.941242
54.250 11.43033
54.255 11.664019
54.260 11.982569
54.265 11.772981
54.270 11.490537
54.275 11.642811
54.280 11.627341
54.285 11.142222
54.290 10.92233
54.295 11.279897
54.300 11.285907
54.305 11.405782
54.310 11.243072
54.315 10.854788
54.320 11.411218
54.325 11.849285
54.330 12.006618
54.335 12.326499
54.340 12.397556
54.345 12.102402
54.350 11.941657
54.355 11.50357
54.360 11.315331
54.365 10.995917
54.370 10.662
54.375 10.418734
54.380 10.704241
54.385 11.084646
54.390 10.813358
54.395 10.892941
54.400 10.678969
54.405 10.451482
54.410 10.944292
54.415 11.214095
54.420 11.30307
54.425 11.297349
54.430 11.19608
54.435 11.861515
54.440 11.795788
54.445 11.647079
54.450 11.266664
54.455 11.354955
54.460 11.49791
54.465 11.292381
54.470 11.134771
54.475 11.166351
54.480 11.392479
54.485 11.734279
54.490 11.691784
54.495 11.404741
54.500 11.185426
54.505 11.141181
54.510 11.032207
54.515 10.437543
54.520 9.842569
54.525 9.735075
54.530 10.229607
54.535 10.329397
54.540 10.370766
54.545 10.121922
54.550 10.488137
54.555 10.981081
54.560 11.201679
54.565 11.098974
54.570 11.267934
54.575 11.606014
54.580 12.03008
54.585 11.461981
54.590 11.106201
54.595 10.923244
54.600 10.578773
54.605 10.446195
54.610 10.453131
54.615 10.876292
54.620 11.643535
54.625 11.92894
54.630 12.242533
54.635 12.771785
54.640 12.848651
54.645 12.671647
54.650 12.29404
54.655 12.216986
54.660 11.658195
54.665 11.855048
54.670 11.716685
54.675 11.737991
54.680 11.805992
54.685 11.837435
54.690 12.205809
54.695 12.524688
54.700 12.610542
54.705 12.032528
54.710 11.905923
54.715 11.56528
54.720 11.089892
54.725 10.926046
54.730 10.528049
54.735 10.448822
54.740 10.589398
54.745 10.928002
54.750 11.063586
54.755 10.798313
54.760 10.821246
54.765 11.199229
54.770 11.400818
54.775 11.43514
54.780 11.439825
54.785 11.941836
54.790 12.85696
54.795 12.528869
54.800 12.148481
54.805 12.451078
54.810 13.092478
54.815 13.616966
54.820 13.429075
54.825 13.274655
54.830 13.412227
54.835 13.519475
54.840 13.127697
54.845 12.575485
54.850 12.033051
54.855 11.777386
54.860 11.351897
54.865 11.431674
54.870 11.459354
54.875 11.563119
54.880 11.410594
54.885 11.381696
54.890 11.4839
54.895 11.53226
54.900 11.256693
54.905 10.971904
54.910 10.850914
54.915 11.247022
54.920 11.636651
54.925 12.303414
54.930 12.899263
54.935 13.169544
54.940 13.595903
54.945 13.956038
54.950 13.964455
54.955 13.411922
54.960 13.050492
54.965 12.948495
54.970 12.837972
54.975 12.443053
54.980 11.762941
54.985 11.595754
54.990 11.304591
54.995 10.538385
55.000 10.264741
55.005 9.845654
55.010 9.491475
55.015 9.994666
55.020 10.764334
55.025 11.397968
55.030 11.700721
55.035 12.058376
55.040 12.52468
55.045 13.250689
55.050 13.185971
55.055 12.839914
55.060 12.697519
55.065 12.792705
55.070 12.51529
55.075 12.833945
55.080 13.0892
55.085 12.759617
55.090 12.679616
55.095 12.623054
55.100 12.35889
55.105 11.986558
55.110 11.574594
55.115 10.859748
55.120 10.845229
55.125 10.785581
55.130 11.223166
55.135 11.74253
55.140 11.941876
55.145 11.779109
55.150 11.946045
55.155 12.094435
55.160 11.970006
55.165 11.524499
55.170 11.413582
55.175 11.488081
55.180 11.450827
55.185 11.581789
55.190 11.831917
55.195 11.764936
55.200 11.863474
55.205 12.066643
55.210 12.324876
55.215 12.435971
55.220 12.235496
55.225 12.163847
55.230 12.287056
55.235 12.159214
55.240 11.679523
55.245 11.622103
55.250 11.539881
55.255 12.265376
55.260 12.648562
55.265 13.128926
55.270 13.191785
55.275 13.112531
55.280 13.432735
55.285 13.144555
55.290 12.109931
55.295 11.322153
55.300 10.886731
55.305 11.194287
55.310 11.162222
55.315 10.461244
55.320 10.379067
55.325 11.017833
55.330 11.725002
55.335 11.833081
55.340 11.633197
55.345 11.785911
55.350 11.931992
55.355 11.664493
55.360 11.418484
55.365 11.438714
55.370 11.471664
55.375 11.204458
55.380 11.574897
55.385 11.949646
55.390 12.268251
55.395 11.942879
55.400 11.846917
55.405 11.991318
55.410 12.477656
55.415 12.429955
55.420 12.419591
55.425 12.49187
55.430 12.596856
55.435 12.436853
55.440 12.238014
55.445 12.323389
55.450 12.431002
55.455 12.658361
55.460 12.578732
55.465 12.797824
55.470 12.850041
55.475 13.109441
55.480 12.725133
55.485 12.939708
55.490 13.054787
55.495 13.362961
55.500 13.508129
55.505 13.81116
55.510 13.292146
55.515 12.814898
55.520 12.303639
55.525 12.195947
55.530 11.678861
55.535 11.428483
55.540 11.588841
55.545 12.106773
55.550 12.845066
55.555 13.073204
55.560 13.229485
55.565 13.557585
55.570 13.082784
55.575 13.21225
55.580 13.089672
55.585 12.935002
55.590 13.082257
55.595 13.149864
55.600 13.143796
55.605 12.891149
55.610 12.436575
55.615 12.102776
55.620 11.629666
55.625 11.4137
55.630 11.58721
55.635 11.486764
55.640 11.900887
55.645 12.782453
55.650 13.275155
55.655 13.354198
55.660 12.918875
55.665 13.033847
55.670 12.715503
55.675 11.939536
55.680 11.215573
55.685 11.470318
55.690 11.425618
55.695 11.724969
55.700 11.427536
55.705 11.836899
55.710 12.375333
55.715 12.589089
55.720 12.825838
55.725 13.062842
55.730 12.571563
55.735 12.563308
55.740 12.556396
55.745 13.010092
55.750 12.717355
55.755 12.564545
55.760 12.504446
55.765 12.490384
55.770 12.601997
55.775 12.236147
55.780 11.735755
55.785 11.583513
55.790 11.17874
55.795 11.470553
55.800 11.756856
55.805 11.837098
55.810 11.877059
55.815 12.472945
55.820 13.099139
55.825 13.255617
55.830 13.115088
55.835 13.567628
55.840 14.079358
55.845 14.246909
55.850 13.90163
55.855 13.753103
55.860 13.190943
55.865 12.970071
55.870 12.214495
55.875 12.210098
55.880 11.975975
55.885 11.352542
55.890 11.108683
55.895 11.769867
55.900 12.090788
55.905 12.355775
55.910 12.432059
55.915 12.729562
55.920 13.359169
55.925 13.768327
55.930 13.453571
55.935 13.583008
55.940 13.819276
55.945 14.309337
55.950 14.07727
55.955 13.893727
55.960 13.76935
55.965 13.581545
55.970 13.283487
55.975 12.504309
55.980 11.681874
55.985 11.995051
55.990 11.822268
55.995 12.056987
56.000 11.971214
56.005 11.803325
56.010 12.346752
56.015 12.630515
56.020 12.426454
56.025 12.371635
56.030 12.348721
56.035 12.640321
56.040 12.81986
56.045 12.932213
56.050 13.277587
56.055 13.402337
56.060 13.472812
56.065 13.924
56.070 13.696627
56.075 13.359674
56.080 12.777156
56.085 12.641896
56.090 13.04208
56.095 12.897109
56.100 12.735447
56.105 12.80198
56.110 12.886379
56.115 12.982577
56.120 12.373741
56.125 12.228292
56.130 11.983602
56.135 12.086447
56.140 12.294941
56.145 12.175272
56.150 12.123996
56.155 12.179576
56.160 12.005272
56.165 12.233208
56.170 12.258322
56.175 12.380553
56.180 12.269157
56.185 12.723353
56.190 13.105833
56.195 13.383788
56.200 13.145122
56.205 12.933047
56.210 13.38924
56.215 13.647625
56.220 13.993933
56.225 14.20059
56.230 14.466688
56.235 14.5166
56.240 14.580898
56.245 14.651807
56.250 14.606045
56.255 14.107303
56.260 13.895526
56.265 13.463352
56.270 13.324488
56.275 13.443767
56.280 13.319048
56.285 13.028872
56.290 12.828064
56.295 12.917759
56.300 13.587286
56.305 14.244516
56.310 14.057516
56.315 13.580124
56.320 14.037996
56.325 14.104688
56.330 13.697232
56.335 13.119966
56.340 12.803387
56.345 13.158616
56.350 13.531447
56.355 13.18631
56.360 13.713229
56.365 13.763113
56.370 14.106672
56.375 14.20648
56.380 13.808227
56.385 13.889572
56.390 13.734074
56.395 13.335255
56.400 13.565166
56.405 12.711131
56.410 12.29454
56.415 12.069333
56.420 12.142296
56.425 12.749043
56.430 12.822579
56.435 12.94412
56.440 13.874806
56.445 14.63206
56.450 14.835569
56.455 15.564928
56.460 15.453362
56.465 15.379618
56.470 15.335707
56.475 14.905327
56.480 14.613856
56.485 14.24994
56.490 13.868322
56.495 13.660284
56.500 13.66691
56.505 13.780766
56.510 13.898707
56.515 13.891422
56.520 14.058804
56.525 13.238922
56.530 12.84395
56.535 12.699877
56.540 13.044131
56.545 12.868546
56.550 13.157909
56.555 13.144697
56.560 13.324435
56.565 13.733422
56.570 13.167583
56.575 12.61919
56.580 12.61575
56.585 12.475957
56.590 12.986377
56.595 13.856784
56.600 13.74919
56.605 13.579927
56.610 13.55234
56.615 13.389548
56.620 13.300464
56.625 13.105651
56.630 12.885561
56.635 12.909363
56.640 13.048864
56.645 12.902486
56.650 12.956096
56.655 13.517089
56.660 13.496513
56.665 13.389224
56.670 14.038412
56.675 14.514234
56.680 14.472379
56.685 14.484157
56.690 13.878482
56.695 13.576488
56.700 13.610152
56.705 13.57731
56.710 14.208265
56.715 14.363805
56.720 13.930157
56.725 14.080837
56.730 14.174422
56.735 14.585778
56.740 14.767859
56.745 14.173091
56.750 14.629725
56.755 15.064488
56.760 15.597278
56.765 15.742027
56.770 15.24991
56.775 14.827121
56.780 14.893287
56.785 14.999582
56.790 14.678659
56.795 14.685122
56.800 14.346186
56.805 14.88843
56.810 15.317646
56.815 14.745082
56.820 14.408952
56.825 14.627981
56.830 14.693171
56.835 14.818689
56.840 14.537527
56.845 14.217433
56.850 14.464678
56.855 14.394145
56.860 14.099205
56.865 13.519905
56.870 13.747283
56.875 13.395751
56.880 13.309216
56.885 13.33285
56.890 13.104691
56.895 13.368428
56.900 13.555807
56.905 13.229942
56.910 13.712966
56.915 13.412344
56.920 13.465653
56.925 13.764585
56.930 13.532196
56.935 13.010052
56.940 12.505883
56.945 12.214025
56.950 12.418366
56.955 12.915789
56.960 13.13763
56.965 13.474182
56.970 13.644626
56.975 13.974813
56.980 14.097474
56.985 14.065943
56.990 13.666046
56.995 13.938498
57.000 14.059701
57.005 14.338105
57.010 14.801056
57.015 15.212494
57.020 15.160007
57.025 15.28618
57.030 14.704021
57.035 14.426867
57.040 14.319284
57.045 13.779197
57.050 13.507436
57.055 13.301374
57.060 13.020187
57.065 13.199338
57.070 13.284286
57.075 13.706378
57.080 14.28061
57.085 14.558187
57.090 14.745384
57.095 14.720239
57.100 14.4635
57.105 14.069315
57.110 14.000373
57.115 13.491422
57.120 13.788547
57.125 13.972116
57.130 13.910903
57.135 13.810888
57.140 14.050576
57.145 14.094558
57.150 14.231151
57.155 13.453209
57.160 13.011015
57.165 13.054645
57.170 13.533754
57.175 13.956356
57.180 12.990763
57.185 13.217507
57.190 13.84484
57.195 14.525263
57.200 14.612414
57.205 14.482221
57.210 14.046259
57.215 14.361283
57.220 14.263496
57.225 14.346475
57.230 14.154598
57.235 14.454791
57.240 14.38894
57.245 14.602999
57.250 14.758643
57.255 14.641141
57.260 14.65796
57.265 14.528841
57.270 14.137024
57.275 13.646678
57.280 12.89395
57.285 12.487682
57.290 12.122468
57.295 12.511226
57.300 12.690466
57.305 12.859282
57.310 13.595673
57.315 14.806292
57.320 15.104498
57.325 15.046215
57.330 14.203856
57.335 14.600423
57.340 15.292767
57.345 14.690634
57.350 13.954592
57.355 14.18368
57.360 14.458261
57.365 14.535014
57.370 13.838552
57.375 13.562093
57.380 14.044643
57.385 14.127751
57.390 13.913783
57.395 13.661825
57.400 13.867226
57.405 14.156663
57.410 14.457115
57.415 14.148164
57.420 14.510672
57.425 15.066615
57.430 15.113067
57.435 15.123652
57.440 14.664551
57.445 14.301192
57.450 14.078613
57.455 13.770199
57.460 13.540383
57.465 13.617209
57.470 13.540185
57.475 13.43632
57.480 13.528812
57.485 13.975691
57.490 14.219896
57.495 14.309119
57.500 14.265926
57.505 14.410534
57.510 14.696742
57.515 14.658648
57.520 14.808399
57.525 14.329413
57.530 14.522777
57.535 14.887863
57.540 14.499793
57.545 14.781937
57.550 14.681933
57.555 14.348613
57.560 14.363111
57.565 13.876624
57.570 14.034429
57.575 14.403214
57.580 14.168964
57.585 14.129149
57.590 13.833862
57.595 14.183333
57.600 14.113953
57.605 14.47873
57.610 14.588381
57.615 14.504051
57.620 14.709358
57.625 15.615192
57.630 15.562118
57.635 15.550545
57.640 15.277957
57.645 15.035065
57.650 14.658542
57.655 14.540532
57.660 13.801776
57.665 14.015967
57.670 14.292082
57.675 14.16722
57.680 14.464926
57.685 15.054784
57.690 15.169209
57.695 14.714169
57.700 14.108179
57.705 14.217359
57.710 14.454203
57.715 14.906381
57.720 14.911969
57.725 14.942925
57.730 15.811406
57.735 15.770197
57.740 15.755036
57.745 15.661629
57.750 15.123598
57.755 15.077703
57.760 15.137582
57.765 15.63273
57.770 15.660926
57.775 15.429801
57.780 15.578465
57.785 15.720366
57.790 15.960589
57.795 15.619306
57.800 15.373149
57.805 15.58297
57.810 15.708662
57.815 15.618263
57.820 15.516655
57.825 15.372309
57.830 15.457582
57.835 15.354174
57.840 15.100348
57.845 14.639791
57.850 14.747031
57.855 14.638723
57.860 14.647405
57.865 14.882475
57.870 14.417336
57.875 14.606256
57.880 14.537808
57.885 14.444051
57.890 14.343439
57.895 13.873845
57.900 13.40976
57.905 13.915224
57.910 14.023891
57.915 13.610686
57.920 13.97386
57.925 14.390571
57.930 14.173146
57.935 14.149993
57.940 14.115786
57.945 14.173117
57.950 14.559915
57.955 13.978075
57.960 13.42403
57.965 13.901985
57.970 14.150397
57.975 13.77182
57.980 13.914248
57.985 13.73272
57.990 13.512916
57.995 14.028371
58.000 14.676258
58.005 14.914431
58.010 15.324228
58.015 15.255532
58.020 16.100227
58.025 16.578941
58.030 16.829079
58.035 16.653002
58.040 16.384161
58.045 16.230574
58.050 16.265284
58.055 16.174648
58.060 16.791866
58.065 16.259398
58.070 15.839002
58.075 16.236
58.080 16.224001
58.085 16.175699
58.090 16.209511
58.095 15.681004
58.100 16.089724
58.105 16.04051
58.110 15.780023
58.115 15.658244
58.120 14.998018
58.125 13.793212
58.130 13.754085
58.135 13.76863
58.140 14.197352
58.145 13.793085
58.150 14.002724
58.155 14.948693
58.160 15.435973
58.165 15.178127
58.170 15.003678
58.175 14.620461
58.180 14.400932
58.185 14.092184
58.190 13.870367
58.195 13.621692
58.200 13.390903
58.205 12.93872
58.210 13.018943
58.215 13.646183
58.220 13.817192
58.225 14.134674
58.230 15.178902
58.235 16.074047
58.240 16.449654
58.245 16.736235
58.250 16.922306
58.255 17.145123
58.260 16.924297
58.265 16.638506
58.270 16.147928
58.275 16.507841
58.280 16.604334
58.285 16.28126
58.290 16.357756
58.295 16.677608
58.300 16.527342
58.305 16.665625
58.310 16.597319
58.315 16.543417
58.320 16.421989
58.325 16.184345
58.330 15.494836
58.335 15.188338
58.340 14.674514
58.345 14.659682
58.350 14.893076
58.355 15.097701
58.360 15.314249
58.365 15.703469
58.370 16.237696
58.375 16.636425
58.380 16.42963
58.385 16.253183
58.390 16.057245
58.395 15.657371
58.400 15.671088
58.405 14.993955
58.410 15.077952
58.415 15.214087
58.420 15.207913
58.425 15.139842
58.430 15.25925
58.435 15.051516
58.440 15.519767
58.445 15.309667
58.450 15.092376
58.455 15.309227
58.460 15.317177
58.465 15.393289
58.470 16.143715
58.475 16.390848
58.480 16.672464
58.485 17.185844
