!@!!GADDS PLOTSO FILE: Chi integration type
!@!!Title/SampleName: map-34
!@!!Comment: ?
!@!!User: Bruker Instrument Administrator
!@!!Site: University of Illinois Chicago
!@!!Frame: map-34_01_000.gfrm
!@!!Wavelengths    1.54184   1.54056   1.54439
!@!!Frame angles: 2Theta: 63.000 Omega: 50.000 Phi: 0.000 Chi: 90.000
!@!!Integration range: 2Theta: 53.000 to 73.000  Gamma: -105.000 to -75.000
!@!!Integration method: bin normalized
!@!N
!@!SS
!@!M
!@!L 0.0 0.0 0.0 0.0
!@!XDegrees
!@!YCounts
53.000 9.712717
53.005 9.520978
53.010 9.16575
53.015 8.852949
53.020 8.95125
53.025 9.025669
53.030 9.373262
53.035 9.653641
53.040 9.357388
53.045 9.169324
53.050 9.137674
53.055 9.36391
53.060 9.058806
53.065 8.735542
53.070 9.032517
53.075 9.249228
53.080 9.465918
53.085 9.643727
53.090 9.705013
53.095 9.948207
53.100 10.032207
53.105 10.060409
53.110 10.201671
53.115 10.384548
53.120 10.328266
53.125 9.731143
53.130 9.76772
53.135 9.68349
53.140 9.463017
53.145 9.283069
53.150 8.934296
53.155 9.20888
53.160 9.453069
53.165 9.012712
53.170 8.853866
53.175 8.68025
53.180 8.616036
53.185 9.107535
53.190 9.707498
53.195 9.846411
53.200 9.924248
53.205 10.053975
53.210 10.415245
53.215 10.6934
53.220 10.50144
53.225 10.289639
53.230 10.686646
53.235 10.725135
53.240 10.796637
53.245 10.828639
53.250 10.642509
53.255 9.977826
53.260 9.744864
53.265 10.077514
53.270 10.274833
53.275 10.214866
53.280 9.988894
53.285 10.041674
53.290 10.569401
53.295 10.392999
53.300 10.247253
53.305 10.499952
53.310 10.56819
53.315 10.446037
53.320 10.268626
53.325 10.199821
53.330 10.456081
53.335 10.59142
53.340 10.481461
53.345 10.327815
53.350 10.713717
53.355 10.879153
53.360 10.163545
53.365 9.900097
53.370 9.46529
53.375 9.608082
53.380 9.965208
53.385 9.507081
53.390 9.539428
53.395 9.634196
53.400 9.270014
53.405 9.151861
53.410 8.665337
53.415 8.685358
53.420 8.636636
53.425 8.90617
53.430 8.895212
53.435 9.158352
53.440 9.066645
53.445 8.723558
53.450 8.653078
53.455 8.750969
53.460 8.731126
53.465 8.568236
53.470 8.605123
53.475 8.871107
53.480 9.167686
53.485 9.43658
53.490 9.530045
53.495 9.652704
53.500 10.152297
53.505 10.511732
53.510 10.87976
53.515 10.873059
53.520 11.053107
53.525 11.201723
53.530 11.48326
53.535 11.12765
53.540 11.061457
53.545 10.509755
53.550 10.429415
53.555 10.541152
53.560 10.825567
53.565 10.802766
53.570 10.85286
53.575 10.750635
53.580 10.903681
53.585 10.840209
53.590 10.707363
53.595 10.405942
53.600 10.421538
53.605 10.324873
53.610 10.708747
53.615 11.044595
53.620 11.333534
53.625 11.309196
53.630 10.826535
53.635 10.747865
53.640 10.907932
53.645 10.421407
53.650 10.475204
53.655 10.076753
53.660 10.156738
53.665 9.980411
53.670 9.763165
53.675 9.501466
53.680 9.386189
53.685 9.107232
53.690 8.753995
53.695 9.052227
53.700 9.596567
53.705 9.535895
53.710 9.702631
53.715 10.097992
53.720 10.277244
53.725 10.5115
53.730 10.153388
53.735 10.264877
53.740 10.545797
53.745 10.712208
53.750 10.534924
53.755 10.298556
53.760 10.090609
53.765 10.344075
53.770 10.020083
53.775 9.803747
53.780 9.462472
53.785 9.662089
53.790 10.180635
53.795 10.944126
53.800 11.671313
53.805 11.962668
53.810 12.410394
53.815 12.354246
53.820 12.126399
53.825 12.038377
53.830 11.250178
53.835 10.784575
53.840 10.569912
53.845 10.83605
53.850 11.531157
53.855 11.463224
53.860 11.524035
53.865 11.46437
53.870 10.972673
53.875 10.121217
53.880 9.249097
53.885 9.1691
53.890 9.347116
53.895 8.943835
53.900 9.610851
53.905 10.115132
53.910 10.680595
53.915 10.754719
53.920 10.202863
53.925 9.911536
53.930 9.66344
53.935 8.824471
53.940 9.227723
53.945 9.337209
53.950 9.805078
53.955 10.220909
53.960 10.286695
53.965 10.569418
53.970 10.816812
53.975 10.780757
53.980 10.374701
53.985 10.101694
53.990 9.755852
53.995 9.948191
54.000 9.844439
54.005 9.575266
54.010 9.181497
54.015 9.388419
54.020 9.426122
54.025 9.781857
54.030 9.676492
54.035 9.407045
54.040 9.250832
54.045 9.482453
54.050 9.691213
54.055 9.588469
54.060 9.469018
54.065 9.871447
54.070 10.458858
54.075 10.885065
54.080 11.304228
54.085 11.484849
54.090 11.564136
54.095 11.798545
54.100 11.44523
54.105 11.186502
54.110 11.331166
54.115 11.270054
54.120 11.120728
54.125 11.334783
54.130 11.158999
54.135 11.740614
54.140 12.046051
54.145 11.620712
54.150 11.534709
54.155 11.259533
54.160 11.181498
54.165 11.339022
54.170 11.591437
54.175 11.695004
54.180 11.702579
54.185 11.400637
54.190 11.329157
54.195 11.193804
54.200 10.687996
54.205 10.488114
54.210 10.582992
54.215 10.847663
54.220 11.305605
54.225 10.890637
54.230 10.849282
54.235 11.081872
54.240 11.222902
54.245 11.078627
54.250 11.41376
54.255 11.638479
54.260 12.544514
54.265 12.440703
54.270 12.127778
54.275 11.515649
54.280 11.181395
54.285 11.012308
54.290 11.242074
54.295 10.898883
54.300 11.241386
54.305 11.222357
54.310 11.939985
54.315 12.614462
54.320 12.348814
54.325 11.781867
54.330 11.696997
54.335 11.748739
54.340 11.817906
54.345 11.336307
54.350 11.490291
54.355 11.570077
54.360 11.514071
54.365 11.147408
54.370 11.147724
54.375 10.70455
54.380 10.279572
54.385 9.727743
54.390 9.752532
54.395 9.729007
54.400 9.57334
54.405 9.380428
54.410 10.068772
54.415 10.449595
54.420 10.05655
54.425 9.892179
54.430 10.225637
54.435 10.253918
54.440 9.883206
54.445 9.308708
54.450 9.164389
54.455 9.687032
54.460 9.681496
54.465 9.737308
54.470 10.156615
54.475 10.323395
54.480 10.83041
54.485 10.679435
54.490 10.590235
54.495 10.636349
54.500 10.745796
54.505 11.158164
54.510 11.179773
54.515 11.076934
54.520 10.970013
54.525 11.131787
54.530 11.079932
54.535 11.038109
54.540 10.613183
54.545 10.905107
54.550 10.786378
54.555 10.737152
54.560 10.699052
54.565 10.939299
54.570 11.216329
54.575 11.160129
54.580 10.840101
54.585 11.492677
54.590 11.525971
54.595 11.15736
54.600 11.298638
54.605 11.571351
54.610 11.960498
54.615 12.434348
54.620 12.8202
54.625 13.035616
54.630 12.972171
54.635 12.222552
54.640 11.986594
54.645 11.606864
54.650 11.256985
54.655 10.484035
54.660 10.698946
54.665 11.231949
54.670 11.136356
54.675 10.950973
54.680 10.978745
54.685 10.715565
54.690 10.99149
54.695 10.645946
54.700 10.391107
54.705 10.441814
54.710 10.476359
54.715 10.625518
54.720 10.526918
54.725 10.115376
54.730 10.171835
54.735 10.507361
54.740 10.749398
54.745 10.729342
54.750 10.765162
54.755 11.055809
54.760 11.327741
54.765 11.167557
54.770 11.059278
54.775 10.993154
54.780 10.95975
54.785 10.779235
54.790 10.7828
54.795 11.063273
54.800 11.590583
54.805 12.020549
54.810 11.914948
54.815 11.841702
54.820 12.156939
54.825 12.55912
54.830 12.325298
54.835 11.96714
54.840 11.587345
54.845 11.590362
54.850 12.109131
54.855 12.36491
54.860 11.756004
54.865 12.058156
54.870 12.173188
54.875 12.62394
54.880 13.286921
54.885 13.303658
54.890 13.133941
54.895 13.024657
54.900 12.938709
54.905 12.801288
54.910 12.103215
54.915 11.996329
54.920 11.744914
54.925 12.114167
54.930 12.529374
54.935 12.287696
54.940 12.40825
54.945 13.068417
54.950 12.996077
54.955 12.700253
54.960 12.802851
54.965 12.295523
54.970 12.526981
54.975 12.45341
54.980 12.079672
54.985 11.894917
54.990 12.132474
54.995 11.992047
55.000 12.048944
55.005 12.001915
55.010 11.922354
55.015 12.204818
55.020 12.507112
55.025 12.63862
55.030 12.833062
55.035 12.908066
55.040 12.810917
55.045 12.683915
55.050 12.428667
55.055 12.55552
55.060 12.228864
55.065 12.304794
55.070 12.330038
55.075 12.379829
55.080 12.524915
55.085 12.647389
55.090 12.602145
55.095 12.320996
55.100 11.831402
55.105 11.482694
55.110 11.713123
55.115 11.674513
55.120 11.653294
55.125 11.047951
55.130 11.047183
55.135 11.365474
55.140 11.615615
55.145 11.901981
55.150 11.780798
55.155 11.1237
55.160 11.874734
55.165 12.420378
55.170 12.498116
55.175 12.363192
55.180 12.140973
55.185 12.284521
55.190 13.027094
55.195 13.027349
55.200 13.169945
55.205 13.635553
55.210 13.399632
55.215 12.922642
55.220 12.554523
55.225 12.034976
55.230 11.72318
55.235 11.401997
55.240 11.438012
55.245 11.695624
55.250 11.902125
55.255 12.126285
55.260 12.381527
55.265 12.543488
55.270 12.660978
55.275 12.287504
55.280 12.1822
55.285 12.270405
55.290 11.988513
55.295 11.821375
55.300 11.513663
55.305 11.733771
55.310 12.091415
55.315 12.104658
55.320 12.018234
55.325 12.078481
55.330 11.892614
55.335 11.676318
55.340 11.419051
55.345 11.233338
55.350 11.144562
55.355 11.32195
55.360 11.311837
55.365 11.878914
55.370 11.781152
55.375 12.109091
55.380 12.169201
55.385 12.29799
55.390 12.537909
55.395 12.605533
55.400 12.449114
55.405 12.461301
55.410 12.197926
55.415 12.578399
55.420 12.524761
55.425 12.499277
55.430 12.283513
55.435 12.345652
55.440 12.730742
55.445 13.054147
55.450 13.059806
55.455 12.930163
55.460 12.867842
55.465 13.388493
55.470 13.929222
55.475 14.244319
55.480 14.190684
55.485 14.175798
55.490 14.748342
55.495 15.23088
55.500 14.814508
55.505 14.190687
55.510 13.36735
55.515 13.565933
55.520 13.651035
55.525 13.178026
55.530 13.088645
55.535 12.850773
55.540 12.636689
55.545 12.502181
55.550 12.156153
55.555 12.193579
55.560 12.20542
55.565 12.554887
55.570 13.19342
55.575 13.706848
55.580 14.070911
55.585 13.681067
55.590 13.774714
55.595 13.82397
55.600 13.649589
55.605 12.997038
55.610 12.580896
55.615 12.43024
55.620 12.325447
55.625 12.138466
55.630 11.209728
55.635 10.913693
55.640 11.561584
55.645 11.577085
55.650 11.812681
55.655 12.104229
55.660 12.091841
55.665 12.110841
55.670 11.700622
55.675 11.168856
55.680 10.952727
55.685 10.320138
55.690 10.087469
55.695 11.023327
55.700 11.645108
55.705 12.248983
55.710 12.47667
55.715 12.608921
55.720 13.196224
55.725 13.153715
55.730 13.076528
55.735 13.892344
55.740 13.64674
55.745 13.649498
55.750 13.843758
55.755 14.286579
55.760 14.3588
55.765 13.606068
55.770 13.157826
55.775 13.186191
55.780 13.119416
55.785 12.512203
55.790 11.7445
55.795 11.781044
55.800 12.183859
55.805 13.047055
55.810 13.734974
55.815 14.240108
55.820 14.809823
55.825 14.258787
55.830 14.123287
55.835 13.966973
55.840 13.244112
55.845 13.028492
55.850 12.922665
55.855 12.542148
55.860 12.945771
55.865 13.157847
55.870 12.493921
55.875 12.235034
55.880 11.789536
55.885 11.58045
55.890 12.03058
55.895 12.724035
55.900 11.985585
55.905 12.105065
55.910 12.172499
55.915 12.469522
55.920 12.55703
55.925 12.040305
55.930 11.716837
55.935 12.588693
55.940 12.565173
55.945 13.14744
55.950 12.911543
55.955 12.982691
55.960 13.461367
55.965 13.463699
55.970 13.424081
55.975 13.425535
55.980 13.364747
55.985 13.663154
55.990 13.381795
55.995 13.017461
56.000 12.798332
56.005 12.748011
56.010 12.932474
56.015 12.811884
56.020 12.743051
56.025 12.612317
56.030 12.335684
56.035 11.882148
56.040 11.370588
56.045 11.332669
56.050 11.56485
56.055 11.930273
56.060 11.965734
56.065 11.932341
56.070 12.219494
56.075 13.027099
56.080 13.530502
56.085 13.556223
56.090 13.485671
56.095 13.534973
56.100 14.249683
56.105 14.588407
56.110 14.065452
56.115 13.378983
56.120 12.962853
56.125 13.436256
56.130 13.610879
56.135 13.430644
56.140 13.06819
56.145 13.077993
56.150 12.960439
56.155 13.014185
56.160 12.217291
56.165 12.117917
56.170 12.664639
56.175 12.86549
56.180 12.734631
56.185 13.015374
56.190 12.945257
56.195 13.130708
56.200 13.296327
56.205 13.247299
56.210 13.384402
56.215 13.794497
56.220 13.841577
56.225 14.243307
56.230 14.675426
56.235 14.556468
56.240 14.016998
56.245 13.610123
56.250 13.33515
56.255 13.449777
56.260 13.360564
56.265 13.068383
56.270 12.872329
56.275 13.394144
56.280 13.799934
56.285 13.715008
56.290 13.287582
56.295 13.37053
56.300 13.356798
56.305 13.544495
56.310 13.32164
56.315 13.337571
56.320 13.963249
56.325 13.936239
56.330 14.506758
56.335 14.705962
56.340 14.765349
56.345 14.737283
56.350 14.694118
56.355 14.196989
56.360 13.785744
56.365 13.082116
56.370 13.340961
56.375 13.230545
56.380 13.012424
56.385 12.985983
56.390 13.285425
56.395 13.65058
56.400 14.027076
56.405 13.794547
56.410 14.109437
56.415 14.490887
56.420 14.658665
56.425 14.51226
56.430 14.532919
56.435 13.886031
56.440 13.887255
56.445 13.670896
56.450 13.231812
56.455 13.053473
56.460 13.330531
56.465 13.445311
56.470 13.567039
56.475 13.130568
56.480 13.333178
56.485 13.699862
56.490 13.932004
56.495 14.090784
56.500 14.229017
56.505 14.492438
56.510 14.652877
56.515 14.33298
56.520 13.855419
56.525 14.245828
56.530 14.111159
56.535 14.181258
56.540 14.165538
56.545 14.129342
56.550 14.234479
56.555 14.579511
56.560 13.979198
56.565 13.790364
56.570 13.807136
56.575 13.611927
56.580 13.496966
56.585 13.323651
56.590 13.363215
56.595 13.839273
56.600 13.791753
56.605 13.778615
56.610 14.08816
56.615 14.288274
56.620 14.553645
56.625 13.845044
56.630 13.563948
56.635 14.027746
56.640 14.156423
56.645 14.403069
56.650 14.598866
56.655 14.51935
56.660 14.85417
56.665 14.967709
56.670 14.733495
56.675 13.938375
56.680 13.422281
56.685 13.605536
56.690 13.615156
56.695 13.855257
56.700 13.525855
56.705 13.471547
56.710 14.224219
56.715 14.503289
56.720 14.403397
56.725 14.27938
56.730 14.543521
56.735 15.372523
56.740 15.657106
56.745 15.59624
56.750 15.122361
56.755 14.806458
56.760 14.632437
56.765 13.899124
56.770 13.317877
56.775 13.103291
56.780 12.946832
56.785 13.303593
56.790 13.545046
56.795 13.755728
56.800 13.833772
56.805 14.122584
56.810 14.089486
56.815 14.210453
56.820 13.904782
56.825 14.247442
56.830 14.260832
56.835 14.487378
56.840 14.583207
56.845 14.725549
56.850 14.521259
56.855 14.590006
56.860 14.105255
56.865 14.056642
56.870 13.88148
56.875 13.283592
56.880 13.126905
56.885 13.438025
56.890 13.785275
56.895 14.060214
56.900 13.954341
56.905 14.008514
56.910 14.152216
56.915 13.931915
56.920 13.382763
56.925 13.139342
56.930 12.797033
56.935 12.965158
56.940 13.358301
56.945 13.413874
56.950 13.738944
56.955 14.066005
56.960 14.253963
56.965 14.253501
56.970 14.168883
56.975 13.590528
56.980 13.235764
56.985 13.251099
56.990 13.568781
56.995 13.287035
57.000 13.403945
57.005 13.164127
57.010 13.706611
57.015 14.075414
57.020 14.057917
57.025 13.940233
57.030 14.008517
57.035 14.029697
57.040 14.126072
57.045 14.055861
57.050 14.261525
57.055 14.22733
57.060 13.842328
57.065 13.601699
57.070 13.952712
57.075 14.223852
57.080 13.730951
57.085 13.411515
57.090 13.292621
57.095 13.437702
57.100 13.640075
57.105 13.361911
57.110 13.15956
57.115 13.549169
57.120 13.800808
57.125 14.158648
57.130 15.241127
57.135 15.662331
57.140 15.823744
57.145 16.065296
57.150 16.030628
57.155 16.089504
57.160 15.980813
57.165 15.642756
57.170 15.401173
57.175 15.309126
57.180 15.677268
57.185 15.782418
57.190 15.734667
57.195 16.119957
57.200 16.066418
57.205 16.0546
57.210 15.751745
57.215 15.446036
57.220 14.881559
57.225 14.361651
57.230 13.80597
57.235 13.562719
57.240 13.986708
57.245 14.308171
57.250 14.457443
57.255 15.723963
57.260 16.227072
57.265 16.126143
57.270 16.564936
57.275 15.910867
57.280 15.380112
57.285 15.38334
57.290 14.417451
57.295 13.763906
57.300 13.934641
57.305 13.395374
57.310 13.595268
57.315 13.965259
57.320 13.91621
57.325 14.041137
57.330 14.495065
57.335 13.8535
57.340 13.793354
57.345 13.708854
57.350 13.611529
57.355 13.539881
57.360 13.537113
57.365 13.603573
57.370 14.031502
57.375 14.802326
57.380 15.115752
57.385 15.09867
57.390 15.600638
57.395 15.561755
57.400 15.563417
57.405 15.189994
57.410 14.69132
57.415 14.642054
57.420 14.780408
57.425 14.085219
57.430 14.560905
57.435 15.075518
57.440 15.41096
57.445 15.74262
57.450 15.657156
57.455 15.745723
57.460 16.085194
57.465 15.838943
57.470 15.553638
57.475 15.420411
57.480 15.072955
57.485 14.93955
57.490 15.133822
57.495 15.331814
57.500 15.244129
57.505 14.905559
57.510 14.940807
57.515 15.426017
57.520 15.63829
57.525 15.578431
57.530 15.433876
57.535 15.58734
57.540 15.756747
57.545 16.12554
57.550 15.895469
57.555 15.625772
57.560 15.676853
57.565 15.433605
57.570 15.508348
57.575 15.588447
57.580 14.669118
57.585 14.584291
57.590 14.868746
57.595 14.543169
57.600 14.657375
57.605 14.680008
57.610 14.733388
57.615 15.276439
57.620 15.163153
57.625 16.020819
57.630 16.048111
57.635 15.964914
57.640 15.823183
57.645 15.910551
57.650 16.322746
57.655 16.460085
57.660 15.894693
57.665 15.794839
57.670 16.313116
57.675 16.519255
57.680 16.269629
57.685 15.993381
57.690 15.812397
57.695 15.719338
57.700 15.912057
57.705 15.455912
57.710 15.422092
57.715 15.395012
57.720 15.695079
57.725 15.387422
57.730 15.468778
57.735 15.4335
57.740 15.730477
57.745 15.923738
57.750 16.06621
57.755 16.048903
57.760 16.40275
57.765 16.154104
57.770 15.402161
57.775 15.296368
57.780 15.388313
57.785 15.162539
57.790 14.925444
57.795 14.54567
57.800 14.833637
57.805 15.14955
57.810 14.65057
57.815 14.055967
57.820 14.049626
57.825 14.4307
57.830 14.601722
57.835 14.512192
57.840 14.848347
57.845 15.327494
57.850 15.70074
57.855 15.768744
57.860 15.94514
57.865 16.327887
57.870 16.748108
57.875 16.609213
57.880 16.386362
57.885 16.62265
57.890 16.71343
57.895 16.325655
57.900 16.242403
57.905 16.260448
57.910 16.317755
57.915 16.696712
57.920 17.015739
57.925 17.029278
57.930 17.120811
57.935 17.022503
57.940 17.079231
57.945 17.145012
57.950 17.005535
57.955 16.655771
57.960 16.420095
57.965 17.218679
57.970 16.665588
57.975 16.305666
57.980 16.319857
57.985 16.460434
57.990 16.696489
57.995 16.564541
58.000 15.688391
58.005 15.728161
58.010 15.901449
58.015 15.619656
58.020 15.232088
58.025 15.451619
58.030 15.700187
58.035 16.021126
58.040 16.380667
58.045 16.844683
58.050 16.837612
58.055 16.83289
58.060 16.522972
58.065 16.570938
58.070 16.539108
58.075 16.71895
58.080 16.54302
58.085 16.603209
58.090 16.187059
58.095 15.974428
58.100 15.960642
58.105 15.868544
58.110 15.444402
58.115 15.60843
58.120 15.907818
58.125 16.264126
58.130 16.389782
58.135 16.492239
58.140 16.727533
58.145 17.369385
58.150 18.007433
58.155 18.510014
58.160 18.153147
58.165 18.586315
58.170 19.133686
58.175 19.514652
58.180 19.379934
58.185 19.374378
58.190 19.590683
58.195 20.028488
58.200 19.424356
58.205 19.14842
58.210 19.201593
58.215 19.416187
58.220 18.748119
58.225 18.20104
58.230 18.281315
58.235 18.857267
58.240 18.896992
58.245 18.222237
58.250 17.880564
58.255 18.34664
58.260 18.32091
58.265 18.244507
58.270 18.427294
58.275 18.650515
58.280 19.040724
58.285 19.163063
58.290 18.81456
58.295 19.095343
58.300 19.170866
58.305 18.639448
58.310 18.465893
58.315 18.336365
58.320 18.442787
58.325 18.959517
58.330 19.218666
58.335 19.238932
58.340 19.208561
58.345 19.912788
58.350 19.77599
58.355 19.476549
58.360 19.115133
58.365 19.550243
58.370 20.156641
58.375 20.657513
58.380 20.535099
58.385 21.604773
58.390 21.62097
58.395 21.748074
58.400 21.709925
58.405 21.955936
58.410 21.70616
58.415 21.10898
58.420 19.987228
58.425 20.280233
58.430 20.086842
58.435 19.983839
58.440 19.62755
58.445 19.759565
58.450 20.041935
58.455 20.151546
58.460 19.744158
58.465 20.271585
58.470 20.196608
58.475 19.891716
