!@!!GADDS PLOTSO FILE: Chi integration type
!@!!Title/SampleName: map-16a
!@!!Comment: ?
!@!!User: Bruker Instrument Administrator
!@!!Site: University of Illinois Chicago
!@!!Frame: map-16a_01_000.gfrm
!@!!Wavelengths    1.54184   1.54056   1.54439
!@!!Frame angles: 2Theta: 63.000 Omega: 50.000 Phi: 0.000 Chi: 90.000
!@!!Integration range: 2Theta: 53.000 to 73.000  Gamma: -105.000 to -75.000
!@!!Integration method: bin normalized
!@!N
!@!SS
!@!M
!@!L 0.0 0.0 0.0 0.0
!@!XDegrees
!@!YCounts
53.000 4.019631
53.005 3.93749
53.010 4.00144
53.015 4.117902
53.020 4.062626
53.025 4.254457
53.030 3.931795
53.035 3.524128
53.040 3.376875
53.045 3.319332
53.050 3.103829
53.055 3.141316
53.060 3.320136
53.065 3.410751
53.070 3.586289
53.075 3.588075
53.080 3.677242
53.085 4.167576
53.090 4.040958
53.095 3.972946
53.100 4.281266
53.105 4.262372
53.110 4.162017
53.115 4.448659
53.120 4.353744
53.125 4.142812
53.130 3.811265
53.135 3.753754
53.140 4.05353
53.145 4.232031
53.150 3.916543
53.155 3.44326
53.160 3.498819
53.165 3.731454
53.170 3.73307
53.175 3.544521
53.180 3.673237
53.185 3.900291
53.190 4.451167
53.195 4.638946
53.200 4.60772
53.205 4.333374
53.210 4.334486
53.215 3.946224
53.220 3.478693
53.225 3.157824
53.230 3.054026
53.235 3.086417
53.240 3.391571
53.245 3.207941
53.250 3.398515
53.255 3.78021
53.260 3.751174
53.265 3.70634
53.270 3.557958
53.275 3.543024
53.280 3.328207
53.285 3.191377
53.290 3.119312
53.295 3.211797
53.300 3.101236
53.305 3.100176
53.310 3.112291
53.315 3.561214
53.320 3.604758
53.325 3.53679
53.330 3.55641
53.335 3.682791
53.340 3.59033
53.345 3.724658
53.350 3.856411
53.355 3.748415
53.360 3.634102
53.365 3.552293
53.370 3.783337
53.375 3.908337
53.380 3.67072
53.385 3.364343
53.390 3.775712
53.395 4.110662
53.400 3.966601
53.405 3.812761
53.410 3.640354
53.415 3.789829
53.420 3.952382
53.425 3.729949
53.430 3.481092
53.435 3.659195
53.440 3.54791
53.445 3.562264
53.450 3.376056
53.455 3.222925
53.460 3.091791
53.465 3.171151
53.470 3.355288
53.475 3.325942
53.480 3.258858
53.485 2.992574
53.490 2.916511
53.495 3.072413
53.500 3.01585
53.505 2.66074
53.510 2.811527
53.515 3.17707
53.520 3.62629
53.525 3.929182
53.530 3.647713
53.535 3.840729
53.540 4.288804
53.545 4.507707
53.550 4.08481
53.555 3.873346
53.560 3.890715
53.565 4.13984
53.570 3.820535
53.575 3.632441
53.580 3.626621
53.585 3.769574
53.590 3.664262
53.595 3.812519
53.600 4.030926
53.605 4.153192
53.610 3.98231
53.615 3.984824
53.620 4.367918
53.625 4.35425
53.630 4.487676
53.635 4.201051
53.640 4.307497
53.645 4.235989
53.650 3.997652
53.655 3.955005
53.660 3.844447
53.665 3.719538
53.670 3.728828
53.675 3.63027
53.680 3.913587
53.685 4.099522
53.690 4.214978
53.695 4.402535
53.700 4.241928
53.705 4.260168
53.710 4.328506
53.715 3.986278
53.720 3.578265
53.725 3.503205
53.730 3.406112
53.735 3.269922
53.740 3.384979
53.745 3.326894
53.750 3.623878
53.755 3.599466
53.760 3.234727
53.765 3.320028
53.770 3.455778
53.775 3.225344
53.780 3.414217
53.785 3.60297
53.790 3.85287
53.795 3.838276
53.800 3.705318
53.805 3.845165
53.810 4.121113
53.815 3.952444
53.820 3.639443
53.825 3.538767
53.830 3.586738
53.835 3.652344
53.840 3.359899
53.845 3.215089
53.850 2.973196
53.855 2.961751
53.860 3.069341
53.865 3.122208
53.870 3.041612
53.875 3.225028
53.880 3.171698
53.885 3.5267
53.890 3.79514
53.895 4.057306
53.900 4.255988
53.905 4.407932
53.910 4.437302
53.915 4.258731
53.920 4.213333
53.925 4.032328
53.930 3.779017
53.935 3.611337
53.940 3.404069
53.945 3.511883
53.950 3.57667
53.955 3.394418
53.960 3.643301
53.965 3.920729
53.970 3.782753
53.975 3.678888
53.980 3.670257
53.985 3.686114
53.990 3.666575
53.995 3.430982
54.000 3.59472
54.005 3.735989
54.010 3.651508
54.015 3.615103
54.020 3.636971
54.025 3.503255
54.030 3.270339
54.035 3.309562
54.040 3.377506
54.045 3.75613
54.050 3.897908
54.055 3.837451
54.060 4.047804
54.065 4.088224
54.070 4.300715
54.075 4.442275
54.080 4.341465
54.085 4.291684
54.090 4.446036
54.095 4.442198
54.100 4.411963
54.105 4.085239
54.110 3.769984
54.115 3.628831
54.120 3.613092
54.125 3.419389
54.130 3.523836
54.135 3.524149
54.140 3.585754
54.145 3.863793
54.150 3.879453
54.155 4.150586
54.160 4.450119
54.165 4.136261
54.170 4.014176
54.175 3.854191
54.180 3.762897
54.185 3.663003
54.190 3.437985
54.195 3.384169
54.200 3.723867
54.205 3.894089
54.210 4.248167
54.215 4.332917
54.220 4.490659
54.225 4.523363
54.230 4.469787
54.235 4.634935
54.240 4.731045
54.245 4.644977
54.250 4.564321
54.255 4.272848
54.260 4.020662
54.265 3.979173
54.270 3.763322
54.275 3.506462
54.280 3.308325
54.285 3.408416
54.290 3.59832
54.295 3.68285
54.300 3.301985
54.305 3.087966
54.310 3.14274
54.315 3.134785
54.320 3.214419
54.325 3.202646
54.330 3.2802
54.335 3.677073
54.340 3.717936
54.345 3.914
54.350 4.028107
54.355 3.972263
54.360 3.994347
54.365 4.077375
54.370 4.270213
54.375 4.383453
54.380 4.52805
54.385 4.486672
54.390 4.478502
54.395 4.416957
54.400 4.154175
54.405 3.854204
54.410 3.671968
54.415 3.369359
54.420 3.208313
54.425 3.231961
54.430 3.094104
54.435 2.967426
54.440 2.922175
54.445 2.962028
54.450 3.110148
54.455 3.22008
54.460 3.154203
54.465 3.232226
54.470 3.298952
54.475 3.209511
54.480 3.336627
54.485 3.381471
54.490 3.449147
54.495 3.588442
54.500 3.534402
54.505 3.594746
54.510 3.729323
54.515 3.644167
54.520 3.575515
54.525 3.606481
54.530 3.781178
54.535 4.013828
54.540 4.093103
54.545 4.262949
54.550 4.005923
54.555 3.927338
54.560 3.631934
54.565 3.456898
54.570 3.344429
54.575 3.391826
54.580 3.233522
54.585 3.312836
54.590 3.313108
54.595 3.262059
54.600 3.180109
54.605 3.026631
54.610 3.116641
54.615 3.368847
54.620 3.453264
54.625 3.492883
54.630 3.525093
54.635 3.717469
54.640 3.791014
54.645 3.636667
54.650 3.573543
54.655 3.524655
54.660 3.797081
54.665 3.788315
54.670 3.728284
54.675 3.845796
54.680 4.207872
54.685 4.276818
54.690 4.18063
54.695 4.09509
54.700 4.127355
54.705 3.968049
54.710 3.63853
54.715 3.206869
54.720 3.154412
54.725 3.428164
54.730 3.555918
54.735 3.621804
54.740 3.827275
54.745 4.266609
54.750 4.608414
54.755 4.512142
54.760 4.261568
54.765 4.322105
54.770 4.507356
54.775 4.61117
54.780 4.4475
54.785 4.224128
54.790 4.490548
54.795 4.622406
54.800 4.629199
54.805 4.480674
54.810 4.021654
54.815 4.184889
54.820 4.1617
54.825 4.160733
54.830 4.09138
54.835 3.969168
54.840 4.139365
54.845 4.026229
54.850 3.799309
54.855 3.77783
54.860 3.694953
54.865 3.685068
54.870 3.563797
54.875 3.516478
54.880 3.925034
54.885 3.669507
54.890 3.749803
54.895 3.793658
54.900 3.78838
54.905 3.770843
54.910 3.688995
54.915 3.664237
54.920 3.861894
54.925 4.057745
54.930 4.141207
54.935 4.359329
54.940 4.500593
54.945 4.707147
54.950 4.897086
54.955 4.773256
54.960 4.360515
54.965 4.350044
54.970 4.66612
54.975 4.859383
54.980 4.462705
54.985 4.114121
54.990 4.3571
54.995 4.50398
55.000 4.280054
55.005 4.031298
55.010 3.737582
55.015 3.992371
55.020 4.490945
55.025 4.465918
55.030 4.318748
55.035 3.942971
55.040 3.821076
55.045 4.111776
55.050 4.107868
55.055 3.737132
55.060 3.863059
55.065 4.026429
55.070 4.312516
55.075 4.066924
55.080 4.03138
55.085 3.924649
55.090 3.967296
55.095 3.867497
55.100 3.94302
55.105 4.129319
55.110 4.247539
55.115 4.144521
55.120 4.197045
55.125 4.03472
55.130 4.034186
55.135 4.244505
55.140 4.182843
55.145 4.313728
55.150 4.325275
55.155 4.242696
55.160 4.549653
55.165 4.345166
55.170 4.556694
55.175 4.341954
55.180 4.245435
55.185 4.245043
55.190 4.436477
55.195 4.325881
55.200 4.195242
55.205 3.841529
55.210 3.897556
55.215 3.866154
55.220 3.78909
55.225 3.34429
55.230 3.200387
55.235 3.35025
55.240 3.417193
55.245 3.523427
55.250 3.739602
55.255 4.00918
55.260 4.144635
55.265 4.354619
55.270 4.370361
55.275 4.265498
55.280 4.184874
55.285 3.959872
55.290 3.809896
55.295 4.086331
55.300 4.102154
55.305 3.895945
55.310 4.047616
55.315 4.108608
55.320 3.991028
55.325 3.810955
55.330 3.760594
55.335 3.924343
55.340 4.391768
55.345 4.320649
55.350 4.473808
55.355 4.753096
55.360 5.030293
55.365 5.103691
55.370 4.802942
55.375 4.716006
55.380 4.918047
55.385 4.53828
55.390 4.50057
55.395 4.555922
55.400 4.621494
55.405 5.093221
55.410 5.294667
55.415 5.358509
55.420 5.403474
55.425 5.16617
55.430 4.494374
55.435 4.062016
55.440 3.654036
55.445 3.331074
55.450 3.528533
55.455 3.658568
55.460 3.704588
55.465 4.169273
55.470 4.158974
55.475 4.031273
55.480 3.741478
55.485 3.41067
55.490 3.473226
55.495 3.653014
55.500 3.755695
55.505 4.108654
55.510 4.128167
55.515 4.262806
55.520 4.507613
55.525 4.488176
55.530 4.404945
55.535 4.059125
55.540 4.052333
55.545 4.274819
55.550 4.30813
55.555 4.293122
55.560 4.189845
55.565 4.086735
55.570 4.193652
55.575 4.237853
55.580 4.028028
55.585 4.05686
55.590 3.69247
55.595 3.547354
55.600 3.704821
55.605 3.685826
55.610 3.385058
55.615 3.308406
55.620 3.321509
55.625 3.667225
55.630 4.059799
55.635 4.151561
55.640 4.008463
55.645 4.161539
55.650 4.521088
55.655 4.512878
55.660 4.24484
55.665 4.301751
55.670 4.243895
55.675 4.34703
55.680 4.325909
55.685 4.271902
55.690 4.451355
55.695 4.653635
55.700 4.327035
55.705 4.351666
55.710 4.298625
55.715 4.356653
55.720 4.339707
55.725 4.126372
55.730 4.094982
55.735 4.303774
55.740 4.240491
55.745 4.272539
55.750 4.214987
55.755 4.260443
55.760 4.526805
55.765 4.34855
55.770 4.199357
55.775 4.23312
55.780 4.285718
55.785 4.185502
55.790 4.190333
55.795 4.221208
55.800 4.419306
55.805 4.474389
55.810 4.524468
55.815 4.480117
55.820 4.578729
55.825 4.732691
55.830 5.047005
55.835 4.858432
55.840 4.783937
55.845 4.674513
55.850 4.913955
55.855 4.753481
55.860 4.523979
55.865 4.210048
55.870 4.215606
55.875 4.26072
55.880 4.195726
55.885 4.085378
55.890 3.931896
55.895 3.856519
55.900 3.825017
55.905 3.88291
55.910 3.864207
55.915 4.01471
55.920 3.939069
55.925 4.072586
55.930 4.051005
55.935 4.156293
55.940 4.071058
55.945 4.313606
55.950 4.185475
55.955 4.211028
55.960 4.249928
55.965 4.299531
55.970 4.317449
55.975 4.638206
55.980 4.864115
55.985 4.950302
55.990 5.166308
55.995 5.026578
56.000 5.266003
56.005 5.431022
56.010 5.211362
56.015 4.993594
56.020 4.81144
56.025 4.52989
56.030 4.64721
56.035 4.417911
56.040 4.193905
56.045 4.190145
56.050 4.155533
56.055 4.536019
56.060 4.390621
56.065 4.232025
56.070 4.0904
56.075 4.162757
56.080 4.473085
56.085 4.338832
56.090 4.356053
56.095 4.703242
56.100 4.746046
56.105 4.904754
56.110 4.736179
56.115 4.242613
56.120 4.190995
56.125 4.070971
56.130 4.051519
56.135 4.342123
56.140 4.152016
56.145 4.132058
56.150 4.353267
56.155 4.39187
56.160 4.06633
56.165 4.035735
56.170 3.837605
56.175 3.904014
56.180 4.01016
56.185 4.221232
56.190 4.447491
56.195 4.673448
56.200 4.433172
56.205 4.395916
56.210 4.350258
56.215 4.248487
56.220 4.034801
56.225 3.999564
56.230 4.123414
56.235 4.374423
56.240 4.522689
56.245 4.590476
56.250 4.640384
56.255 4.358892
56.260 4.310867
56.265 4.382758
56.270 4.299925
56.275 4.445319
56.280 4.545696
56.285 4.652359
56.290 4.805488
56.295 4.795906
56.300 4.70883
56.305 4.524467
56.310 4.085063
56.315 4.179871
56.320 4.114178
56.325 4.019371
56.330 4.066916
56.335 4.071701
56.340 4.380794
56.345 4.681833
56.350 4.616411
56.355 4.665098
56.360 4.915463
56.365 4.731393
56.370 4.654373
56.375 4.413329
56.380 4.155359
56.385 3.86468
56.390 3.725559
56.395 3.481802
56.400 3.592757
56.405 4.066703
56.410 4.466017
56.415 4.829755
56.420 5.140672
56.425 5.38567
56.430 5.361198
56.435 5.231896
56.440 4.795287
56.445 4.746246
56.450 4.609658
56.455 4.788092
56.460 5.107498
56.465 5.456212
56.470 5.628634
56.475 5.56354
56.480 5.593651
56.485 5.581726
56.490 5.307685
56.495 5.152497
56.500 4.970776
56.505 4.946103
56.510 5.08566
56.515 4.865912
56.520 4.650868
56.525 4.873818
56.530 4.809704
56.535 4.823873
56.540 4.47962
56.545 4.333797
56.550 4.513873
56.555 4.985438
56.560 4.901632
56.565 5.06988
56.570 4.957299
56.575 5.54895
56.580 5.863673
56.585 5.870646
56.590 5.387767
56.595 4.941041
56.600 4.561444
56.605 4.629107
56.610 4.407803
56.615 4.722322
56.620 4.680923
56.625 4.8833
56.630 5.106658
56.635 5.59667
56.640 5.540703
56.645 5.566986
56.650 5.101072
56.655 5.157811
56.660 5.624807
56.665 5.479867
56.670 5.660847
56.675 6.05372
56.680 5.909506
56.685 6.029713
56.690 5.791464
56.695 5.279619
56.700 5.517264
56.705 5.040704
56.710 4.708249
56.715 4.676348
56.720 4.676011
56.725 4.987902
56.730 5.400671
56.735 5.305441
56.740 5.195543
56.745 5.372057
56.750 5.348524
56.755 5.332191
56.760 5.172432
56.765 4.765598
56.770 4.871254
56.775 5.20743
56.780 5.044027
56.785 5.043975
56.790 4.975149
56.795 5.077768
56.800 5.248331
56.805 5.439992
56.810 5.422091
56.815 5.350012
56.820 5.178555
56.825 5.234081
56.830 5.325258
56.835 5.174596
56.840 4.634863
56.845 4.82563
56.850 5.294608
56.855 5.719065
56.860 5.689831
56.865 5.593065
56.870 5.887127
56.875 6.031945
56.880 5.590881
56.885 5.042001
56.890 4.753294
56.895 4.856334
56.900 4.640104
56.905 4.559787
56.910 4.742557
56.915 4.992698
56.920 5.206227
56.925 5.213501
56.930 5.210714
56.935 5.199015
56.940 4.867509
56.945 4.516664
56.950 4.286043
56.955 4.386147
56.960 4.471674
56.965 4.440099
56.970 4.987908
56.975 5.49461
56.980 5.55579
56.985 5.805939
56.990 5.689769
56.995 5.494316
57.000 5.34657
57.005 5.082057
57.010 4.802224
57.015 4.743775
57.020 4.549221
57.025 4.484528
57.030 4.483632
57.035 4.498352
57.040 4.397964
57.045 4.395702
57.050 4.470107
57.055 4.920217
57.060 5.053627
57.065 5.095073
57.070 5.117046
57.075 5.226888
57.080 5.432105
57.085 4.995295
57.090 4.640268
57.095 4.934546
57.100 5.012326
57.105 4.855542
57.110 4.842091
57.115 4.809783
57.120 5.145619
57.125 5.055861
57.130 5.094111
57.135 5.297937
57.140 5.253983
57.145 5.193109
57.150 5.294251
57.155 5.585931
57.160 5.844739
57.165 5.740633
57.170 5.763384
57.175 6.09721
57.180 6.030929
57.185 5.94905
57.190 5.696033
57.195 5.411487
57.200 5.400242
57.205 5.511787
57.210 5.353665
57.215 5.287923
57.220 5.335121
57.225 5.097064
57.230 5.16132
57.235 4.775251
57.240 4.47822
57.245 4.577406
57.250 4.465717
57.255 4.379473
57.260 4.425274
57.265 4.369442
57.270 4.390014
57.275 4.213432
57.280 4.180375
57.285 4.118774
57.290 4.041983
57.295 4.363213
57.300 4.515326
57.305 4.828192
57.310 4.775712
57.315 4.990336
57.320 5.067475
57.325 4.960219
57.330 4.645345
57.335 4.474094
57.340 4.282994
57.345 4.307295
57.350 4.433613
57.355 4.891957
57.360 5.045097
57.365 5.442185
57.370 5.745896
57.375 6.158303
57.380 6.353851
57.385 6.123035
57.390 6.06748
57.395 6.213262
57.400 5.981135
57.405 5.786746
57.410 5.373071
57.415 5.094739
57.420 5.063854
57.425 4.608284
57.430 4.677573
57.435 4.542904
57.440 4.513901
57.445 4.685665
57.450 4.927004
57.455 4.87937
57.460 4.811809
57.465 4.546958
57.470 4.559789
57.475 5.017861
57.480 5.025185
57.485 4.857315
57.490 4.894389
57.495 5.007713
57.500 4.883061
57.505 4.889076
57.510 4.828288
57.515 4.823258
57.520 4.686856
57.525 4.537348
57.530 4.713214
57.535 5.198449
57.540 5.167931
57.545 4.638498
57.550 4.629182
57.555 4.744397
57.560 4.629838
57.565 4.464826
57.570 3.994424
57.575 3.96961
57.580 4.330103
57.585 4.378024
57.590 4.743999
57.595 5.086028
57.600 5.135287
57.605 5.318868
57.610 5.545989
57.615 5.253695
57.620 5.199456
57.625 5.106271
57.630 5.000726
57.635 4.929157
57.640 4.906049
57.645 4.92164
57.650 5.254044
57.655 5.225874
57.660 5.289718
57.665 5.33188
57.670 5.379307
57.675 5.262331
57.680 4.96702
57.685 4.78573
57.690 4.90945
57.695 5.304471
57.700 5.672072
57.705 5.935338
57.710 6.305898
57.715 6.767807
57.720 6.941393
57.725 6.728871
57.730 6.352639
57.735 6.147885
57.740 5.900235
57.745 5.44084
57.750 4.959503
57.755 4.653541
57.760 4.862733
57.765 4.874416
57.770 5.057046
57.775 5.188976
57.780 5.482329
57.785 6.069603
57.790 6.243605
57.795 5.988368
57.800 5.662618
57.805 5.745662
57.810 5.876021
57.815 5.79183
57.820 5.930788
57.825 5.978896
57.830 6.010087
57.835 5.975989
57.840 5.89872
57.845 5.813547
57.850 6.042671
57.855 5.876262
57.860 5.939671
57.865 6.06267
57.870 5.922199
57.875 5.802727
57.880 5.757783
57.885 5.372958
57.890 5.282053
57.895 5.111091
57.900 5.152215
57.905 5.251464
57.910 5.068163
57.915 4.958587
57.920 5.274024
57.925 5.105902
57.930 5.105853
57.935 4.932953
57.940 4.706005
57.945 4.487721
57.950 4.678811
57.955 4.27396
57.960 4.268951
57.965 4.504476
57.970 4.805106
57.975 4.980422
57.980 5.268123
57.985 5.042703
57.990 5.036331
57.995 5.050758
58.000 5.214359
58.005 5.386925
58.010 5.794369
58.015 5.586755
58.020 5.609095
58.025 5.938667
58.030 5.608227
58.035 5.250369
58.040 5.378962
58.045 5.271075
58.050 5.320428
58.055 5.333814
58.060 5.446222
58.065 5.562128
58.070 5.67867
58.075 5.292982
58.080 5.567628
58.085 5.578775
58.090 5.470514
58.095 5.304711
58.100 5.299071
58.105 5.105111
58.110 5.110947
58.115 4.947244
58.120 5.203399
58.125 5.150078
58.130 5.201143
58.135 5.243784
58.140 5.481745
58.145 5.587935
58.150 5.344365
58.155 5.03112
58.160 5.143388
58.165 5.087934
58.170 5.349214
58.175 5.206989
58.180 5.218031
58.185 5.248454
58.190 5.169436
58.195 5.443417
58.200 5.431384
58.205 5.16145
58.210 5.256651
58.215 5.208994
58.220 5.396368
58.225 5.446836
58.230 5.210501
58.235 5.584768
58.240 5.42346
58.245 5.210913
58.250 5.136653
58.255 4.888506
58.260 5.133982
58.265 5.093951
58.270 4.989851
58.275 4.952526
58.280 4.767829
58.285 4.535273
58.290 4.568488
58.295 4.52162
58.300 4.438957
58.305 4.247899
58.310 4.449116
58.315 4.590116
58.320 4.547198
58.325 4.450438
58.330 4.073072
58.335 3.99386
58.340 3.924489
58.345 3.775501
58.350 3.672191
58.355 3.69431
58.360 3.671473
58.365 4.074047
58.370 4.50211
58.375 4.545795
58.380 4.46405
58.385 5.178091
58.390 5.492712
58.395 5.735871
58.400 5.454413
58.405 5.440243
58.410 5.968343
58.415 6.205774
58.420 5.714428
58.425 5.470016
58.430 5.311426
58.435 5.489593
58.440 5.378723
58.445 5.050879
58.450 5.172204
58.455 5.289632
58.460 5.464839
58.465 5.525991
58.470 5.663823
58.475 5.410487
58.480 5.181445
58.485 4.925372
58.490 5.146547
58.495 5.442035
58.500 5.354717
58.505 5.029705
58.510 5.360244
58.515 5.672056
58.520 5.811595
58.525 5.674146
58.530 5.606796
58.535 5.480876
58.540 5.351576
58.545 5.008136
58.550 4.785995
58.555 4.449698
58.560 3.92499
58.565 3.847252
58.570 4.041405
58.575 3.99168
58.580 4.133607
58.585 4.037552
58.590 4.607619
58.595 4.816443
58.600 4.660305
58.605 4.841897
58.610 5.086885
58.615 5.497661
58.620 5.875135
58.625 5.688257
58.630 5.702917
58.635 5.805349
58.640 5.853324
58.645 5.830685
58.650 5.615373
58.655 5.44915
58.660 5.424113
58.665 5.504949
58.670 5.347867
58.675 5.199639
58.680 5.144051
58.685 5.099497
58.690 5.150441
58.695 5.530452
58.700 5.758292
58.705 6.213454
58.710 6.047188
58.715 6.005533
58.720 5.945094
58.725 6.143964
58.730 5.788124
58.735 5.437499
58.740 5.121595
58.745 5.383357
58.750 5.501892
58.755 5.440573
58.760 5.097373
58.765 5.186683
