!@!!GADDS PLOTSO FILE: Chi integration type
!@!!Title/SampleName: map-14c
!@!!Comment: ?
!@!!User: Bruker Instrument Administrator
!@!!Site: University of Illinois Chicago
!@!!Frame: map-14c_01_000.gfrm
!@!!Wavelengths    1.54184   1.54056   1.54439
!@!!Frame angles: 2Theta: 63.000 Omega: 50.000 Phi: 0.000 Chi: 90.000
!@!!Integration range: 2Theta: 53.000 to 73.000  Gamma: -105.000 to -75.000
!@!!Integration method: bin normalized
!@!N
!@!SS
!@!M
!@!L 0.0 0.0 0.0 0.0
!@!XDegrees
!@!YCounts
53.000 7.839771
53.005 7.873485
53.010 8.461372
53.015 8.788445
53.020 8.844882
53.025 8.9635
53.030 9.273643
53.035 9.481605
53.040 9.39181
53.045 8.80981
53.050 9.141358
53.055 9.29479
53.060 8.785196
53.065 8.496004
53.070 8.728602
53.075 8.915236
53.080 9.140881
53.085 8.775841
53.090 8.726279
53.095 9.041948
53.100 9.128031
53.105 8.946708
53.110 8.725224
53.115 8.388474
53.120 8.258823
53.125 8.396638
53.130 8.359388
53.135 8.342126
53.140 8.565246
53.145 8.710606
53.150 8.561172
53.155 8.623425
53.160 8.701142
53.165 8.831808
53.170 8.532528
53.175 8.12552
53.180 8.227207
53.185 8.29439
53.190 8.440138
53.195 8.381966
53.200 8.545189
53.205 8.787838
53.210 8.685678
53.215 8.739593
53.220 9.043609
53.225 8.99527
53.230 9.225316
53.235 8.977928
53.240 9.277719
53.245 9.704554
53.250 9.546235
53.255 9.506931
53.260 9.428456
53.265 9.182127
53.270 8.958894
53.275 8.671522
53.280 8.496682
53.285 9.023615
53.290 8.512228
53.295 8.830769
53.300 9.57549
53.305 9.963705
53.310 10.051514
53.315 10.022207
53.320 10.204083
53.325 10.131794
53.330 9.313543
53.335 8.812416
53.340 8.846518
53.345 8.731741
53.350 8.5454
53.355 8.07689
53.360 8.058624
53.365 8.431607
53.370 8.263665
53.375 8.676617
53.380 8.921395
53.385 9.278172
53.390 9.980351
53.395 9.804558
53.400 9.658907
53.405 9.879379
53.410 9.412045
53.415 9.669721
53.420 9.172406
53.425 9.004058
53.430 9.465883
53.435 9.379393
53.440 8.885794
53.445 8.761316
53.450 8.175931
53.455 7.979444
53.460 7.630587
53.465 7.798201
53.470 8.203406
53.475 8.356158
53.480 8.467957
53.485 8.615892
53.490 8.999701
53.495 9.295407
53.500 9.052838
53.505 9.099525
53.510 9.028074
53.515 9.101887
53.520 9.285719
53.525 9.581288
53.530 9.669347
53.535 10.035557
53.540 9.539742
53.545 9.291613
53.550 9.374413
53.555 9.165637
53.560 9.342322
53.565 9.035534
53.570 9.342775
53.575 10.016261
53.580 10.296639
53.585 10.464252
53.590 10.338974
53.595 10.264936
53.600 10.65348
53.605 10.394087
53.610 10.13403
53.615 10.061309
53.620 9.828129
53.625 9.953651
53.630 9.481191
53.635 8.991625
53.640 8.874968
53.645 8.790716
53.650 8.557117
53.655 8.419663
53.660 8.701656
53.665 8.947651
53.670 8.9056
53.675 8.951627
53.680 9.081747
53.685 9.431411
53.690 9.813917
53.695 9.287069
53.700 9.34975
53.705 9.26622
53.710 9.206473
53.715 9.118871
53.720 8.486192
53.725 7.939733
53.730 8.669533
53.735 8.534708
53.740 8.679562
53.745 8.66926
53.750 8.876102
53.755 9.668295
53.760 9.772344
53.765 9.355438
53.770 9.50844
53.775 9.665082
53.780 9.860595
53.785 9.621176
53.790 9.403708
53.795 9.754848
53.800 10.080016
53.805 9.992023
53.810 9.964292
53.815 9.580063
53.820 9.252398
53.825 8.783969
53.830 8.205823
53.835 7.878667
53.840 8.008743
53.845 8.277849
53.850 8.69494
53.855 9.058442
53.860 9.706207
53.865 9.799336
53.870 9.807298
53.875 9.447762
53.880 9.409706
53.885 9.370241
53.890 9.334597
53.895 9.215289
53.900 9.229584
53.905 9.617176
53.910 9.752966
53.915 9.732572
53.920 10.066455
53.925 9.790052
53.930 9.710682
53.935 9.564973
53.940 9.209994
53.945 9.196149
53.950 9.383586
53.955 9.168092
53.960 9.700317
53.965 9.412082
53.970 9.668495
53.975 9.534656
53.980 9.381009
53.985 9.527152
53.990 9.510237
53.995 9.417412
54.000 9.775879
54.005 9.438539
54.010 9.735469
54.015 9.526999
54.020 9.252769
54.025 9.406554
54.030 9.342334
54.035 9.339067
54.040 9.184877
54.045 9.071336
54.050 9.310563
54.055 9.33872
54.060 9.359475
54.065 9.655677
54.070 10.152111
54.075 10.745678
54.080 10.781351
54.085 10.932234
54.090 10.662016
54.095 10.18139
54.100 9.861052
54.105 9.418313
54.110 9.395655
54.115 9.322243
54.120 9.249479
54.125 9.263227
54.130 9.789619
54.135 9.615151
54.140 9.403286
54.145 8.794026
54.150 8.355716
54.155 8.197224
54.160 8.230888
54.165 8.169931
54.170 8.129545
54.175 8.448715
54.180 8.68847
54.185 9.148109
54.190 8.996229
54.195 8.643592
54.200 8.371881
54.205 8.202119
54.210 7.903657
54.215 7.464433
54.220 7.614116
54.225 8.01764
54.230 8.483785
54.235 8.776736
54.240 8.755273
54.245 9.119813
54.250 9.161537
54.255 9.043165
54.260 9.046829
54.265 8.637145
54.270 9.059302
54.275 9.587476
54.280 9.559731
54.285 9.647421
54.290 9.581263
54.295 9.696167
54.300 9.9982
54.305 9.87476
54.310 9.914625
54.315 9.785704
54.320 9.505274
54.325 9.39338
54.330 9.168337
54.335 8.408096
54.340 8.084153
54.345 7.807339
54.350 7.850175
54.355 8.328177
54.360 8.250822
54.365 8.799439
54.370 9.503426
54.375 9.587461
54.380 9.785536
54.385 9.851384
54.390 9.692796
54.395 9.632707
54.400 9.691046
54.405 9.507357
54.410 9.664637
54.415 9.638247
54.420 9.684504
54.425 9.873014
54.430 9.544347
54.435 9.122038
54.440 9.070822
54.445 8.984943
54.450 8.843045
54.455 8.527895
54.460 8.558957
54.465 8.623878
54.470 8.853373
54.475 8.853475
54.480 9.5639
54.485 9.903148
54.490 10.194019
54.495 10.107053
54.500 10.101217
54.505 9.841718
54.510 9.77577
54.515 9.106293
54.520 8.838926
54.525 8.515775
54.530 8.548908
54.535 9.078663
54.540 9.601686
54.545 9.386485
54.550 9.619572
54.555 9.813393
54.560 9.973897
54.565 9.643904
54.570 8.917366
54.575 8.531629
54.580 8.532623
54.585 8.445029
54.590 8.458504
54.595 8.660756
54.600 8.902034
54.605 9.014445
54.610 8.848855
54.615 8.617177
54.620 9.055603
54.625 8.862142
54.630 8.362081
54.635 8.103068
54.640 8.156895
54.645 8.501232
54.650 8.977407
54.655 8.82684
54.660 9.094822
54.665 9.106356
54.670 9.335873
54.675 9.437806
54.680 9.039012
54.685 8.810769
54.690 8.898429
54.695 9.180372
54.700 9.772985
54.705 9.503222
54.710 9.537065
54.715 9.996809
54.720 9.698179
54.725 9.454221
54.730 9.187833
54.735 8.917802
54.740 9.601774
54.745 10.176487
54.750 10.644152
54.755 10.794625
54.760 10.43548
54.765 10.286537
54.770 10.63886
54.775 10.465352
54.780 10.14089
54.785 9.483173
54.790 9.72173
54.795 10.52107
54.800 10.548843
54.805 10.228654
54.810 9.505487
54.815 8.97016
54.820 9.419431
54.825 9.392448
54.830 9.165629
54.835 9.340824
54.840 9.484616
54.845 9.692147
54.850 10.028285
54.855 9.775488
54.860 9.604386
54.865 9.611046
54.870 9.577355
54.875 9.777954
54.880 9.925793
54.885 9.901109
54.890 10.472435
54.895 10.375785
54.900 10.009408
54.905 9.935586
54.910 9.790421
54.915 9.607255
54.920 9.335015
54.925 9.195297
54.930 9.810841
54.935 10.006924
54.940 9.932715
54.945 10.652456
54.950 10.711373
54.955 10.55915
54.960 10.07269
54.965 9.620867
54.970 9.68537
54.975 9.240824
54.980 8.755063
54.985 8.990563
54.990 9.323565
54.995 9.577538
55.000 9.523393
55.005 9.562165
55.010 9.783651
55.015 9.901309
55.020 10.070885
55.025 10.230294
55.030 10.61332
55.035 10.667609
55.040 10.709916
55.045 10.657616
55.050 10.306129
55.055 9.917656
55.060 9.640137
55.065 9.322851
55.070 9.449419
55.075 9.385484
55.080 9.625637
55.085 9.796926
55.090 10.125587
55.095 10.228168
55.100 10.374545
55.105 10.217769
55.110 10.158863
55.115 9.77286
55.120 9.336088
55.125 9.10904
55.130 8.917003
55.135 8.477684
55.140 8.712699
55.145 8.877787
55.150 8.92411
55.155 9.073349
55.160 9.359801
55.165 9.21243
55.170 9.060565
55.175 8.496989
55.180 8.671914
55.185 9.093452
55.190 9.264817
55.195 9.119358
55.200 9.490858
55.205 9.812671
55.210 10.117451
55.215 10.065695
55.220 9.977838
55.225 9.616216
55.230 9.452147
55.235 9.145648
55.240 9.150107
55.245 8.932034
55.250 8.649159
55.255 9.023985
55.260 9.228822
55.265 9.484675
55.270 9.794514
55.275 9.945992
55.280 10.354529
55.285 10.612167
55.290 9.820084
55.295 9.597183
55.300 9.617387
55.305 10.008334
55.310 10.012103
55.315 9.611609
55.320 9.47793
55.325 10.441645
55.330 10.5488
55.335 10.51668
55.340 10.018278
55.345 9.813126
55.350 9.6373
55.355 9.251242
55.360 8.867774
55.365 9.080914
55.370 8.787784
55.375 8.908065
55.380 8.797848
55.385 8.933732
55.390 9.262298
55.395 9.505688
55.400 9.443553
55.405 9.790587
55.410 9.745098
55.415 10.427928
55.420 10.374145
55.425 10.47447
55.430 10.626495
55.435 10.742522
55.440 11.125284
55.445 11.246375
55.450 10.700567
55.455 10.570914
55.460 9.868453
55.465 9.523814
55.470 9.126603
55.475 9.093669
55.480 9.116436
55.485 9.383825
55.490 9.780142
55.495 9.684434
55.500 9.598824
55.505 9.480479
55.510 9.040394
55.515 9.164976
55.520 8.87072
55.525 8.585745
55.530 8.497629
55.535 8.747475
55.540 9.170901
55.545 9.141236
55.550 9.213354
55.555 9.468514
55.560 9.592112
55.565 9.721482
55.570 9.257257
55.575 8.824263
55.580 8.613278
55.585 8.693349
55.590 8.687115
55.595 8.805693
55.600 9.116562
55.605 9.563728
55.610 10.337907
55.615 10.454132
55.620 10.219152
55.625 10.228533
55.630 10.191042
55.635 10.183701
55.640 9.948925
55.645 9.579778
55.650 10.146907
55.655 10.027493
55.660 9.828582
55.665 9.861756
55.670 9.551363
55.675 9.339339
55.680 9.330433
55.685 9.079498
55.690 9.323547
55.695 9.322668
55.700 9.134697
55.705 9.402282
55.710 9.448653
55.715 9.512921
55.720 9.665715
55.725 9.493623
55.730 9.532793
55.735 9.704697
55.740 9.379579
55.745 8.878575
55.750 8.523495
55.755 8.588456
55.760 8.978734
55.765 8.661386
55.770 8.509435
55.775 8.810815
55.780 9.581313
55.785 10.177023
55.790 9.842602
55.795 9.937897
55.800 9.894351
55.805 9.52246
55.810 9.243169
55.815 8.507496
55.820 8.158822
55.825 8.483308
55.830 8.570385
55.835 9.334403
55.840 9.679593
55.845 9.706486
55.850 9.834911
55.855 9.735559
55.860 9.585866
55.865 9.620755
55.870 9.220089
55.875 9.399979
55.880 9.527933
55.885 9.303222
55.890 8.922216
55.895 8.59209
55.900 8.715427
55.905 8.577274
55.910 8.724817
55.915 8.729759
55.920 8.740825
55.925 8.705912
55.930 9.070814
55.935 9.356875
55.940 9.342045
55.945 9.183906
55.950 9.481418
55.955 10.03442
55.960 10.328952
55.965 10.175245
55.970 9.863201
55.975 10.008326
55.980 9.678282
55.985 9.29337
55.990 8.924779
55.995 9.189209
56.000 9.49538
56.005 9.449523
56.010 9.045853
56.015 9.498735
56.020 9.739333
56.025 9.844396
56.030 9.614576
56.035 9.27924
56.040 9.322359
56.045 9.606997
56.050 9.193769
56.055 8.655375
56.060 8.157374
56.065 7.503259
56.070 7.302955
56.075 7.017568
56.080 7.162323
56.085 7.698124
56.090 8.25209
56.095 8.83588
56.100 9.32163
56.105 9.59086
56.110 10.056534
56.115 10.284127
56.120 9.988955
56.125 10.027083
56.130 9.811957
56.135 9.943449
56.140 10.184035
56.145 9.709699
56.150 9.821898
56.155 9.866672
56.160 9.694937
56.165 10.185239
56.170 10.193899
56.175 10.174652
56.180 9.916431
56.185 9.675744
56.190 10.44441
56.195 10.453839
56.200 10.190429
56.205 10.116338
56.210 9.92527
56.215 10.306342
56.220 10.073197
56.225 9.433681
56.230 9.358027
56.235 9.275934
56.240 9.257385
56.245 9.212019
56.250 9.10091
56.255 9.103261
56.260 9.173082
56.265 9.200549
56.270 9.211146
56.275 9.2996
56.280 9.503907
56.285 9.36553
56.290 9.654502
56.295 9.730839
56.300 9.37296
56.305 9.561181
56.310 9.410873
56.315 9.207608
56.320 8.887226
56.325 8.800797
56.330 8.669253
56.335 9.004067
56.340 9.143448
56.345 9.478843
56.350 9.736601
56.355 9.919235
56.360 10.013195
56.365 10.286068
56.370 10.06853
56.375 9.9923
56.380 9.741508
56.385 9.175022
56.390 9.515254
56.395 9.455702
56.400 9.226673
56.405 8.837309
56.410 8.881248
56.415 9.226982
56.420 9.799211
56.425 9.655113
56.430 9.61257
56.435 10.057999
56.440 10.542678
56.445 10.335782
56.450 10.03562
56.455 10.204031
56.460 10.592955
56.465 10.544714
56.470 10.292506
56.475 10.292703
56.480 10.379048
56.485 10.480726
56.490 10.3498
56.495 10.037356
56.500 10.277161
56.505 10.371828
56.510 10.270881
56.515 10.286349
56.520 10.398338
56.525 10.319345
56.530 10.584452
56.535 10.791847
56.540 10.634934
56.545 10.931923
56.550 11.383866
56.555 11.62189
56.560 11.383821
56.565 10.985736
56.570 10.744136
56.575 10.587757
56.580 10.220348
56.585 10.05344
56.590 9.882032
56.595 9.857399
56.600 9.895055
56.605 10.055996
56.610 10.045875
56.615 10.48577
56.620 10.589538
56.625 11.062012
56.630 11.024197
56.635 10.861229
56.640 10.915243
56.645 10.783419
56.650 10.406425
56.655 9.908593
56.660 9.225645
56.665 9.522186
56.670 10.022792
56.675 10.05043
56.680 10.403326
56.685 10.489697
56.690 10.869733
56.695 11.215162
56.700 11.186622
56.705 11.375285
56.710 11.209426
56.715 11.0099
56.720 11.057613
56.725 10.928646
56.730 10.951744
56.735 10.308885
56.740 10.314682
56.745 10.468544
56.750 10.377563
56.755 10.290232
56.760 10.099858
56.765 9.90999
56.770 9.82286
56.775 9.605261
56.780 9.32179
56.785 9.347284
56.790 9.391986
56.795 9.283093
56.800 9.384024
56.805 9.64252
56.810 9.69583
56.815 10.132535
56.820 10.086415
56.825 10.209274
56.830 10.217156
56.835 10.453429
56.840 10.58705
56.845 10.554254
56.850 10.543347
56.855 10.525702
56.860 10.256845
56.865 10.302212
56.870 10.13339
56.875 9.467275
56.880 9.116214
56.885 8.892925
56.890 9.205812
56.895 9.499752
56.900 9.17332
56.905 9.161589
56.910 9.339494
56.915 9.579777
56.920 9.316523
56.925 9.019104
56.930 8.896541
56.935 8.929586
56.940 9.072412
56.945 9.278586
56.950 9.1381
56.955 9.624435
56.960 9.973817
56.965 10.278125
56.970 10.395216
56.975 10.280828
56.980 10.253297
56.985 10.143963
56.990 9.887524
56.995 9.385546
57.000 9.22756
57.005 9.638182
57.010 9.758676
57.015 9.5307
57.020 9.587753
57.025 9.451635
57.030 9.241325
57.035 9.166126
57.040 8.648975
57.045 8.820059
57.050 9.098793
57.055 8.911078
57.060 8.929317
57.065 8.559208
57.070 8.290555
57.075 8.207175
57.080 8.249546
57.085 8.301345
57.090 8.251002
57.095 8.652655
57.100 9.414762
57.105 9.994502
57.110 10.165136
57.115 9.68903
57.120 9.79078
57.125 9.906889
57.130 9.87553
57.135 9.578758
57.140 9.339382
57.145 9.21058
57.150 9.843048
57.155 10.025288
57.160 10.010364
57.165 10.118208
57.170 10.280937
57.175 10.076183
57.180 9.855308
57.185 9.317752
57.190 9.156951
57.195 9.132783
57.200 8.913006
57.205 8.827454
57.210 8.902759
57.215 8.846333
57.220 8.833194
57.225 8.873554
57.230 8.897305
57.235 9.135141
57.240 8.973242
57.245 9.110195
57.250 9.375972
57.255 9.436151
57.260 9.309762
57.265 9.28975
57.270 9.636735
57.275 10.007314
57.280 10.072049
57.285 10.547819
57.290 11.101889
57.295 11.445258
57.300 11.432161
57.305 11.050669
57.310 10.919665
57.315 10.594587
57.320 9.794405
57.325 9.136358
57.330 9.061889
57.335 9.305087
57.340 8.996916
57.345 8.85133
57.350 8.903735
57.355 8.908587
57.360 9.033793
57.365 8.847451
57.370 8.781896
57.375 9.099915
57.380 9.066298
57.385 9.116846
57.390 9.029033
57.395 9.344081
57.400 9.201415
57.405 8.996487
57.410 9.077612
57.415 9.36162
57.420 9.494799
57.425 9.694639
57.430 9.719796
57.435 9.789568
57.440 9.341109
57.445 8.9949
57.450 8.811895
57.455 8.98186
57.460 8.938443
57.465 8.727825
57.470 9.000858
57.475 9.060849
57.480 9.343139
57.485 9.638612
57.490 9.837331
57.495 9.799456
57.500 9.225596
57.505 8.840486
57.510 8.830998
57.515 8.706022
57.520 8.452117
57.525 8.39792
57.530 8.510503
57.535 9.066793
57.540 9.572313
57.545 9.678224
57.550 9.858758
57.555 9.501225
57.560 9.516064
57.565 9.678302
57.570 10.01042
57.575 10.410793
57.580 10.602422
57.585 10.276164
57.590 10.67389
57.595 10.106378
57.600 10.229014
57.605 9.803685
57.610 9.184598
57.615 9.065822
57.620 8.85541
57.625 8.469203
57.630 8.786125
57.635 8.900374
57.640 9.031976
57.645 9.225353
57.650 9.921855
57.655 10.866127
57.660 11.0764
57.665 11.036983
57.670 10.534192
57.675 10.013682
57.680 9.805822
57.685 9.589751
57.690 9.345256
57.695 9.50396
57.700 9.670193
57.705 9.990147
57.710 10.242044
57.715 10.179541
57.720 10.0891
57.725 10.095423
57.730 10.265992
57.735 10.012471
57.740 9.97338
57.745 10.102738
57.750 10.38641
57.755 10.213428
57.760 10.057119
57.765 10.547602
57.770 10.624607
57.775 10.896736
57.780 10.897909
57.785 10.491097
57.790 10.697245
57.795 10.651973
57.800 9.802124
57.805 9.706145
57.810 9.019069
57.815 8.975452
57.820 9.178587
57.825 8.787668
57.830 9.06749
57.835 9.705486
57.840 9.850572
57.845 10.338612
57.850 10.182191
57.855 10.141823
57.860 10.379202
57.865 9.856856
57.870 9.337211
57.875 9.554203
57.880 9.966735
57.885 10.189247
57.890 10.315092
57.895 10.46677
57.900 10.792939
57.905 11.263521
57.910 11.038184
57.915 10.86635
57.920 10.471395
57.925 10.125184
57.930 10.124296
57.935 10.332818
57.940 10.299504
57.945 9.856951
57.950 10.086298
57.955 10.672423
57.960 10.799753
57.965 10.617936
57.970 10.145528
57.975 10.037719
57.980 10.319424
57.985 10.172533
57.990 10.333568
57.995 9.940325
58.000 9.888829
58.005 9.974593
58.010 9.947433
58.015 10.057539
58.020 9.63952
58.025 9.405432
58.030 9.62567
58.035 9.66795
58.040 9.614179
58.045 9.827432
58.050 10.04
58.055 10.092004
58.060 10.142181
58.065 10.097446
58.070 10.187611
58.075 10.349252
58.080 9.772569
58.085 9.339924
58.090 9.598631
58.095 9.912699
58.100 10.334694
58.105 10.347865
58.110 10.121385
58.115 9.953115
58.120 9.848012
58.125 9.678257
58.130 9.517801
58.135 9.139999
58.140 8.676331
58.145 8.70705
58.150 9.223925
58.155 9.517528
58.160 9.117231
58.165 8.610214
58.170 8.540446
58.175 9.289297
58.180 9.289657
58.185 8.869425
58.190 8.582417
58.195 9.24274
58.200 9.987579
58.205 10.257601
58.210 10.126771
58.215 10.47323
58.220 11.275379
58.225 11.166956
58.230 10.823304
58.235 10.448821
58.240 10.601476
58.245 10.377022
58.250 10.531811
58.255 10.515521
58.260 10.946529
58.265 11.33775
58.270 11.756182
58.275 11.73007
58.280 11.884427
58.285 11.883843
58.290 11.507045
58.295 11.46034
58.300 11.272306
58.305 11.01368
58.310 10.53237
58.315 9.936565
58.320 9.326897
58.325 9.214615
58.330 9.344849
58.335 9.532879
58.340 9.57352
58.345 9.565541
58.350 10.041672
58.355 10.556698
58.360 10.687073
58.365 10.041729
58.370 9.575609
58.375 9.736201
58.380 10.032804
58.385 10.057909
58.390 9.721654
58.395 9.616004
58.400 9.698351
58.405 9.899999
58.410 9.693648
58.415 9.803034
58.420 9.62258
58.425 9.278073
58.430 9.442992
58.435 9.502549
58.440 9.532218
58.445 9.634692
58.450 9.662799
58.455 9.767471
58.460 9.725157
58.465 9.393981
58.470 9.604903
58.475 9.347558
58.480 9.137075
58.485 9.021982
58.490 9.431381
58.495 9.867002
58.500 10.037908
58.505 9.837778
58.510 10.072536
58.515 10.213724
58.520 10.406256
58.525 10.479609
58.530 10.338254
58.535 10.213309
58.540 10.128336
58.545 10.380485
58.550 10.056775
58.555 9.749303
58.560 9.47365
58.565 9.589152
58.570 9.742711
58.575 9.967706
58.580 9.797602
58.585 9.965316
58.590 10.155022
58.595 10.44602
58.600 10.378423
58.605 10.451095
58.610 10.200472
58.615 10.29509
58.620 10.321754
58.625 10.413924
58.630 10.337709
58.635 10.399282
58.640 10.229776
58.645 10.603756
58.650 10.812564
58.655 10.391829
58.660 10.486547
58.665 10.815644
58.670 10.964253
58.675 11.208366
