!@!!GADDS PLOTSO FILE: Chi integration type
!@!!Title/SampleName: map-21
!@!!Comment: ?
!@!!User: Bruker Instrument Administrator
!@!!Site: University of Illinois Chicago
!@!!Frame: map-21_01_000.gfrm
!@!!Wavelengths    1.54184   1.54056   1.54439
!@!!Frame angles: 2Theta: 63.000 Omega: 50.000 Phi: 0.000 Chi: 90.000
!@!!Integration range: 2Theta: 53.000 to 73.000  Gamma: -105.000 to -75.000
!@!!Integration method: bin normalized
!@!N
!@!SS
!@!M
!@!L 0.0 0.0 0.0 0.0
!@!XDegrees
!@!YCounts
53.000 10.99036
53.005 10.700294
53.010 10.605961
53.015 10.452303
53.020 9.858838
53.025 9.117427
53.030 8.903564
53.035 8.960026
53.040 9.083046
53.045 9.330457
53.050 9.936937
53.055 9.439154
53.060 9.292944
53.065 9.578212
53.070 9.4319
53.075 9.667238
53.080 9.413372
53.085 9.751879
53.090 10.877672
53.095 11.56434
53.100 11.372398
53.105 11.096009
53.110 10.885705
53.115 10.34542
53.120 9.85968
53.125 9.030382
53.130 8.562405
53.135 8.577713
53.140 8.360911
53.145 8.205912
53.150 8.926929
53.155 9.193316
53.160 9.701415
53.165 9.820439
53.170 10.147815
53.175 10.679057
53.180 10.15974
53.185 9.490983
53.190 9.215619
53.195 9.485543
53.200 9.782464
53.205 10.032024
53.210 9.743177
53.215 10.125588
53.220 10.109395
53.225 9.822749
53.230 9.299762
53.235 8.940483
53.240 8.713486
53.245 9.235002
53.250 9.388236
53.255 9.706663
53.260 9.758672
53.265 9.891951
53.270 10.07574
53.275 9.757098
53.280 9.381099
53.285 9.474517
53.290 9.615396
53.295 9.848097
53.300 9.469932
53.305 9.292486
53.310 9.665432
53.315 9.843202
53.320 9.810106
53.325 9.596895
53.330 9.705998
53.335 9.85439
53.340 9.743075
53.345 9.610892
53.350 9.62691
53.355 9.734817
53.360 9.895432
53.365 9.995722
53.370 10.475686
53.375 10.344951
53.380 10.169447
53.385 10.025654
53.390 9.566311
53.395 9.808908
53.400 9.3221
53.405 8.95488
53.410 9.117499
53.415 9.497085
53.420 9.652267
53.425 10.41931
53.430 10.311245
53.435 10.35759
53.440 10.60694
53.445 10.69217
53.450 10.54653
53.455 10.180074
53.460 9.63519
53.465 9.29317
53.470 9.287606
53.475 9.127501
53.480 9.149197
53.485 9.494334
53.490 9.584389
53.495 10.067706
53.500 10.532456
53.505 11.089696
53.510 11.385074
53.515 11.018683
53.520 10.506605
53.525 9.825068
53.530 9.431147
53.535 9.080625
53.540 9.100807
53.545 9.640149
53.550 10.152934
53.555 11.128734
53.560 11.811618
53.565 12.195114
53.570 12.254992
53.575 11.827252
53.580 11.563226
53.585 11.353027
53.590 10.919454
53.595 10.798538
53.600 10.809851
53.605 11.03993
53.610 10.561277
53.615 10.544261
53.620 10.661218
53.625 10.670978
53.630 10.266146
53.635 10.306808
53.640 10.81822
53.645 11.127228
53.650 11.220081
53.655 11.168142
53.660 11.40635
53.665 11.7672
53.670 11.17433
53.675 10.597582
53.680 10.537712
53.685 10.23365
53.690 10.32483
53.695 10.118424
53.700 10.258906
53.705 10.135362
53.710 10.187162
53.715 9.810208
53.720 9.692528
53.725 9.408266
53.730 9.429947
53.735 9.569122
53.740 10.046909
53.745 10.195752
53.750 10.267585
53.755 9.848113
53.760 9.690709
53.765 9.787321
53.770 9.796762
53.775 9.52745
53.780 9.57932
53.785 9.931747
53.790 10.441928
53.795 10.712961
53.800 10.999148
53.805 11.089134
53.810 11.639457
53.815 11.692461
53.820 11.315912
53.825 10.861918
53.830 10.760959
53.835 10.731274
53.840 10.701288
53.845 10.330776
53.850 10.551178
53.855 11.139481
53.860 11.691531
53.865 11.590717
53.870 10.951795
53.875 11.090834
53.880 11.429577
53.885 11.916118
53.890 11.893311
53.895 11.567457
53.900 11.510821
53.905 12.125995
53.910 11.490429
53.915 10.842016
53.920 10.458021
53.925 10.726933
53.930 11.506537
53.935 11.655479
53.940 11.809736
53.945 12.286679
53.950 12.618934
53.955 12.133566
53.960 12.059174
53.965 11.895598
53.970 11.358918
53.975 10.872651
53.980 10.573062
53.985 10.148722
53.990 9.808481
53.995 8.917945
54.000 8.877731
54.005 8.801723
54.010 8.620728
54.015 8.684722
54.020 9.154694
54.025 9.818538
54.030 9.89806
54.035 9.848967
54.040 10.267023
54.045 10.446393
54.050 10.409822
54.055 10.071335
54.060 9.786283
54.065 9.639391
54.070 9.692277
54.075 9.917431
54.080 10.176732
54.085 10.27108
54.090 10.825222
54.095 11.153205
54.100 11.968786
54.105 11.975017
54.110 12.311575
54.115 12.514906
54.120 12.91127
54.125 12.497513
54.130 11.733953
54.135 11.122303
54.140 10.705048
54.145 10.502189
54.150 10.260654
54.155 10.251173
54.160 10.346399
54.165 11.090722
54.170 11.581279
54.175 11.817469
54.180 11.673651
54.185 11.474532
54.190 11.047136
54.195 11.331439
54.200 11.081036
54.205 10.61776
54.210 10.58829
54.215 10.667796
54.220 10.695341
54.225 10.762475
54.230 10.515259
54.235 10.422164
54.240 10.491322
54.245 10.219654
54.250 10.153794
54.255 10.211143
54.260 10.549979
54.265 10.544406
54.270 11.040614
54.275 10.950633
54.280 10.943511
54.285 10.922968
54.290 10.80857
54.295 10.359301
54.300 10.272622
54.305 10.013959
54.310 9.948883
54.315 10.179673
54.320 10.116222
54.325 10.304713
54.330 10.013652
54.335 10.329295
54.340 10.573124
54.345 10.845236
54.350 10.778532
54.355 10.988891
54.360 11.110908
54.365 10.940866
54.370 10.873505
54.375 10.762087
54.380 10.718451
54.385 10.918241
54.390 10.923724
54.395 11.203062
54.400 11.495096
54.405 11.316623
54.410 11.198933
54.415 10.842278
54.420 10.731806
54.425 10.624858
54.430 10.552489
54.435 10.799495
54.440 11.38687
54.445 11.392814
54.450 11.091399
54.455 11.085878
54.460 11.357192
54.465 11.517492
54.470 11.494867
54.475 11.589067
54.480 11.613945
54.485 12.250505
54.490 12.280883
54.495 11.815314
54.500 11.708483
54.505 10.855951
54.510 10.39763
54.515 10.638494
54.520 10.549585
54.525 10.29285
54.530 10.286552
54.535 10.072215
54.540 10.567767
54.545 10.573956
54.550 10.411957
54.555 10.753906
54.560 11.029911
54.565 11.170939
54.570 11.103311
54.575 11.449805
54.580 12.219482
54.585 12.571149
54.590 12.491239
54.595 12.782834
54.600 12.494938
54.605 12.592228
54.610 12.884213
54.615 12.657301
54.620 12.538777
54.625 12.637672
54.630 12.087965
54.635 12.306705
54.640 12.075563
54.645 11.440614
54.650 11.52108
54.655 11.375983
54.660 11.030837
54.665 11.38138
54.670 11.710672
54.675 11.931033
54.680 12.456899
54.685 12.534112
54.690 12.296475
54.695 12.633362
54.700 12.726287
54.705 12.477451
54.710 12.098358
54.715 11.574591
54.720 11.329234
54.725 11.592528
54.730 11.472788
54.735 11.441739
54.740 11.526205
54.745 11.904868
54.750 11.740431
54.755 11.794132
54.760 11.796704
54.765 11.418496
54.770 11.392535
54.775 11.336532
54.780 11.38518
54.785 11.926351
54.790 12.001461
54.795 11.875866
54.800 11.836558
54.805 11.720266
54.810 11.46539
54.815 11.303077
54.820 10.778728
54.825 11.056662
54.830 11.351355
54.835 12.005062
54.840 12.433748
54.845 12.741401
54.850 13.178509
54.855 12.949707
54.860 12.529125
54.865 12.075912
54.870 12.341851
54.875 12.340487
54.880 12.591603
54.885 11.876674
54.890 12.096083
54.895 12.041931
54.900 12.23458
54.905 11.449719
54.910 10.973953
54.915 10.683908
54.920 11.214213
54.925 11.448463
54.930 11.901116
54.935 11.787248
54.940 11.794992
54.945 12.029063
54.950 12.089547
54.955 12.207788
54.960 12.125154
54.965 11.710448
54.970 11.374976
54.975 11.772903
54.980 11.664036
54.985 11.646091
54.990 11.230134
54.995 11.191088
55.000 11.741485
55.005 12.166319
55.010 12.082328
55.015 12.504831
55.020 12.570568
55.025 12.844175
55.030 12.839154
55.035 12.783917
55.040 12.376248
55.045 12.105936
55.050 11.382463
55.055 11.201672
55.060 11.223342
55.065 10.770534
55.070 10.271139
55.075 10.558977
55.080 10.747654
55.085 11.601226
55.090 11.81211
55.095 11.75365
55.100 11.906857
55.105 11.872915
55.110 11.665191
55.115 11.808908
55.120 11.690778
55.125 11.10862
55.130 11.192981
55.135 12.080869
55.140 12.611219
55.145 12.658193
55.150 12.211185
55.155 11.876916
55.160 12.365247
55.165 12.305739
55.170 12.067965
55.175 11.978175
55.180 11.793525
55.185 11.883409
55.190 11.852669
55.195 11.619921
55.200 11.650858
55.205 11.626701
55.210 12.022975
55.215 12.77556
55.220 12.704986
55.225 13.337349
55.230 13.749327
55.235 13.484724
55.240 13.102098
55.245 12.865156
55.250 12.473396
55.255 12.437016
55.260 11.911521
55.265 11.466859
55.270 11.625903
55.275 12.106319
55.280 12.057773
55.285 12.07609
55.290 12.144315
55.295 12.532088
55.300 12.252895
55.305 11.929201
55.310 11.450419
55.315 11.858684
55.320 11.960279
55.325 12.174749
55.330 12.179533
55.335 12.259044
55.340 12.470572
55.345 12.43866
55.350 11.856034
55.355 12.123017
55.360 12.092129
55.365 12.560759
55.370 12.85999
55.375 12.941079
55.380 13.449602
55.385 13.861201
55.390 13.235842
55.395 12.964863
55.400 12.823671
55.405 13.377842
55.410 13.490582
55.415 13.26951
55.420 13.386844
55.425 13.813341
55.430 14.362983
55.435 14.214717
55.440 13.498556
55.445 12.852518
55.450 12.451313
55.455 11.905034
55.460 11.955324
55.465 11.79024
55.470 11.849718
55.475 12.194827
55.480 12.524484
55.485 13.058771
55.490 13.167939
55.495 13.021617
55.500 13.110506
55.505 13.0249
55.510 12.769659
55.515 12.656352
55.520 12.718244
55.525 13.225834
55.530 12.551723
55.535 12.327321
55.540 12.191238
55.545 12.705454
55.550 12.85533
55.555 12.350322
55.560 11.943216
55.565 12.086528
55.570 12.444863
55.575 12.717074
55.580 12.796185
55.585 12.896569
55.590 12.978439
55.595 12.868004
55.600 12.460553
55.605 12.258577
55.610 11.782896
55.615 11.254729
55.620 11.231804
55.625 11.459408
55.630 11.73887
55.635 12.081083
55.640 12.020926
55.645 12.028269
55.650 12.352114
55.655 12.132715
55.660 12.05861
55.665 12.773311
55.670 12.224573
55.675 12.013258
55.680 12.250791
55.685 11.931374
55.690 12.089568
55.695 12.035704
55.700 11.92668
55.705 12.67485
55.710 12.767194
55.715 12.55228
55.720 13.020151
55.725 13.354598
55.730 12.85835
55.735 12.670715
55.740 12.3411
55.745 12.410265
55.750 12.552618
55.755 11.843887
55.760 11.573583
55.765 11.931772
55.770 12.310372
55.775 12.636585
55.780 12.694629
55.785 13.048096
55.790 13.415722
55.795 13.516377
55.800 13.093738
55.805 13.07202
55.810 12.886547
55.815 13.108639
55.820 12.806644
55.825 12.964038
55.830 12.99945
55.835 13.085252
55.840 12.44143
55.845 12.749889
55.850 13.031977
55.855 13.050629
55.860 13.048593
55.865 13.248008
55.870 13.441425
55.875 13.369802
55.880 12.606596
55.885 12.737962
55.890 12.822737
55.895 12.90624
55.900 12.992085
55.905 13.455016
55.910 14.518824
55.915 14.936717
55.920 14.383086
55.925 14.138129
55.930 13.84047
55.935 13.793245
55.940 13.630542
55.945 13.422521
55.950 13.59413
55.955 14.005466
55.960 14.203889
55.965 14.297588
55.970 13.98883
55.975 14.436959
55.980 13.681285
55.985 13.334491
55.990 12.770016
55.995 12.942402
56.000 13.131702
56.005 13.096083
56.010 12.901738
56.015 13.09531
56.020 13.380655
56.025 13.216588
56.030 13.371871
56.035 13.558996
56.040 13.101027
56.045 12.658318
56.050 12.781407
56.055 12.609407
56.060 12.771392
56.065 12.512809
56.070 12.409575
56.075 11.975267
56.080 11.988581
56.085 11.588034
56.090 11.755322
56.095 11.913983
56.100 11.795942
56.105 11.795123
56.110 12.491658
56.115 12.767882
56.120 13.296794
56.125 13.774904
56.130 14.122466
56.135 14.033073
56.140 13.530043
56.145 13.039924
56.150 12.899352
56.155 12.932856
56.160 12.691583
56.165 12.127777
56.170 12.225084
56.175 12.812661
56.180 13.051232
56.185 12.93389
56.190 12.486222
56.195 12.102207
56.200 12.067387
56.205 11.856964
56.210 11.739508
56.215 11.678232
56.220 11.824316
56.225 12.046761
56.230 12.649062
56.235 13.446774
56.240 14.070662
56.245 14.49262
56.250 14.503956
56.255 14.310068
56.260 14.112164
56.265 13.523194
56.270 13.186006
56.275 13.32726
56.280 13.026469
56.285 12.894642
56.290 13.489291
56.295 13.661283
56.300 13.877044
56.305 13.870328
56.310 13.819028
56.315 14.073091
56.320 13.978965
56.325 14.114901
56.330 14.05568
56.335 13.960303
56.340 13.720894
56.345 13.235508
56.350 13.185091
56.355 12.980609
56.360 12.537676
56.365 12.350884
56.370 12.428336
56.375 12.566826
56.380 12.441695
56.385 12.727919
56.390 13.132416
56.395 13.309119
56.400 13.701276
56.405 13.959723
56.410 13.804331
56.415 13.882437
56.420 14.076655
56.425 13.830737
56.430 13.649504
56.435 13.377648
56.440 13.077971
56.445 13.486951
56.450 13.902794
56.455 14.304858
56.460 14.523251
56.465 14.326126
56.470 14.408455
56.475 14.985575
56.480 15.001518
56.485 15.089128
56.490 14.97121
56.495 15.316686
56.500 15.656841
56.505 15.555327
56.510 15.180001
56.515 15.149373
56.520 14.627758
56.525 14.290977
56.530 13.697337
56.535 13.5522
56.540 13.17959
56.545 12.401379
56.550 11.757269
56.555 11.693029
56.560 11.379086
56.565 11.323069
56.570 11.003557
56.575 11.306735
56.580 12.046531
56.585 12.3446
56.590 12.139797
56.595 12.363503
56.600 12.369149
56.605 12.509094
56.610 12.638092
56.615 12.437047
56.620 12.401702
56.625 12.338166
56.630 12.360222
56.635 12.700154
56.640 12.356863
56.645 12.382831
56.650 11.991694
56.655 11.989755
56.660 12.378229
56.665 12.716383
56.670 13.241995
56.675 13.600061
56.680 13.590257
56.685 14.515121
56.690 15.237968
56.695 15.75983
56.700 15.784953
56.705 16.047775
56.710 15.932873
56.715 15.87861
56.720 15.413404
56.725 15.344035
56.730 15.462887
56.735 15.293097
56.740 14.490358
56.745 14.074241
56.750 14.190941
56.755 14.412985
56.760 14.077297
56.765 13.787548
56.770 13.880342
56.775 14.170296
56.780 15.013822
56.785 15.015655
56.790 15.084195
56.795 15.138682
56.800 15.051904
56.805 15.246962
56.810 15.546791
56.815 15.160119
56.820 14.908041
56.825 15.084872
56.830 15.085004
56.835 14.994866
56.840 14.841763
56.845 14.816381
56.850 14.909749
56.855 14.965652
56.860 15.30801
56.865 14.722127
56.870 14.725574
56.875 14.542737
56.880 14.449075
56.885 14.200337
56.890 13.720063
56.895 12.78062
56.900 13.17682
56.905 13.017282
56.910 12.787848
56.915 12.756646
56.920 12.592324
56.925 12.504445
56.930 12.832128
56.935 12.906981
56.940 12.761697
56.945 12.8277
56.950 12.437969
56.955 13.00382
56.960 14.110177
56.965 14.461308
56.970 14.822753
56.975 14.987678
56.980 14.748389
56.985 15.181399
56.990 14.786754
56.995 13.849181
57.000 13.202522
57.005 12.880301
57.010 12.67014
57.015 12.90206
57.020 13.027367
57.025 13.294331
57.030 13.453372
57.035 13.797802
57.040 13.932327
57.045 14.076098
57.050 14.023882
57.055 14.62517
57.060 14.528496
57.065 14.455607
57.070 14.158509
57.075 14.057299
57.080 14.597712
57.085 14.167342
57.090 13.413495
57.095 13.729191
57.100 14.136324
57.105 14.354507
57.110 14.082986
57.115 13.611883
57.120 13.76738
57.125 13.965568
57.130 14.027021
57.135 13.565521
57.140 13.537709
57.145 13.84412
57.150 14.067991
57.155 14.080972
57.160 13.963634
57.165 13.864451
57.170 13.915041
57.175 14.173803
57.180 14.213296
57.185 14.257262
57.190 14.781817
57.195 14.80178
57.200 14.901418
57.205 14.998899
57.210 14.97616
57.215 14.978521
57.220 14.693483
57.225 14.223484
57.230 14.034851
57.235 13.887924
57.240 14.074411
57.245 14.227616
57.250 14.65698
57.255 14.915838
57.260 14.72217
57.265 14.621784
57.270 14.203501
57.275 14.041927
57.280 13.92315
57.285 13.540247
57.290 13.515215
57.295 14.09267
57.300 14.801671
57.305 15.852918
57.310 15.785335
57.315 15.124559
57.320 15.364985
57.325 15.528423
57.330 15.201393
57.335 14.289193
57.340 13.249447
57.345 13.217266
57.350 13.554747
57.355 13.437121
57.360 13.647218
57.365 14.390609
57.370 15.364467
57.375 16.087173
57.380 16.096113
57.385 16.748854
57.390 16.594757
57.395 15.935464
57.400 15.197138
57.405 14.732861
57.410 14.340399
57.415 14.301943
57.420 13.85987
57.425 14.355598
57.430 14.514286
57.435 14.770574
57.440 14.813924
57.445 14.741892
57.450 14.743973
57.455 14.256116
57.460 13.320574
57.465 13.292788
57.470 13.606393
57.475 13.721189
57.480 14.266915
57.485 15.05975
57.490 15.374935
57.495 15.656139
57.500 15.428423
57.505 15.484017
57.510 15.27047
57.515 15.152779
57.520 14.485546
57.525 14.939178
57.530 14.886943
57.535 14.713685
57.540 14.151883
57.545 14.268674
57.550 14.185394
57.555 14.350599
57.560 14.388231
57.565 14.909269
57.570 15.103931
57.575 15.201731
57.580 15.089565
57.585 14.993878
57.590 15.26651
57.595 15.47434
57.600 15.109473
57.605 15.062585
57.610 14.822899
57.615 14.430827
57.620 14.460836
57.625 14.840036
57.630 14.745731
57.635 14.451001
57.640 14.44076
57.645 14.627732
57.650 15.007934
57.655 14.46933
57.660 13.3071
57.665 13.718843
57.670 14.272298
57.675 14.436065
57.680 14.482731
57.685 14.640728
57.690 15.049578
57.695 15.384576
57.700 15.379581
57.705 15.46816
57.710 15.336473
57.715 15.49861
57.720 15.62294
57.725 15.404097
57.730 15.526145
57.735 15.462035
57.740 14.735154
57.745 15.222416
57.750 15.281225
57.755 15.499846
57.760 15.738379
57.765 15.725396
57.770 16.310583
57.775 16.939758
57.780 16.93401
57.785 16.724266
57.790 16.116713
57.795 16.350849
57.800 15.998194
57.805 15.720177
57.810 16.38859
57.815 16.641211
57.820 17.199703
57.825 17.231297
57.830 17.032969
57.835 17.534554
57.840 16.907705
57.845 15.816754
57.850 15.328362
57.855 14.916237
57.860 14.761951
57.865 14.282462
57.870 13.821636
57.875 14.314672
57.880 14.366098
57.885 14.165956
57.890 14.276711
57.895 14.177217
57.900 14.306578
57.905 14.145542
57.910 13.929359
57.915 14.096364
57.920 14.196681
57.925 14.170969
57.930 14.624734
57.935 14.691794
57.940 14.496542
57.945 14.458787
57.950 14.230321
57.955 14.221901
57.960 14.447569
57.965 14.205828
57.970 14.239608
57.975 14.405117
57.980 14.154191
57.985 14.363684
57.990 14.226624
57.995 14.113331
58.000 14.657346
58.005 14.941113
58.010 15.262643
58.015 15.622937
58.020 15.359849
58.025 14.592769
58.030 14.67803
58.035 14.159128
58.040 14.213603
58.045 14.180163
58.050 14.394691
58.055 14.776846
58.060 15.373887
58.065 15.373614
58.070 15.308669
58.075 15.71873
58.080 15.56297
58.085 15.636435
58.090 16.060276
58.095 16.183588
58.100 16.441668
58.105 16.957294
58.110 16.938679
58.115 17.096447
58.120 16.621691
58.125 16.323799
58.130 16.30434
58.135 16.235485
58.140 15.941257
58.145 16.06637
58.150 16.419888
58.155 16.734131
58.160 16.767685
58.165 16.788843
58.170 16.755606
58.175 16.432945
58.180 16.082588
58.185 15.894893
58.190 16.388388
58.195 16.519577
58.200 16.630072
58.205 16.152489
58.210 15.852938
58.215 15.524537
58.220 14.840834
58.225 14.045227
58.230 13.205719
58.235 12.929255
58.240 13.21312
58.245 13.476237
58.250 13.770525
58.255 13.958456
58.260 14.48
58.265 15.419856
58.270 15.908624
58.275 16.156914
58.280 15.978793
58.285 16.056374
58.290 16.151535
58.295 15.698656
58.300 15.437283
58.305 15.43845
58.310 15.430109
58.315 15.139974
58.320 14.74277
58.325 15.117565
58.330 15.131043
58.335 14.80457
58.340 14.365097
58.345 14.334723
58.350 15.184973
58.355 15.573757
58.360 15.756441
58.365 16.287886
58.370 16.484056
58.375 16.220795
58.380 16.272322
58.385 15.840351
58.390 15.891888
58.395 15.781451
58.400 15.6443
58.405 15.914187
58.410 16.399803
58.415 16.544901
58.420 16.967506
58.425 16.562599
58.430 16.555519
58.435 15.85991
58.440 15.555068
58.445 15.659517
58.450 15.213669
58.455 14.697834
58.460 15.194249
58.465 15.571771
58.470 16.139215
