!@!!GADDS PLOTSO FILE: Chi integration type
!@!!Title/SampleName: map-16e
!@!!Comment: ?
!@!!User: Bruker Instrument Administrator
!@!!Site: University of Illinois Chicago
!@!!Frame: map-16e_01_000.gfrm
!@!!Wavelengths    1.54184   1.54056   1.54439
!@!!Frame angles: 2Theta: 63.000 Omega: 50.000 Phi: 0.000 Chi: 90.000
!@!!Integration range: 2Theta: 53.000 to 73.000  Gamma: -105.000 to -75.000
!@!!Integration method: bin normalized
!@!N
!@!SS
!@!M
!@!L 0.0 0.0 0.0 0.0
!@!XDegrees
!@!YCounts
53.000 3.668038
53.005 3.477189
53.010 3.454897
53.015 3.336035
53.020 3.21998
53.025 3.083119
53.030 3.323129
53.035 4.093344
53.040 4.280681
53.045 4.262648
53.050 4.260731
53.055 4.504228
53.060 4.301136
53.065 4.161143
53.070 3.7643
53.075 3.686128
53.080 3.938676
53.085 3.932798
53.090 3.886818
53.095 3.983126
53.100 3.685637
53.105 3.632739
53.110 3.392336
53.115 3.114731
53.120 3.30219
53.125 3.260235
53.130 3.351748
53.135 3.250408
53.140 3.417758
53.145 3.548885
53.150 3.69762
53.155 3.718757
53.160 3.646613
53.165 3.90723
53.170 4.228481
53.175 4.271701
53.180 4.325252
53.185 4.552962
53.190 4.620438
53.195 5.04408
53.200 4.887065
53.205 4.769045
53.210 4.720997
53.215 4.214469
53.220 3.911535
53.225 3.885044
53.230 3.520963
53.235 3.63029
53.240 3.441938
53.245 3.661765
53.250 4.062777
53.255 3.969149
53.260 3.912713
53.265 3.794311
53.270 3.723365
53.275 3.701543
53.280 3.713339
53.285 3.403213
53.290 3.084617
53.295 2.9763
53.300 2.950092
53.305 3.031368
53.310 2.939006
53.315 2.731999
53.320 3.016263
53.325 3.204026
53.330 3.120797
53.335 2.945606
53.340 2.873343
53.345 2.832389
53.350 3.062884
53.355 2.954708
53.360 3.148192
53.365 3.691807
53.370 3.839934
53.375 3.765881
53.380 3.644863
53.385 3.502571
53.390 3.801917
53.395 3.698409
53.400 3.32527
53.405 3.201329
53.410 3.3167
53.415 3.479752
53.420 3.384827
53.425 2.893016
53.430 2.892079
53.435 3.131138
53.440 3.578433
53.445 3.798032
53.450 3.737726
53.455 3.757679
53.460 4.086949
53.465 4.178631
53.470 4.141983
53.475 3.86285
53.480 4.004977
53.485 3.846853
53.490 4.078245
53.495 3.784992
53.500 3.779582
53.505 3.582057
53.510 3.608184
53.515 3.518302
53.520 3.882775
53.525 4.050609
53.530 4.090412
53.535 3.911786
53.540 3.673039
53.545 3.642601
53.550 3.59889
53.555 3.319172
53.560 3.065981
53.565 3.200802
53.570 3.383924
53.575 3.835985
53.580 3.726377
53.585 3.493738
53.590 3.510451
53.595 3.830976
53.600 4.049092
53.605 3.918534
53.610 3.795198
53.615 3.775489
53.620 4.013184
53.625 3.763468
53.630 3.542686
53.635 3.548458
53.640 3.575134
53.645 3.785144
53.650 4.23128
53.655 4.323592
53.660 4.727172
53.665 4.902492
53.670 4.75895
53.675 4.476005
53.680 4.185103
53.685 3.916597
53.690 3.763464
53.695 3.45278
53.700 3.195566
53.705 3.245238
53.710 3.247247
53.715 3.144006
53.720 2.992996
53.725 2.749707
53.730 2.933615
53.735 3.301743
53.740 3.419009
53.745 3.471886
53.750 3.564232
53.755 3.797007
53.760 3.959059
53.765 4.069633
53.770 3.998035
53.775 3.899116
53.780 3.96847
53.785 3.881501
53.790 3.807654
53.795 3.471501
53.800 3.11277
53.805 2.99893
53.810 3.129006
53.815 3.366796
53.820 3.461141
53.825 3.297253
53.830 3.064077
53.835 3.226823
53.840 3.436673
53.845 3.423196
53.850 3.15099
53.855 3.05236
53.860 3.047083
53.865 3.306825
53.870 3.38934
53.875 3.273588
53.880 3.325788
53.885 3.348888
53.890 3.486743
53.895 3.967818
53.900 4.019724
53.905 3.874448
53.910 3.679621
53.915 3.598242
53.920 3.619652
53.925 3.362494
53.930 3.150518
53.935 3.062359
53.940 3.08919
53.945 3.189223
53.950 3.482267
53.955 3.606112
53.960 3.61247
53.965 3.279769
53.970 3.142963
53.975 3.330065
53.980 3.282396
53.985 2.984631
53.990 3.19853
53.995 3.443011
54.000 3.630163
54.005 3.748453
54.010 3.748587
54.015 3.705229
54.020 3.798825
54.025 3.705807
54.030 3.705745
54.035 3.542208
54.040 3.341721
54.045 3.11815
54.050 3.020238
54.055 3.048747
54.060 2.968089
54.065 3.043854
54.070 3.321294
54.075 3.238396
54.080 3.518993
54.085 3.539103
54.090 3.532893
54.095 3.714809
54.100 3.905427
54.105 3.982251
54.110 3.976949
54.115 3.922023
54.120 3.926882
54.125 4.097254
54.130 4.04354
54.135 3.620188
54.140 3.693878
54.145 3.615285
54.150 3.550922
54.155 3.290216
54.160 3.281511
54.165 3.375168
54.170 3.447221
54.175 3.508172
54.180 3.635397
54.185 3.852052
54.190 3.921489
54.195 3.671768
54.200 3.893199
54.205 3.964063
54.210 4.011026
54.215 3.832878
54.220 3.589056
54.225 3.447442
54.230 3.720981
54.235 3.885583
54.240 3.755811
54.245 3.801569
54.250 4.20322
54.255 4.422093
54.260 4.736265
54.265 4.38172
54.270 4.23855
54.275 4.218071
54.280 4.001566
54.285 3.984927
54.290 4.135812
54.295 3.816028
54.300 3.629203
54.305 3.789238
54.310 3.739451
54.315 3.775559
54.320 3.472571
54.325 3.27808
54.330 3.286073
54.335 3.480514
54.340 3.357243
54.345 3.522698
54.350 3.801893
54.355 3.917464
54.360 3.924669
54.365 3.984621
54.370 3.949873
54.375 4.122111
54.380 4.127609
54.385 3.79483
54.390 3.68456
54.395 3.88703
54.400 3.768122
54.405 3.389135
54.410 3.065038
54.415 2.753065
54.420 2.714619
54.425 2.626798
54.430 2.299809
54.435 3.114761
54.440 3.524836
54.445 3.590123
54.450 3.755094
54.455 3.885562
54.460 4.06025
54.465 3.956753
54.470 3.227802
54.475 3.033857
54.480 3.284325
54.485 3.382152
54.490 3.409151
54.495 3.344429
54.500 3.156566
54.505 3.102969
54.510 3.232621
54.515 3.183429
54.520 3.264705
54.525 3.335016
54.530 3.289585
54.535 3.311973
54.540 3.635619
54.545 3.772223
54.550 3.641257
54.555 3.614609
54.560 3.592438
54.565 3.992345
54.570 4.100461
54.575 3.703427
54.580 3.47566
54.585 3.654263
54.590 3.477911
54.595 3.495409
54.600 3.535841
54.605 3.552592
54.610 3.639866
54.615 3.610064
54.620 3.239242
54.625 3.14956
54.630 2.898946
54.635 2.765311
54.640 3.017269
54.645 3.049455
54.650 3.151273
54.655 3.463378
54.660 3.625496
54.665 3.51831
54.670 3.375355
54.675 3.096544
54.680 3.020892
54.685 2.889289
54.690 2.892428
54.695 3.343922
54.700 3.553576
54.705 3.764539
54.710 3.79743
54.715 3.688491
54.720 3.477626
54.725 3.131472
54.730 2.702226
54.735 2.507622
54.740 2.400196
54.745 2.453535
54.750 2.545444
54.755 2.730477
54.760 2.863074
54.765 3.201912
54.770 3.466531
54.775 3.599
54.780 3.720066
54.785 3.604974
54.790 3.739019
54.795 4.0187
54.800 3.995462
54.805 3.908731
54.810 3.766864
54.815 3.875588
54.820 4.224637
54.825 3.925017
54.830 3.797504
54.835 3.833277
54.840 3.845864
54.845 3.773843
54.850 3.810166
54.855 3.61034
54.860 3.676042
54.865 3.710545
54.870 3.283694
54.875 2.95756
54.880 2.874917
54.885 2.602367
54.890 2.586333
54.895 2.355277
54.900 2.448245
54.905 2.967638
54.910 3.264016
54.915 3.269442
54.920 3.317892
54.925 3.421957
54.930 3.416487
54.935 3.572222
54.940 3.486174
54.945 3.564637
54.950 3.796622
54.955 3.992852
54.960 4.125395
54.965 4.067732
54.970 3.861589
54.975 3.754101
54.980 3.584458
54.985 3.629946
54.990 3.614818
54.995 3.665535
55.000 3.490051
55.005 3.4368
55.010 3.413288
55.015 3.290894
55.020 3.638815
55.025 3.763192
55.030 3.756657
55.035 3.899453
55.040 3.728963
55.045 3.820327
55.050 4.008043
55.055 3.762781
55.060 3.996987
55.065 4.242581
55.070 4.354003
55.075 4.47828
55.080 4.532813
55.085 4.144786
55.090 3.897594
55.095 3.585608
55.100 3.558055
55.105 3.67628
55.110 3.595499
55.115 3.586551
55.120 4.192598
55.125 4.124658
55.130 4.204051
55.135 4.175419
55.140 4.068479
55.145 3.989071
55.150 3.726011
55.155 3.215864
55.160 3.189365
55.165 3.198375
55.170 2.922329
55.175 2.834436
55.180 2.955136
55.185 3.041387
55.190 3.265584
55.195 3.139575
55.200 2.860889
55.205 2.815077
55.210 3.155251
55.215 3.258734
55.220 3.256462
55.225 3.29339
55.230 3.441059
55.235 3.773761
55.240 3.870592
55.245 3.61251
55.250 3.352241
55.255 3.350253
55.260 3.249447
55.265 3.14989
55.270 3.090718
55.275 3.009851
55.280 3.023275
55.285 3.171498
55.290 3.093869
55.295 3.488387
55.300 3.541533
55.305 3.631738
55.310 3.621058
55.315 3.530759
55.320 3.404984
55.325 3.527967
55.330 3.314535
55.335 3.362646
55.340 3.7043
55.345 3.638676
55.350 3.865772
55.355 4.098943
55.360 3.820679
55.365 3.692945
55.370 3.261495
55.375 2.942058
55.380 3.22015
55.385 3.204173
55.390 3.393607
55.395 3.527408
55.400 3.557342
55.405 3.765142
55.410 3.795701
55.415 3.65765
55.420 3.528967
55.425 3.299279
55.430 3.473719
55.435 3.436567
55.440 3.557329
55.445 3.870286
55.450 3.818404
55.455 3.725372
55.460 4.025867
55.465 4.075722
55.470 4.355562
55.475 4.006669
55.480 3.655213
55.485 3.810199
55.490 4.09377
55.495 3.88877
55.500 3.572387
55.505 3.547489
55.510 3.410326
55.515 3.392185
55.520 3.654283
55.525 3.559901
55.530 3.624551
55.535 3.66097
55.540 3.74092
55.545 3.754785
55.550 3.624705
55.555 3.077763
55.560 2.897906
55.565 2.867486
55.570 2.676581
55.575 2.561397
55.580 2.723412
55.585 2.840553
55.590 3.191058
55.595 3.344836
55.600 3.432781
55.605 3.503866
55.610 3.643185
55.615 3.652734
55.620 3.744264
55.625 3.587564
55.630 3.346104
55.635 3.204924
55.640 3.160629
55.645 3.376388
55.650 3.300423
55.655 3.066193
55.660 3.095886
55.665 3.123744
55.670 3.325563
55.675 3.234769
55.680 3.127426
55.685 3.308989
55.690 3.448478
55.695 3.56724
55.700 3.689921
55.705 3.7238
55.710 3.922399
55.715 4.010175
55.720 3.971856
55.725 3.877695
55.730 3.757509
55.735 3.587281
55.740 3.358004
55.745 2.98859
55.750 2.89544
55.755 2.744947
55.760 2.747235
55.765 2.965892
55.770 3.17526
55.775 3.360521
55.780 3.644423
55.785 3.609524
55.790 3.623217
55.795 3.609825
55.800 3.405045
55.805 3.522992
55.810 3.891797
55.815 3.948113
55.820 4.06575
55.825 4.142778
55.830 4.218177
55.835 4.32921
55.840 4.215475
55.845 4.138384
55.850 4.22444
55.855 4.051622
55.860 4.139101
55.865 4.195857
55.870 3.952744
55.875 3.893814
55.880 3.856948
55.885 4.028769
55.890 4.340994
55.895 4.169662
55.900 3.947356
55.905 4.04314
55.910 4.046591
55.915 3.927242
55.920 3.592896
55.925 3.321304
55.930 3.24776
55.935 3.602413
55.940 3.577153
55.945 3.43927
55.950 3.414819
55.955 3.548599
55.960 3.630245
55.965 3.580546
55.970 3.334809
55.975 3.618198
55.980 3.585008
55.985 3.676624
55.990 4.003165
55.995 4.264518
56.000 4.542367
56.005 4.691833
56.010 4.29393
56.015 4.11218
56.020 4.111398
56.025 3.830522
56.030 3.748145
56.035 3.365017
56.040 3.232639
56.045 3.300601
56.050 3.469498
56.055 3.513697
56.060 3.285009
56.065 3.146054
56.070 3.144554
56.075 3.167429
56.080 3.240812
56.085 3.249392
56.090 3.236474
56.095 3.060815
56.100 3.228246
56.105 3.246433
56.110 3.231617
56.115 3.464206
56.120 3.17951
56.125 2.924332
56.130 3.157764
56.135 3.252262
56.140 3.522279
56.145 3.586816
56.150 3.598945
56.155 3.946503
56.160 4.000413
56.165 4.012779
56.170 3.888095
56.175 3.852422
56.180 3.913226
56.185 3.818336
56.190 3.888064
56.195 4.033063
56.200 3.981759
56.205 4.093117
56.210 3.940303
56.215 3.758192
56.220 3.660867
56.225 3.560338
56.230 3.755702
56.235 3.783239
56.240 3.740252
56.245 3.989372
56.250 4.436132
56.255 4.411816
56.260 4.173509
56.265 3.883771
56.270 3.600482
56.275 3.419872
56.280 3.196799
56.285 3.005214
56.290 3.016517
56.295 3.356263
56.300 3.491952
56.305 3.668952
56.310 3.864617
56.315 3.64537
56.320 3.478304
56.325 3.639601
56.330 3.371068
56.335 3.47957
56.340 3.551694
56.345 3.289576
56.350 3.470563
56.355 3.737763
56.360 3.848104
56.365 4.296349
56.370 4.097128
56.375 4.089992
56.380 4.28254
56.385 4.126544
56.390 3.998693
56.395 3.743224
56.400 3.504852
56.405 3.717221
56.410 3.718005
56.415 3.751743
56.420 3.950873
56.425 4.002933
56.430 3.918793
56.435 3.760734
56.440 3.700066
56.445 3.729282
56.450 3.425727
56.455 3.225241
56.460 2.949721
56.465 2.989708
56.470 3.371842
56.475 3.679844
56.480 3.950833
56.485 4.442569
56.490 4.797823
56.495 5.070869
56.500 5.016902
56.505 4.45774
56.510 4.02999
56.515 3.733422
56.520 3.287248
56.525 2.930977
56.530 2.884507
56.535 3.141216
56.540 3.497524
56.545 3.583898
56.550 3.86612
56.555 4.146253
56.560 4.300651
56.565 4.285752
56.570 4.204035
56.575 4.128785
56.580 4.252687
56.585 3.994972
56.590 3.885886
56.595 3.886844
56.600 4.016487
56.605 4.166483
56.610 4.288728
56.615 4.534739
56.620 4.678767
56.625 4.640667
56.630 4.317879
56.635 4.13061
56.640 4.049577
56.645 3.875336
56.650 3.598766
56.655 3.583519
56.660 3.583493
56.665 3.69624
56.670 3.730167
56.675 3.759053
56.680 3.953736
56.685 4.010371
56.690 4.020123
56.695 4.162779
56.700 4.323182
56.705 4.354082
56.710 4.316763
56.715 4.057425
56.720 3.934183
56.725 4.036575
56.730 4.180386
56.735 4.307426
56.740 4.495503
56.745 4.597258
56.750 4.739014
56.755 4.747838
56.760 4.608616
56.765 4.227108
56.770 3.906819
56.775 3.588336
56.780 3.444232
56.785 3.321354
56.790 3.381698
56.795 3.487552
56.800 3.912256
56.805 4.103449
56.810 4.258
56.815 4.315861
56.820 4.422801
56.825 4.428616
56.830 4.399892
56.835 4.246572
56.840 4.257446
56.845 4.230057
56.850 4.220386
56.855 4.09484
56.860 4.041828
56.865 3.852015
56.870 3.837549
56.875 3.916337
56.880 4.001767
56.885 3.949141
56.890 4.161681
56.895 4.260084
56.900 4.541192
56.905 4.365437
56.910 4.155198
56.915 3.889586
56.920 3.669128
56.925 3.523226
56.930 3.232382
56.935 2.795544
56.940 2.693546
56.945 2.803641
56.950 2.999166
56.955 3.191299
56.960 3.239416
56.965 3.200172
56.970 3.435083
56.975 3.52606
56.980 3.390652
56.985 3.304205
56.990 2.951182
56.995 3.120511
57.000 3.670923
57.005 3.659126
57.010 3.975203
57.015 4.205778
57.020 4.396559
57.025 4.537295
57.030 4.395616
57.035 4.195584
57.040 4.222281
57.045 4.187516
57.050 4.010087
57.055 3.873684
57.060 3.72675
57.065 3.546787
57.070 3.433073
57.075 3.555077
57.080 3.866042
57.085 4.062272
57.090 4.134807
57.095 4.308249
57.100 4.287233
57.105 4.58782
57.110 4.560959
57.115 4.225685
57.120 4.254971
57.125 4.370509
57.130 4.402955
57.135 4.277398
57.140 4.256935
57.145 4.064778
57.150 3.760078
57.155 3.445239
57.160 3.445437
57.165 3.297809
57.170 3.075876
57.175 2.557955
57.180 2.321611
57.185 2.644068
57.190 2.943615
57.195 3.111397
57.200 3.489104
57.205 3.839875
57.210 4.299962
57.215 4.739788
57.220 4.718654
57.225 4.571677
57.230 4.385426
57.235 4.140667
57.240 4.185818
57.245 4.137906
57.250 4.001805
57.255 3.90352
57.260 3.861443
57.265 4.103066
57.270 4.290403
57.275 4.396326
57.280 4.163033
57.285 4.257992
57.290 4.383981
57.295 4.489632
57.300 4.368878
57.305 4.163709
57.310 4.049089
57.315 4.098231
57.320 3.919206
57.325 3.684754
57.330 3.531206
57.335 3.305612
57.340 3.36392
57.345 3.637274
57.350 3.826273
57.355 3.800283
57.360 3.874217
57.365 4.069724
57.370 4.246727
57.375 4.298403
57.380 4.110561
57.385 4.166052
57.390 4.369639
57.395 4.419937
57.400 4.236484
57.405 4.475051
57.410 4.403919
57.415 4.184885
57.420 4.160086
57.425 3.748175
57.430 3.492577
57.435 3.426933
57.440 3.175066
57.445 3.010256
57.450 3.225831
57.455 3.4661
57.460 3.813975
57.465 3.848271
57.470 4.041723
57.475 4.150635
57.480 4.043691
57.485 3.975507
57.490 3.609193
57.495 3.614427
57.500 3.98562
57.505 4.004713
57.510 3.704049
57.515 3.719778
57.520 3.627973
57.525 3.870252
57.530 3.92802
57.535 3.781221
57.540 3.60208
57.545 3.636254
57.550 3.952777
57.555 3.696891
57.560 3.716325
57.565 3.644152
57.570 3.454514
57.575 3.664621
57.580 3.693668
57.585 3.520207
57.590 3.64323
57.595 3.309878
57.600 3.053835
57.605 3.130939
57.610 3.114336
57.615 3.011092
57.620 3.199075
57.625 3.236805
57.630 3.468942
57.635 3.530028
57.640 3.534131
57.645 3.818656
57.650 4.206424
57.655 4.103146
57.660 4.165219
57.665 4.031574
57.670 3.92063
57.675 3.826459
57.680 3.446877
57.685 3.182245
57.690 3.145201
57.695 3.092613
57.700 3.088972
57.705 3.196769
57.710 3.440005
57.715 3.7853
57.720 3.902032
57.725 4.283368
57.730 4.376318
57.735 4.439207
57.740 4.268986
57.745 4.149864
57.750 3.885027
57.755 3.511189
57.760 3.242375
57.765 3.266011
57.770 3.491199
57.775 3.530302
57.780 3.484257
57.785 3.439496
57.790 3.498088
57.795 3.376826
57.800 3.374091
57.805 3.576969
57.810 3.63858
57.815 3.614707
57.820 3.911158
57.825 4.106734
57.830 4.182311
57.835 4.185237
57.840 4.010147
57.845 4.015271
57.850 4.228005
57.855 3.901453
57.860 3.689274
57.865 3.649274
57.870 3.686391
57.875 3.662163
57.880 3.820855
57.885 3.715696
57.890 3.938373
57.895 4.509211
57.900 4.482061
57.905 4.346128
57.910 4.591127
57.915 4.276937
57.920 4.303267
57.925 4.322233
57.930 3.848881
57.935 3.864179
57.940 3.682811
57.945 3.420264
57.950 3.515312
57.955 3.496323
57.960 3.128425
57.965 3.039617
57.970 3.022842
57.975 2.945869
57.980 2.850754
57.985 2.881328
57.990 2.914
57.995 3.147958
58.000 3.260318
58.005 3.311705
58.010 3.535941
58.015 3.667147
58.020 3.716961
58.025 3.594597
58.030 3.830013
58.035 3.915489
58.040 4.02532
58.045 4.047121
58.050 4.005472
58.055 3.953455
58.060 3.980687
58.065 4.004138
58.070 4.054156
58.075 4.178356
58.080 3.936322
58.085 3.844209
58.090 3.757054
58.095 3.802986
58.100 3.594496
58.105 3.297667
58.110 3.141091
58.115 3.391683
58.120 3.551128
58.125 3.421733
58.130 3.326366
58.135 3.374231
58.140 3.328323
58.145 3.22099
58.150 3.082459
58.155 3.221788
58.160 3.409024
58.165 3.483369
58.170 3.440006
58.175 4.03107
58.180 4.474868
58.185 4.798031
58.190 4.808698
58.195 4.814145
58.200 4.877512
58.205 4.79287
58.210 4.597963
58.215 4.259264
58.220 4.04578
58.225 3.967578
58.230 3.673294
58.235 3.619312
58.240 3.815618
58.245 3.85939
58.250 3.91823
58.255 3.916742
58.260 3.827074
58.265 3.955679
58.270 3.857364
58.275 3.641585
58.280 3.539575
58.285 3.617642
58.290 3.783972
58.295 3.910579
58.300 3.96956
58.305 4.054043
58.310 4.358669
58.315 4.626612
58.320 4.554347
58.325 4.455649
58.330 4.394137
58.335 4.306845
58.340 4.390355
58.345 4.036506
58.350 3.595942
58.355 3.543227
58.360 3.436369
58.365 3.584208
58.370 3.767151
58.375 3.728943
58.380 3.656923
58.385 3.771505
58.390 3.863137
58.395 3.883933
58.400 3.760725
58.405 3.661397
58.410 3.567545
58.415 3.751707
58.420 3.786318
58.425 3.709683
58.430 3.766572
58.435 3.631156
58.440 3.60393
58.445 3.602134
58.450 3.540538
58.455 3.272885
58.460 3.072317
58.465 3.100119
58.470 3.195878
58.475 3.344563
58.480 3.597771
58.485 3.806672
58.490 4.286906
58.495 4.424624
58.500 4.325672
58.505 4.400779
58.510 4.252082
58.515 4.209995
58.520 4.293992
58.525 4.220925
58.530 4.315696
58.535 4.478292
58.540 4.490014
58.545 4.291084
58.550 4.029234
58.555 3.970361
58.560 4.293538
58.565 4.47372
58.570 4.67772
58.575 4.800239
58.580 4.970554
58.585 4.878386
58.590 4.532439
58.595 4.013182
58.600 3.706237
58.605 3.555967
58.610 3.584469
58.615 3.631746
58.620 3.719618
58.625 4.117109
58.630 4.422079
58.635 4.741183
58.640 4.892418
58.645 5.132014
58.650 5.275845
58.655 5.39246
58.660 5.350168
58.665 5.396038
58.670 5.150913
58.675 5.056888
58.680 5.153601
58.685 4.966219
58.690 5.039076
58.695 4.904863
58.700 4.948524
58.705 5.079389
58.710 4.879141
58.715 4.688135
58.720 4.678863
58.725 4.487697
58.730 4.212696
58.735 4.069333
58.740 3.836719
58.745 3.794082
58.750 3.668586
58.755 3.575049
58.760 3.70596
