!@!!GADDS PLOTSO FILE: Chi integration type
!@!!Title/SampleName: map-52
!@!!Comment: ?
!@!!User: Bruker Instrument Administrator
!@!!Site: University of Illinois Chicago
!@!!Frame: map-52_01_000.gfrm
!@!!Wavelengths    1.54184   1.54056   1.54439
!@!!Frame angles: 2Theta: 63.000 Omega: 50.000 Phi: 0.000 Chi: 90.000
!@!!Integration range: 2Theta: 53.000 to 73.000  Gamma: -105.000 to -75.000
!@!!Integration method: bin normalized
!@!N
!@!SS
!@!M
!@!L 0.0 0.0 0.0 0.0
!@!XDegrees
!@!YCounts
53.000 9.456229
53.005 9.365569
53.010 9.210524
53.015 9.384624
53.020 9.225465
53.025 8.960508
53.030 8.639158
53.035 7.600196
53.040 7.145939
53.045 7.081374
53.050 7.237269
53.055 7.397335
53.060 7.67987
53.065 7.927819
53.070 8.330843
53.075 8.680722
53.080 8.483301
53.085 8.442813
53.090 8.237268
53.095 7.716497
53.100 7.909702
53.105 8.26548
53.110 8.051232
53.115 8.148793
53.120 7.969052
53.125 8.192551
53.130 8.195484
53.135 7.767179
53.140 7.588764
53.145 7.560101
53.150 7.442662
53.155 7.622923
53.160 7.628269
53.165 7.515833
53.170 7.574912
53.175 7.593816
53.180 7.88596
53.185 7.654667
53.190 7.47961
53.195 7.275407
53.200 7.458508
53.205 7.760656
53.210 7.593152
53.215 7.314938
53.220 7.255195
53.225 7.576717
53.230 8.130331
53.235 8.16776
53.240 8.195791
53.245 8.607336
53.250 9.126926
53.255 9.215126
53.260 9.211363
53.265 9.282145
53.270 9.442861
53.275 9.526561
53.280 9.284999
53.285 8.933134
53.290 9.205313
53.295 9.277728
53.300 8.794517
53.305 8.414188
53.310 8.451748
53.315 8.561796
53.320 8.797618
53.325 8.433454
53.330 8.511774
53.335 8.957567
53.340 8.946493
53.345 8.893801
53.350 8.868846
53.355 8.736708
53.360 8.949996
53.365 8.649671
53.370 8.55504
53.375 8.408082
53.380 8.130692
53.385 8.316805
53.390 8.408305
53.395 8.446399
53.400 8.443344
53.405 8.335563
53.410 8.335543
53.415 8.107224
53.420 8.029832
53.425 7.682377
53.430 7.554976
53.435 7.711952
53.440 8.014369
53.445 8.372357
53.450 8.372762
53.455 8.389894
53.460 8.85535
53.465 9.107474
53.470 9.019619
53.475 9.113994
53.480 9.437319
53.485 9.93679
53.490 9.922392
53.495 9.809298
53.500 9.776896
53.505 9.765822
53.510 9.269055
53.515 8.577867
53.520 8.356891
53.525 8.188623
53.530 7.895024
53.535 7.540792
53.540 7.2585
53.545 7.267545
53.550 7.368435
53.555 7.735493
53.560 7.806617
53.565 7.787407
53.570 7.976721
53.575 8.229879
53.580 8.350491
53.585 8.463586
53.590 8.295834
53.595 8.256028
53.600 8.506026
53.605 8.460481
53.610 8.510448
53.615 8.344848
53.620 8.468826
53.625 8.908744
53.630 8.996842
53.635 9.408595
53.640 9.58367
53.645 9.746961
53.650 10.076697
53.655 9.912837
53.660 9.894856
53.665 9.738659
53.670 9.657413
53.675 9.626984
53.680 9.637735
53.685 9.439148
53.690 9.835202
53.695 9.840087
53.700 9.938746
53.705 9.946665
53.710 9.788834
53.715 9.488387
53.720 9.239409
53.725 9.000769
53.730 9.153706
53.735 9.028366
53.740 8.739924
53.745 8.925629
53.750 9.133214
53.755 9.541574
53.760 8.795633
53.765 8.547244
53.770 8.866573
53.775 8.995051
53.780 9.331944
53.785 9.285611
53.790 9.085902
53.795 9.477739
53.800 9.837891
53.805 9.62615
53.810 9.850833
53.815 8.796832
53.820 8.696052
53.825 8.546195
53.830 8.054789
53.835 7.949729
53.840 8.215926
53.845 8.047184
53.850 8.040548
53.855 7.765507
53.860 8.04436
53.865 8.492212
53.870 8.651095
53.875 8.702163
53.880 9.042857
53.885 9.846089
53.890 9.973257
53.895 10.092393
53.900 9.829015
53.905 9.339111
53.910 9.773816
53.915 10.086395
53.920 9.953752
53.925 9.753489
53.930 9.641642
53.935 9.676907
53.940 9.137828
53.945 8.792844
53.950 8.444862
53.955 8.547314
53.960 8.71151
53.965 8.567304
53.970 9.085238
53.975 9.328226
53.980 9.584306
53.985 9.472793
53.990 9.52775
53.995 9.50664
54.000 9.242207
54.005 8.915609
54.010 8.897754
54.015 8.762338
54.020 9.278853
54.025 9.575195
54.030 10.131824
54.035 10.221482
54.040 10.268096
54.045 10.027011
54.050 9.76453
54.055 9.509939
54.060 9.149861
54.065 9.229699
54.070 9.588675
54.075 9.380802
54.080 9.593849
54.085 9.576991
54.090 9.784828
54.095 9.603061
54.100 9.636378
54.105 10.142002
54.110 10.634171
54.115 10.797819
54.120 10.807946
54.125 10.809639
54.130 10.740419
54.135 10.517065
54.140 9.991529
54.145 9.855549
54.150 9.985171
54.155 10.152517
54.160 10.422165
54.165 11.073191
54.170 11.040252
54.175 11.651743
54.180 11.785168
54.185 11.6616
54.190 11.164301
54.195 10.726194
54.200 10.161146
54.205 9.448711
54.210 8.856073
54.215 8.464416
54.220 8.470643
54.225 8.780532
54.230 8.768291
54.235 8.931738
54.240 9.727898
54.245 9.848924
54.250 9.901321
54.255 9.611314
54.260 10.059381
54.265 10.476062
54.270 10.898396
54.275 11.26389
54.280 11.804408
54.285 12.230247
54.290 12.43578
54.295 11.847851
54.300 11.356664
54.305 11.176848
54.310 10.714409
54.315 10.099457
54.320 9.864923
54.325 9.589699
54.330 9.931622
54.335 10.546672
54.340 10.484976
54.345 10.517935
54.350 10.642985
54.355 10.73173
54.360 10.360463
54.365 10.153449
54.370 10.062638
54.375 9.96246
54.380 10.031393
54.385 10.408244
54.390 10.709975
54.395 11.111527
54.400 10.919015
54.405 10.682104
54.410 10.51584
54.415 10.046298
54.420 9.833184
54.425 10.204455
54.430 10.548949
54.435 10.630955
54.440 11.039454
54.445 11.046861
54.450 11.195941
54.455 11.251775
54.460 11.140012
54.465 10.948606
54.470 10.83621
54.475 10.58047
54.480 10.757601
54.485 10.609958
54.490 10.338581
54.495 9.914248
54.500 9.755378
54.505 9.524349
54.510 9.706192
54.515 9.853292
54.520 9.685383
54.525 9.479894
54.530 9.899816
54.535 9.96803
54.540 10.283863
54.545 9.84096
54.550 9.757926
54.555 10.111842
54.560 10.014668
54.565 9.479555
54.570 9.422086
54.575 9.663574
54.580 9.903693
54.585 9.712443
54.590 9.692613
54.595 10.095509
54.600 10.562775
54.605 9.968426
54.610 9.746118
54.615 10.004951
54.620 10.3276
54.625 10.221309
54.630 9.746976
54.635 9.787906
54.640 9.818539
54.645 9.398029
54.650 9.019579
54.655 9.078003
54.660 9.146583
54.665 9.462496
54.670 9.472217
54.675 9.247522
54.680 9.900781
54.685 9.87688
54.690 9.838957
54.695 9.723406
54.700 9.579853
54.705 9.76344
54.710 9.935458
54.715 9.583055
54.720 9.242133
54.725 9.292019
54.730 9.776913
54.735 9.641918
54.740 10.085061
54.745 10.725265
54.750 11.431771
54.755 11.744513
54.760 11.723818
54.765 11.519245
54.770 11.005799
54.775 10.31389
54.780 9.845357
54.785 9.448511
54.790 9.324397
54.795 9.300229
54.800 9.106863
54.805 9.701901
54.810 9.620525
54.815 9.405221
54.820 9.829473
54.825 10.263056
54.830 9.988279
54.835 10.091809
54.840 10.081762
54.845 10.544559
54.850 10.923969
54.855 10.591615
54.860 10.40577
54.865 10.800154
54.870 10.895814
54.875 10.853502
54.880 10.702737
54.885 10.40273
54.890 10.131336
54.895 10.546234
54.900 10.45391
54.905 10.442462
54.910 11.035924
54.915 11.476773
54.920 11.891059
54.925 12.424895
54.930 12.336657
54.935 12.662691
54.940 12.733909
54.945 12.126569
54.950 11.919914
54.955 11.933944
54.960 11.824935
54.965 11.683727
54.970 11.699759
54.975 11.78729
54.980 11.818467
54.985 11.896449
54.990 11.758981
54.995 11.196828
55.000 10.829319
55.005 10.744571
55.010 10.638788
55.015 10.161838
55.020 9.571216
55.025 9.60546
55.030 9.810758
55.035 9.84438
55.040 9.53829
55.045 9.510779
55.050 9.545541
55.055 10.071906
55.060 10.184335
55.065 10.505816
55.070 10.790682
55.075 11.003798
55.080 11.197454
55.085 11.438148
55.090 11.546511
55.095 11.800189
55.100 11.590266
55.105 11.539099
55.110 11.430988
55.115 11.404696
55.120 11.565002
55.125 10.58093
55.130 10.450919
55.135 10.904943
55.140 11.290132
55.145 11.785049
55.150 11.452554
55.155 11.357348
55.160 11.858628
55.165 11.788908
55.170 11.685998
55.175 11.382388
55.180 11.796799
55.185 12.503929
55.190 12.557694
55.195 12.482076
55.200 12.294288
55.205 11.858201
55.210 11.639854
55.215 11.15919
55.220 10.544571
55.225 9.871118
55.230 9.609716
55.235 9.498313
55.240 10.12551
55.245 10.706788
55.250 10.588669
55.255 11.157787
55.260 11.759041
55.265 12.279136
55.270 12.307771
55.275 11.812832
55.280 11.543743
55.285 11.60329
55.290 11.729856
55.295 11.336872
55.300 11.077465
55.305 10.554241
55.310 10.823221
55.315 10.822174
55.320 10.381285
55.325 10.222941
55.330 10.237823
55.335 10.267584
55.340 10.352304
55.345 10.048256
55.350 9.689634
55.355 9.619721
55.360 9.807876
55.365 9.713526
55.370 10.316417
55.375 10.453634
55.380 10.555987
55.385 11.08795
55.390 11.154761
55.395 10.774877
55.400 11.159711
55.405 10.791855
55.410 10.898221
55.415 10.996731
55.420 11.102114
55.425 11.291972
55.430 11.503293
55.435 11.200046
55.440 11.117724
55.445 11.009504
55.450 10.959263
55.455 11.103291
55.460 11.22553
55.465 11.360264
55.470 11.427108
55.475 11.509434
55.480 11.409544
55.485 10.841946
55.490 10.705173
55.495 10.289571
55.500 9.960877
55.505 9.76129
55.510 9.514565
55.515 10.107684
55.520 10.244361
55.525 9.775614
55.530 9.42376
55.535 9.848278
55.540 10.039628
55.545 10.176692
55.550 10.12179
55.555 10.536166
55.560 11.233531
55.565 11.674548
55.570 11.123473
55.575 11.228021
55.580 11.30342
55.585 11.270311
55.590 11.349274
55.595 11.178722
55.600 10.966314
55.605 11.325055
55.610 11.043354
55.615 10.494759
55.620 10.180414
55.625 10.158863
55.630 10.052279
55.635 10.059178
55.640 9.923276
55.645 10.188232
55.650 10.500215
55.655 10.430834
55.660 10.725958
55.665 11.362367
55.670 11.061524
55.675 10.76684
55.680 10.634828
55.685 10.84234
55.690 10.886825
55.695 10.610683
55.700 10.407213
55.705 10.898663
55.710 11.163393
55.715 11.221308
55.720 10.595836
55.725 10.534631
55.730 10.654903
55.735 10.672352
55.740 10.456896
55.745 9.972708
55.750 9.98684
55.755 10.333284
55.760 10.35363
55.765 10.403117
55.770 9.997267
55.775 10.435514
55.780 10.849355
55.785 11.058116
55.790 10.685017
55.795 10.24283
55.800 9.838092
55.805 10.113503
55.810 10.334797
55.815 10.630466
55.820 10.623985
55.825 11.043733
55.830 11.523135
55.835 11.825763
55.840 11.941709
55.845 11.727542
55.850 11.600003
55.855 11.638448
55.860 11.575984
55.865 11.325096
55.870 10.95474
55.875 11.023863
55.880 11.678387
55.885 12.147504
55.890 12.01963
55.895 12.588673
55.900 13.355805
55.905 13.755888
55.910 13.398979
55.915 12.903195
55.920 12.858453
55.925 13.207413
55.930 12.689904
55.935 12.415046
55.940 12.434242
55.945 12.794878
55.950 12.521303
55.955 12.244557
55.960 12.192329
55.965 12.599412
55.970 12.752365
55.975 13.210229
55.980 13.491119
55.985 13.572987
55.990 13.670407
55.995 13.114116
56.000 12.910825
56.005 12.455498
56.010 11.780019
56.015 11.708572
56.020 11.356683
56.025 11.044779
56.030 11.113638
56.035 11.173489
56.040 11.634548
56.045 11.801637
56.050 11.440576
56.055 11.520224
56.060 11.947356
56.065 12.240474
56.070 12.273264
56.075 11.403202
56.080 10.986176
56.085 11.142096
56.090 11.213268
56.095 11.288225
56.100 11.191978
56.105 11.137966
56.110 11.608699
56.115 11.718084
56.120 11.386122
56.125 10.931299
56.130 10.370261
56.135 10.248375
56.140 10.464252
56.145 10.951806
56.150 10.756494
56.155 11.20884
56.160 11.653863
56.165 11.663005
56.170 11.699787
56.175 11.747402
56.180 11.578453
56.185 12.08063
56.190 12.05954
56.195 11.996621
56.200 11.854715
56.205 11.329541
56.210 11.139874
56.215 11.136939
56.220 11.070845
56.225 11.498368
56.230 11.87846
56.235 12.351763
56.240 12.730437
56.245 12.771712
56.250 12.661
56.255 12.695991
56.260 12.279531
56.265 12.290728
56.270 11.864524
56.275 11.498732
56.280 11.410037
56.285 11.163485
56.290 10.98795
56.295 11.108789
56.300 10.948834
56.305 11.097054
56.310 11.2796
56.315 11.346723
56.320 11.624713
56.325 11.966744
56.330 11.919373
56.335 12.092616
56.340 12.555609
56.345 12.702444
56.350 12.928308
56.355 12.988956
56.360 13.069958
56.365 13.334086
56.370 13.563631
56.375 13.281091
56.380 13.233591
56.385 12.767566
56.390 12.341958
56.395 12.144832
56.400 11.832531
56.405 11.54918
56.410 11.456156
56.415 11.48486
56.420 11.437029
56.425 11.119221
56.430 11.315455
56.435 11.486649
56.440 11.302381
56.445 11.412001
56.450 11.633561
56.455 11.98584
56.460 11.950381
56.465 11.431396
56.470 11.159259
56.475 11.30488
56.480 11.769326
56.485 11.575578
56.490 11.956657
56.495 12.317515
56.500 12.646002
56.505 12.709832
56.510 12.424491
56.515 12.149104
56.520 12.632579
56.525 12.517638
56.530 12.066507
56.535 12.018478
56.540 12.384512
56.545 12.464972
56.550 12.457557
56.555 12.307676
56.560 12.200863
56.565 12.325678
56.570 12.558103
56.575 12.519549
56.580 12.471769
56.585 12.344331
56.590 11.930832
56.595 12.729103
56.600 13.015997
56.605 12.977908
56.610 13.29619
56.615 13.486995
56.620 13.839637
56.625 14.066477
56.630 13.652889
56.635 13.576571
56.640 13.341609
56.645 13.275779
56.650 13.301712
56.655 13.741437
56.660 14.435226
56.665 15.053254
56.670 14.861264
56.675 14.797921
56.680 14.670056
56.685 14.126874
56.690 13.389335
56.695 12.536446
56.700 11.900999
56.705 11.917038
56.710 11.834173
56.715 11.931904
56.720 12.362129
56.725 12.35259
56.730 12.131379
56.735 12.832474
56.740 13.386508
56.745 13.506896
56.750 13.221685
56.755 12.787989
56.760 12.879178
56.765 12.974165
56.770 12.296407
56.775 11.926334
56.780 11.971511
56.785 12.269693
56.790 12.617065
56.795 13.476042
56.800 13.5923
56.805 13.628219
56.810 13.693128
56.815 13.684173
56.820 13.510489
56.825 13.611264
56.830 13.405263
56.835 13.434988
56.840 13.051171
56.845 13.103953
56.850 12.860763
56.855 12.90279
56.860 12.435319
56.865 12.289145
56.870 13.022995
56.875 13.189849
56.880 13.439418
56.885 13.602094
56.890 13.446096
56.895 13.390018
56.900 12.70962
56.905 11.704785
56.910 11.690682
56.915 11.479616
56.920 11.189798
56.925 11.527316
56.930 11.590248
56.935 12.212333
56.940 12.547524
56.945 12.287201
56.950 12.308089
56.955 12.426233
56.960 12.405123
56.965 12.485569
56.970 12.287434
56.975 12.532804
56.980 13.20532
56.985 13.833921
56.990 13.99871
56.995 13.636206
57.000 13.393127
57.005 12.929821
57.010 12.61526
57.015 11.930135
57.020 10.998522
57.025 11.080958
57.030 11.256739
57.035 11.412923
57.040 11.96384
57.045 12.047144
57.050 12.303745
57.055 12.655993
57.060 12.253324
57.065 12.083528
57.070 12.082491
57.075 11.671775
57.080 12.184548
57.085 12.668244
57.090 12.538115
57.095 12.807631
57.100 12.746633
57.105 12.405324
57.110 11.955852
57.115 11.426243
57.120 11.341218
57.125 11.990745
57.130 12.490555
57.135 12.664582
57.140 12.895475
57.145 14.007863
57.150 14.190193
57.155 13.880323
57.160 13.512747
57.165 13.372019
57.170 13.378133
57.175 13.489895
57.180 13.428713
57.185 13.753284
57.190 13.791586
57.195 13.476749
57.200 13.581751
57.205 14.097902
57.210 14.847206
57.215 14.736606
57.220 14.208188
57.225 14.290144
57.230 14.392776
57.235 13.72016
57.240 13.32815
57.245 12.655592
57.250 12.611886
57.255 12.925504
57.260 13.008612
57.265 13.171204
57.270 13.510274
57.275 13.93333
57.280 13.864235
57.285 13.855043
57.290 13.573531
57.295 13.387923
57.300 13.574632
57.305 13.699313
57.310 13.108722
57.315 12.080313
57.320 11.94518
57.325 12.322816
57.330 12.126406
57.335 11.593979
57.340 11.467532
57.345 12.159046
57.350 13.508964
57.355 13.37761
57.360 12.922194
57.365 13.444957
57.370 13.564404
57.375 13.660789
57.380 13.284736
57.385 12.994537
57.390 13.238813
57.395 13.938139
57.400 13.839584
57.405 14.030022
57.410 14.306808
57.415 14.242299
57.420 14.406181
57.425 14.350326
57.430 13.851697
57.435 14.028324
57.440 14.63917
57.445 14.4863
57.450 14.477393
57.455 13.815802
57.460 13.684116
57.465 14.128507
57.470 13.85625
57.475 13.513658
57.480 13.383666
57.485 13.274142
57.490 14.389985
57.495 14.554245
57.500 14.27769
57.505 13.913774
57.510 13.482104
57.515 13.280711
57.520 13.637983
57.525 13.216171
57.530 13.402834
57.535 13.909489
57.540 14.250108
57.545 14.141405
57.550 14.615435
57.555 14.533428
57.560 14.242413
57.565 13.643322
57.570 13.704432
57.575 13.754716
57.580 14.108336
57.585 14.075265
57.590 14.155036
57.595 14.063104
57.600 13.457361
57.605 13.459682
57.610 12.865634
57.615 12.250434
57.620 12.199989
57.625 12.581275
57.630 12.941709
57.635 13.485519
57.640 13.680586
57.645 14.304753
57.650 14.641858
57.655 14.730162
57.660 14.131065
57.665 13.944578
57.670 13.863515
57.675 13.354187
57.680 13.181625
57.685 12.978798
57.690 13.04053
57.695 12.979059
57.700 13.729813
57.705 14.105387
57.710 14.283016
57.715 14.753278
57.720 14.835139
57.725 14.815132
57.730 15.009276
57.735 14.301345
57.740 13.924365
57.745 13.717332
57.750 13.702042
57.755 13.937602
57.760 13.656689
57.765 14.037333
57.770 14.671649
57.775 14.975555
57.780 14.80866
57.785 14.365215
57.790 14.126789
57.795 14.304167
57.800 13.978058
57.805 13.44006
57.810 13.440213
57.815 14.110568
57.820 14.055938
57.825 14.007778
57.830 13.987903
57.835 13.858221
57.840 13.798832
57.845 13.779113
57.850 13.735717
57.855 14.517416
57.860 14.610123
57.865 14.636636
57.870 15.272033
57.875 15.395761
57.880 15.64245
57.885 15.521588
57.890 15.471272
57.895 15.505263
57.900 15.993548
57.905 15.942168
57.910 15.930367
57.915 16.045914
57.920 16.358679
57.925 16.142794
57.930 16.247835
57.935 15.372833
57.940 14.557033
57.945 14.360375
57.950 13.958789
57.955 13.775723
57.960 13.915246
57.965 13.823006
57.970 14.037392
57.975 14.698631
57.980 14.381068
57.985 14.235067
57.990 14.290019
57.995 14.080019
58.000 14.536757
58.005 14.850518
58.010 15.151535
58.015 16.081701
58.020 16.122051
58.025 15.998048
58.030 15.80594
58.035 15.196804
58.040 14.560353
58.045 14.250857
58.050 13.693485
58.055 13.810431
58.060 13.830625
58.065 13.3968
58.070 13.672763
58.075 14.089869
58.080 14.189948
58.085 14.637761
58.090 14.560133
58.095 14.579014
58.100 15.721694
58.105 15.783464
58.110 15.493271
58.115 15.437814
58.120 15.058482
58.125 15.054295
58.130 14.8414
58.135 14.645092
58.140 14.450748
58.145 14.016347
58.150 13.437757
58.155 13.596152
58.160 13.332903
58.165 12.920212
58.170 12.65582
58.175 12.518613
58.180 12.449876
58.185 12.669144
58.190 12.399399
58.195 12.857182
58.200 13.230967
58.205 13.45044
58.210 13.746295
58.215 14.37507
58.220 14.800852
58.225 15.180842
58.230 14.974227
58.235 14.812358
58.240 14.87711
58.245 14.990186
58.250 14.523838
58.255 14.327696
58.260 14.156467
58.265 14.462368
58.270 14.35679
58.275 13.905252
58.280 13.719148
58.285 13.599699
58.290 12.795233
58.295 12.398666
58.300 12.325528
58.305 12.594167
58.310 12.534644
58.315 12.660541
58.320 13.084075
58.325 13.954461
58.330 14.134191
58.335 14.178144
58.340 14.064745
58.345 13.832032
58.350 14.302688
58.355 14.410696
58.360 14.360438
58.365 14.544466
58.370 14.405707
58.375 14.755227
58.380 14.909646
58.385 14.271708
58.390 14.237962
58.395 13.918931
58.400 13.954011
58.405 13.980889
58.410 13.817387
58.415 13.761065
58.420 13.568198
58.425 12.930333
58.430 12.70113
58.435 12.54649
58.440 12.400405
58.445 12.746817
58.450 13.038935
58.455 13.569604
58.460 14.518672
58.465 14.985988
58.470 15.338795
58.475 15.654856
58.480 15.727998
58.485 15.951976
58.490 15.745107
58.495 15.389054
58.500 15.127361
58.505 14.757877
58.510 14.819854
58.515 14.980021
58.520 14.607258
