!@!!GADDS PLOTSO FILE: Chi integration type
!@!!Title/SampleName: map-155
!@!!Comment: ?
!@!!User: Bruker Instrument Administrator
!@!!Site: University of Illinois Chicago
!@!!Frame: map-155_01_000.gfrm
!@!!Wavelengths    1.54184   1.54056   1.54439
!@!!Frame angles: 2Theta: 63.000 Omega: 50.000 Phi: 0.000 Chi: 90.000
!@!!Integration range: 2Theta: 53.000 to 73.000  Gamma: -105.000 to -75.000
!@!!Integration method: bin normalized
!@!N
!@!SS
!@!M
!@!L 0.0 0.0 0.0 0.0
!@!XDegrees
!@!YCounts
53.000 6.023184
53.005 6.010219
53.010 6.034813
53.015 6.876842
53.020 7.208945
53.025 7.252761
53.030 6.875097
53.035 6.600382
53.040 6.535058
53.045 6.544873
53.050 6.020004
53.055 6.066613
53.060 6.229277
53.065 6.444264
53.070 6.380445
53.075 6.343972
53.080 6.395192
53.085 6.411741
53.090 6.145775
53.095 5.972661
53.100 6.077072
53.105 6.300213
53.110 6.516102
53.115 6.816328
53.120 6.890236
53.125 7.265996
53.130 7.422268
53.135 7.429627
53.140 6.926849
53.145 6.550531
53.150 6.053236
53.155 6.203799
53.160 6.137866
53.165 6.142087
53.170 6.108163
53.175 5.920741
53.180 5.83747
53.185 5.526308
53.190 5.462009
53.195 5.593191
53.200 5.695769
53.205 5.912909
53.210 6.232405
53.215 6.242254
53.220 6.221095
53.225 5.700105
53.230 5.308061
53.235 5.078437
53.240 5.060283
53.245 5.417219
53.250 5.801731
53.255 5.873497
53.260 6.323579
53.265 6.571572
53.270 7.061133
53.275 7.130934
53.280 6.770632
53.285 6.542547
53.290 6.565143
53.295 6.180027
53.300 5.871246
53.305 5.59839
53.310 5.667655
53.315 5.669642
53.320 5.612251
53.325 5.869349
53.330 6.115524
53.335 5.926578
53.340 5.246528
53.345 5.248011
53.350 5.25679
53.355 5.307291
53.360 5.219076
53.365 5.216416
53.370 5.545727
53.375 5.781731
53.380 5.736145
53.385 5.881558
53.390 5.690846
53.395 5.668567
53.400 5.846118
53.405 5.577659
53.410 5.577206
53.415 5.534586
53.420 6.062507
53.425 6.268726
53.430 6.192089
53.435 6.010703
53.440 6.425744
53.445 6.497626
53.450 6.028358
53.455 5.35751
53.460 5.197262
53.465 5.223799
53.470 4.960069
53.475 4.94433
53.480 4.992993
53.485 5.088887
53.490 5.305155
53.495 5.494286
53.500 5.401013
53.505 5.473488
53.510 5.36973
53.515 5.577374
53.520 6.089602
53.525 6.03329
53.530 5.861181
53.535 6.093938
53.540 6.352028
53.545 6.075267
53.550 6.123898
53.555 5.751356
53.560 5.616224
53.565 5.8158
53.570 5.807233
53.575 5.902727
53.580 5.998196
53.585 5.664307
53.590 5.470679
53.595 5.906489
53.600 6.059128
53.605 6.363873
53.610 6.730155
53.615 6.972911
53.620 7.669562
53.625 8.004454
53.630 7.793559
53.635 7.520133
53.640 7.218925
53.645 6.788722
53.650 6.561698
53.655 6.331426
53.660 6.570015
53.665 6.548698
53.670 6.472438
53.675 6.194023
53.680 6.390523
53.685 6.726248
53.690 6.77729
53.695 6.438865
53.700 6.883544
53.705 7.40317
53.710 7.544415
53.715 7.22519
53.720 7.056948
53.725 6.590616
53.730 6.410739
53.735 5.97142
53.740 5.751645
53.745 5.823015
53.750 5.641185
53.755 5.737717
53.760 6.416637
53.765 6.434732
53.770 6.304934
53.775 6.469821
53.780 6.122574
53.785 6.47132
53.790 6.566218
53.795 6.528606
53.800 6.891638
53.805 7.146909
53.810 7.249911
53.815 7.611666
53.820 7.396203
53.825 7.431569
53.830 7.124883
53.835 7.039907
53.840 6.800718
53.845 6.743623
53.850 6.785402
53.855 6.908134
53.860 6.740227
53.865 6.978332
53.870 6.941616
53.875 6.93772
53.880 6.726139
53.885 6.428225
53.890 6.186763
53.895 6.466094
53.900 5.991383
53.905 5.816597
53.910 5.618146
53.915 5.743704
53.920 5.931147
53.925 5.883584
53.930 6.113318
53.935 6.753338
53.940 7.066601
53.945 7.286921
53.950 7.255027
53.955 7.397522
53.960 7.314631
53.965 7.046497
53.970 6.947893
53.975 7.225405
53.980 7.279808
53.985 7.421784
53.990 7.492273
53.995 7.315804
54.000 7.095935
54.005 6.953445
54.010 6.745115
54.015 6.717214
54.020 6.747673
54.025 6.962467
54.030 7.050865
54.035 7.261024
54.040 7.498132
54.045 7.656105
54.050 7.921804
54.055 7.850431
54.060 7.467268
54.065 7.307466
54.070 7.356956
54.075 7.205338
54.080 6.830701
54.085 6.43733
54.090 6.256107
54.095 6.171843
54.100 6.253242
54.105 6.360892
54.110 6.58082
54.115 6.743781
54.120 7.044167
54.125 7.079183
54.130 7.450277
54.135 7.357968
54.140 7.208881
54.145 6.910989
54.150 6.779372
54.155 6.817458
54.160 6.989588
54.165 6.896076
54.170 6.906422
54.175 6.772633
54.180 6.77048
54.185 6.738114
54.190 6.633945
54.195 6.442514
54.200 6.331693
54.205 5.885532
54.210 5.853499
54.215 6.099372
54.220 6.224512
54.225 6.13035
54.230 6.36703
54.235 6.493976
54.240 6.644825
54.245 6.546566
54.250 6.477423
54.255 6.433645
54.260 6.771455
54.265 6.802693
54.270 6.866116
54.275 6.93396
54.280 6.893993
54.285 7.012117
54.290 6.82253
54.295 6.597812
54.300 6.513998
54.305 6.612509
54.310 6.694124
54.315 6.591767
54.320 6.549595
54.325 6.50352
54.330 6.466577
54.335 6.175637
54.340 6.279479
54.345 6.222441
54.350 6.424461
54.355 6.254957
54.360 6.038588
54.365 6.140366
54.370 6.413722
54.375 6.375591
54.380 6.214301
54.385 6.163536
54.390 6.415908
54.395 6.82743
54.400 6.787833
54.405 6.432383
54.410 6.227637
54.415 6.537993
54.420 6.489415
54.425 6.439921
54.430 6.843048
54.435 6.869371
54.440 7.449296
54.445 7.50198
54.450 7.322642
54.455 7.259027
54.460 7.259694
54.465 7.031939
54.470 6.840058
54.475 6.69748
54.480 6.808807
54.485 6.456678
54.490 6.620773
54.495 6.633141
54.500 6.787426
54.505 6.91719
54.510 6.91997
54.515 6.895504
54.520 7.193978
54.525 7.048422
54.530 6.468073
54.535 6.53145
54.540 6.578368
54.545 6.399449
54.550 6.657406
54.555 6.639026
54.560 6.495577
54.565 6.622239
54.570 6.411773
54.575 6.150383
54.580 6.270744
54.585 6.098398
54.590 6.301363
54.595 6.326762
54.600 6.040885
54.605 6.046536
54.610 6.162446
54.615 5.956162
54.620 6.12559
54.625 6.31014
54.630 6.796593
54.635 6.908237
54.640 7.160099
54.645 7.214444
54.650 7.644043
54.655 7.943697
54.660 7.814035
54.665 7.702058
54.670 7.540028
54.675 7.578108
54.680 7.328072
54.685 6.763825
54.690 6.60061
54.695 6.658359
54.700 7.129987
54.705 7.499331
54.710 7.285524
54.715 7.112867
54.720 7.195522
54.725 7.00937
54.730 6.516207
54.735 6.189119
54.740 6.194441
54.745 6.816506
54.750 6.73971
54.755 6.529546
54.760 6.618615
54.765 6.71561
54.770 6.489885
54.775 6.223334
54.780 5.937634
54.785 6.026337
54.790 6.071484
54.795 6.023997
54.800 6.40974
54.805 6.557663
54.810 6.865255
54.815 7.431358
54.820 7.672897
54.825 7.593395
54.830 7.078427
54.835 6.68162
54.840 6.920804
54.845 6.948399
54.850 6.996469
54.855 7.380635
54.860 7.846998
54.865 8.618976
54.870 9.056149
54.875 9.030678
54.880 8.766849
54.885 8.469085
54.890 8.205176
54.895 8.087548
54.900 7.986649
54.905 7.828466
54.910 7.857032
54.915 8.166131
54.920 8.436393
54.925 8.832401
54.930 8.383504
54.935 8.405912
54.940 8.547634
54.945 8.30654
54.950 8.179634
54.955 7.86116
54.960 7.819612
54.965 7.795927
54.970 7.542643
54.975 7.797496
54.980 8.287507
54.985 8.309383
54.990 8.34058
54.995 8.180938
55.000 8.321491
55.005 8.479538
55.010 8.029104
55.015 7.843944
55.020 7.800827
55.025 8.294788
55.030 8.727364
55.035 8.766308
55.040 8.651148
55.045 8.752053
55.050 9.100676
55.055 8.888783
55.060 8.433419
55.065 8.161096
55.070 8.483052
55.075 8.583878
55.080 8.17325
55.085 7.393427
55.090 7.322897
55.095 7.157242
55.100 6.939976
55.105 6.56831
55.110 6.37881
55.115 6.667175
55.120 6.893862
55.125 6.806605
55.130 6.713432
55.135 6.975479
55.140 7.052797
55.145 6.963104
55.150 6.719594
55.155 6.730719
55.160 7.215238
55.165 7.386377
55.170 7.700825
55.175 7.782812
55.180 7.896392
55.185 8.099886
55.190 8.094744
55.195 7.870966
55.200 7.9806
55.205 7.693913
55.210 7.877765
55.215 8.005085
55.220 7.964284
55.225 8.061213
55.230 7.913958
55.235 7.843031
55.240 7.568987
55.245 7.350764
55.250 7.324782
55.255 7.07405
55.260 6.9761
55.265 7.20158
55.270 7.268411
55.275 7.295895
55.280 7.123549
55.285 7.088344
55.290 6.979012
55.295 6.719261
55.300 6.428569
55.305 6.291783
55.310 6.422348
55.315 6.226482
55.320 6.580061
55.325 7.000933
55.330 7.370218
55.335 7.514911
55.340 7.74902
55.345 7.80048
55.350 7.876656
55.355 7.322577
55.360 6.988884
55.365 6.755026
55.370 6.536508
55.375 6.281048
55.380 6.071701
55.385 6.085983
55.390 6.287344
55.395 6.940938
55.400 7.451946
55.405 7.759528
55.410 7.860399
55.415 8.121655
55.420 8.210402
55.425 8.184854
55.430 7.631842
55.435 7.509957
55.440 7.35396
55.445 7.140355
55.450 6.896446
55.455 6.777722
55.460 6.906687
55.465 6.836432
55.470 6.570867
55.475 6.751519
55.480 6.854177
55.485 6.982724
55.490 6.683404
55.495 6.540259
55.500 6.691492
55.505 7.225662
55.510 7.180287
55.515 7.174785
55.520 7.297289
55.525 7.472776
55.530 7.242132
55.535 6.646835
55.540 5.915548
55.545 5.902905
55.550 6.066719
55.555 5.97895
55.560 5.875482
55.565 6.082922
55.570 6.245262
55.575 6.364913
55.580 6.410894
55.585 6.422351
55.590 6.654144
55.595 7.066133
55.600 7.482013
55.605 7.435658
55.610 7.575441
55.615 8.096102
55.620 7.882589
55.625 7.323743
55.630 7.221072
55.635 7.19671
55.640 7.479994
55.645 6.996865
55.650 6.314549
55.655 6.569023
55.660 6.884287
55.665 6.479279
55.670 6.13533
55.675 5.851461
55.680 6.189105
55.685 6.731143
55.690 7.127676
55.695 7.152939
55.700 7.227144
55.705 7.232175
55.710 7.300521
55.715 6.780668
55.720 6.370931
55.725 6.059508
55.730 6.056468
55.735 5.832916
55.740 5.862992
55.745 5.734676
55.750 5.722773
55.755 5.904889
55.760 5.904751
55.765 6.002021
55.770 6.539807
55.775 6.981958
55.780 7.300951
55.785 7.770135
55.790 7.40979
55.795 7.150314
55.800 7.076873
55.805 7.090333
55.810 6.997913
55.815 7.049342
55.820 7.053742
55.825 7.384113
55.830 7.343586
55.835 7.398755
55.840 7.480739
55.845 7.405723
55.850 7.195124
55.855 7.342513
55.860 7.651568
55.865 7.654923
55.870 7.488638
55.875 7.257411
55.880 7.103954
55.885 7.680068
55.890 7.362256
55.895 6.801818
55.900 7.007885
55.905 6.898105
55.910 7.156263
55.915 7.219567
55.920 6.582808
55.925 6.642667
55.930 6.774968
55.935 6.956866
55.940 7.162389
55.945 7.320197
55.950 7.155934
55.955 6.814265
55.960 6.932901
55.965 6.780883
55.970 6.641498
55.975 6.550658
55.980 5.988395
55.985 6.315387
55.990 7.089076
55.995 7.126132
56.000 7.282326
56.005 7.299525
56.010 7.312153
56.015 7.559378
56.020 7.363498
56.025 7.324652
56.030 7.25097
56.035 7.383882
56.040 7.331064
56.045 7.297458
56.050 7.2347
56.055 7.224242
56.060 7.186747
56.065 7.253235
56.070 7.487024
56.075 7.458131
56.080 7.571857
56.085 7.438006
56.090 7.297441
56.095 7.253271
56.100 6.968674
56.105 6.427681
56.110 6.023911
56.115 6.035707
56.120 6.277198
56.125 6.049743
56.130 5.876656
56.135 6.077946
56.140 6.592003
56.145 6.787784
56.150 6.7153
56.155 6.735952
56.160 6.771321
56.165 7.07352
56.170 6.880279
56.175 6.675674
56.180 7.236883
56.185 7.234416
56.190 7.125294
56.195 7.09667
56.200 6.889032
56.205 7.111373
56.210 6.895309
56.215 6.694228
56.220 6.539985
56.225 6.990378
56.230 7.139905
56.235 7.106747
56.240 6.933584
56.245 7.308473
56.250 7.077194
56.255 7.113488
56.260 7.178089
56.265 7.586953
56.270 7.500955
56.275 7.553292
56.280 7.524071
56.285 7.780888
56.290 8.137167
56.295 8.192598
56.300 8.225795
56.305 8.272599
56.310 8.245796
56.315 8.256337
56.320 7.836563
56.325 7.314148
56.330 6.809307
56.335 6.402269
56.340 6.391602
56.345 6.724364
56.350 7.13147
56.355 7.792993
56.360 8.536123
56.365 9.002899
56.370 9.566085
56.375 10.328786
56.380 9.922894
56.385 9.217414
56.390 8.796391
56.395 8.438547
56.400 8.685111
56.405 8.409391
56.410 8.120713
56.415 8.378855
56.420 8.528224
56.425 8.640658
56.430 8.131646
56.435 7.70548
56.440 7.806324
56.445 7.688306
56.450 7.995774
56.455 7.936469
56.460 8.04163
56.465 8.393314
56.470 8.754166
56.475 8.970062
56.480 9.33228
56.485 9.284356
56.490 9.551023
56.495 10.157383
56.500 10.113735
56.505 9.880278
56.510 9.529616
56.515 9.665677
56.520 9.689347
56.525 9.973019
56.530 9.679872
56.535 9.802458
56.540 9.582957
56.545 9.540314
56.550 9.383115
56.555 9.3427
56.560 9.419689
56.565 9.395453
56.570 9.691349
56.575 10.073839
56.580 9.782413
56.585 9.440239
56.590 9.628712
56.595 9.65039
56.600 9.436665
56.605 9.271538
56.610 9.204827
56.615 9.571136
56.620 9.611867
56.625 9.237257
56.630 8.730629
56.635 9.042087
56.640 8.955814
56.645 8.923842
56.650 8.842722
56.655 8.852441
56.660 9.412724
56.665 9.644353
56.670 9.270368
56.675 9.377026
56.680 9.399123
56.685 9.869947
56.690 10.076759
56.695 9.585368
56.700 9.433628
56.705 9.426219
56.710 9.252535
56.715 9.143205
56.720 8.729814
56.725 8.554422
56.730 8.284115
56.735 8.234653
56.740 8.253284
56.745 8.394333
56.750 8.329626
56.755 8.378208
56.760 8.480343
56.765 8.783268
56.770 8.838943
56.775 8.773542
56.780 8.630694
56.785 8.657225
56.790 8.518263
56.795 8.653662
56.800 8.570556
56.805 8.564527
56.810 8.534695
56.815 8.19805
56.820 7.796918
56.825 7.626502
56.830 7.2314
56.835 6.912656
56.840 6.372248
56.845 6.223429
56.850 6.361883
56.855 6.319922
56.860 6.252882
56.865 6.286299
56.870 6.464443
56.875 6.773597
56.880 6.648389
56.885 6.421064
56.890 6.754724
56.895 6.878102
56.900 6.98588
56.905 6.784656
56.910 7.006243
56.915 7.15028
56.920 7.171568
56.925 6.824313
56.930 6.88293
56.935 6.916822
56.940 7.314277
56.945 7.225401
56.950 7.231651
56.955 7.740048
56.960 8.241261
56.965 8.39992
56.970 8.689863
56.975 8.461431
56.980 8.24414
56.985 8.199367
56.990 7.537706
56.995 7.233972
57.000 7.283966
57.005 6.803847
57.010 6.513614
57.015 6.950386
57.020 7.248768
57.025 7.47908
57.030 7.421295
57.035 7.186985
57.040 7.121169
57.045 6.945573
57.050 6.446574
57.055 6.400324
57.060 6.402004
57.065 6.385932
57.070 6.336101
57.075 6.695921
57.080 6.763421
57.085 7.276472
57.090 7.355548
57.095 7.280874
57.100 7.233366
57.105 7.239533
57.110 7.39011
57.115 7.374741
57.120 6.979024
57.125 7.040524
57.130 7.20118
57.135 7.587768
57.140 7.826356
57.145 7.779975
57.150 8.107742
57.155 8.216886
57.160 7.764393
57.165 7.248344
57.170 6.749289
57.175 6.663792
57.180 6.710573
57.185 6.518739
57.190 6.35772
57.195 6.514414
57.200 6.533769
57.205 6.643447
57.210 6.833584
57.215 6.841895
57.220 6.629576
57.225 6.626196
57.230 6.823458
57.235 6.863559
57.240 6.769063
57.245 6.278141
57.250 6.202588
57.255 6.653677
57.260 7.054851
57.265 6.959243
57.270 7.202831
57.275 7.104671
57.280 7.24083
57.285 7.256395
57.290 6.993974
57.295 6.970604
57.300 7.328841
57.305 7.350405
57.310 7.675253
57.315 7.689803
57.320 7.675539
57.325 7.724527
57.330 7.711679
57.335 7.57541
57.340 7.723983
57.345 7.659165
57.350 7.530331
57.355 7.512253
57.360 7.214264
57.365 6.766046
57.370 6.623073
57.375 6.394336
57.380 6.372162
57.385 6.201312
57.390 6.33277
57.395 6.502956
57.400 6.802569
57.405 6.927526
57.410 6.845948
57.415 6.723876
57.420 6.860768
57.425 6.923134
57.430 6.907996
57.435 6.447795
57.440 6.487788
57.445 6.990067
57.450 7.426601
57.455 7.627382
57.460 7.373879
57.465 7.321834
57.470 7.513436
57.475 7.253428
57.480 6.890959
57.485 6.529957
57.490 6.580002
57.495 6.934225
57.500 7.10614
57.505 7.642745
57.510 7.618709
57.515 7.5662
57.520 7.745792
57.525 7.752233
57.530 7.505426
57.535 7.558553
57.540 7.369651
57.545 7.357528
57.550 7.448987
57.555 7.483479
57.560 7.672517
57.565 8.002106
57.570 7.555902
57.575 7.491073
57.580 7.534514
57.585 7.327549
57.590 7.772222
57.595 7.590057
57.600 7.278369
57.605 7.51184
57.610 7.763547
57.615 8.229
57.620 8.485882
57.625 8.23677
57.630 8.294407
57.635 8.517242
57.640 8.52388
57.645 7.844563
57.650 7.353012
57.655 7.20099
57.660 6.896458
57.665 6.80364
57.670 6.831572
57.675 6.363119
57.680 6.52613
57.685 6.67006
57.690 6.85219
57.695 6.90052
57.700 6.764636
57.705 6.275536
57.710 6.798771
57.715 6.692699
57.720 6.469488
57.725 6.056961
57.730 6.194075
57.735 6.802371
57.740 7.200408
57.745 7.065281
57.750 7.371731
57.755 7.624337
57.760 7.410054
57.765 7.112192
57.770 6.551601
57.775 6.731056
57.780 7.14058
57.785 6.729639
57.790 6.836631
57.795 7.339712
57.800 7.73835
57.805 7.844257
57.810 7.704494
57.815 7.623487
57.820 7.575095
57.825 7.473316
57.830 7.562015
57.835 7.439587
57.840 7.584577
57.845 7.612826
57.850 7.53531
57.855 7.749785
57.860 7.56192
57.865 7.381742
57.870 7.20255
57.875 7.109998
57.880 7.237333
57.885 7.251919
57.890 7.35601
57.895 7.629158
57.900 7.526838
57.905 7.49226
57.910 6.853573
57.915 6.591303
57.920 6.653018
57.925 6.29071
57.930 6.270998
57.935 6.10037
57.940 6.325439
57.945 6.805215
57.950 6.669397
57.955 6.647077
57.960 6.871974
57.965 7.078844
57.970 7.038799
57.975 6.9568
57.980 6.827177
57.985 6.876504
57.990 7.070547
57.995 6.943756
58.000 7.008696
58.005 6.941003
58.010 7.109791
58.015 7.36543
58.020 7.680392
58.025 7.419921
58.030 7.52578
58.035 7.893153
58.040 8.074247
58.045 7.830534
58.050 7.401385
58.055 7.051275
58.060 7.440634
58.065 7.558687
58.070 7.385258
58.075 7.443193
58.080 7.520674
58.085 7.890766
58.090 7.819512
58.095 7.775442
58.100 7.42977
58.105 7.358963
58.110 7.355964
58.115 7.462834
58.120 7.630934
58.125 7.708252
58.130 7.641616
58.135 7.852386
58.140 7.557969
58.145 7.290658
58.150 7.101957
58.155 6.974467
58.160 6.825191
58.165 6.926993
58.170 6.483266
58.175 6.493051
58.180 6.569138
58.185 6.58674
58.190 6.311521
58.195 6.425336
58.200 6.347066
58.205 6.40419
58.210 6.784858
58.215 6.78926
58.220 6.924997
58.225 7.198658
58.230 7.219888
58.235 7.523113
58.240 7.607771
58.245 7.418143
58.250 7.615952
58.255 7.645641
58.260 7.653788
58.265 7.645615
58.270 7.322348
58.275 7.098058
58.280 6.930029
58.285 6.964805
58.290 6.95168
58.295 6.913948
58.300 6.724178
58.305 6.588397
58.310 6.856222
58.315 6.913846
58.320 6.821992
58.325 6.904178
58.330 6.900295
58.335 6.815388
58.340 7.082543
58.345 7.30184
58.350 7.11238
58.355 6.871394
58.360 6.8688
58.365 6.925587
58.370 7.114305
58.375 6.849453
58.380 6.981858
58.385 6.924213
58.390 6.910987
58.395 7.213058
58.400 7.414582
58.405 7.30411
58.410 7.441566
58.415 7.25118
58.420 7.774603
58.425 7.938981
58.430 7.707758
58.435 7.458565
58.440 7.765617
58.445 7.933403
58.450 8.03948
58.455 7.857059
58.460 8.073229
58.465 8.014688
58.470 7.901845
58.475 7.19103
58.480 6.829638
58.485 6.618248
58.490 6.414301
58.495 6.193141
58.500 6.422133
58.505 6.743876
58.510 7.172369
58.515 7.204194
58.520 6.939806
58.525 7.14305
58.530 7.146171
58.535 7.090101
58.540 6.879456
58.545 6.935182
58.550 7.490667
58.555 7.925545
58.560 8.042518
58.565 7.843694
58.570 7.62973
58.575 8.067268
58.580 8.087893
58.585 7.557355
58.590 7.553083
58.595 7.432376
58.600 7.811106
58.605 7.880373
58.610 7.497827
58.615 7.193975
58.620 7.229912
58.625 7.274698
58.630 7.583173
58.635 7.616119
58.640 7.682277
58.645 7.443963
58.650 7.226658
58.655 7.289666
58.660 7.058515
58.665 6.885678
58.670 6.708755
58.675 6.604688
58.680 6.754744
58.685 6.903931
58.690 7.297655
58.695 7.499048
58.700 6.993189
58.705 6.793672
58.710 6.807831
58.715 6.673272
58.720 6.954092
58.725 6.581733
58.730 6.380715
58.735 6.420498
58.740 6.31184
58.745 6.520144
58.750 6.746696
58.755 6.465025
58.760 6.380036
