!@!!GADDS PLOTSO FILE: Chi integration type
!@!!Title/SampleName: map-12b
!@!!Comment: ?
!@!!User: Bruker Instrument Administrator
!@!!Site: University of Illinois Chicago
!@!!Frame: map-12b_01_000.gfrm
!@!!Wavelengths    1.54184   1.54056   1.54439
!@!!Frame angles: 2Theta: 63.000 Omega: 50.000 Phi: 0.000 Chi: 90.000
!@!!Integration range: 2Theta: 53.000 to 73.000  Gamma: -105.000 to -75.000
!@!!Integration method: bin normalized
!@!N
!@!SS
!@!M
!@!L 0.0 0.0 0.0 0.0
!@!XDegrees
!@!YCounts
53.000 3.583049
53.005 3.547191
53.010 3.707577
53.015 3.78706
53.020 3.934097
53.025 3.714735
53.030 3.522696
53.035 3.501474
53.040 3.420881
53.045 3.339225
53.050 3.41537
53.055 3.769434
53.060 3.937057
53.065 4.063163
53.070 4.193268
53.075 4.218783
53.080 4.392661
53.085 4.168894
53.090 3.899265
53.095 3.841993
53.100 3.715084
53.105 3.553153
53.110 3.656074
53.115 3.552163
53.120 3.519828
53.125 3.537437
53.130 3.708515
53.135 3.664218
53.140 3.64036
53.145 3.48397
53.150 3.417827
53.155 3.312839
53.160 3.29674
53.165 3.089363
53.170 3.278669
53.175 3.541572
53.180 3.704846
53.185 4.023067
53.190 3.898405
53.195 3.889455
53.200 3.886946
53.205 3.717495
53.210 3.715407
53.215 3.597076
53.220 3.424254
53.225 3.270305
53.230 3.409578
53.235 3.488724
53.240 3.494464
53.245 3.479609
53.250 3.432121
53.255 3.601109
53.260 3.658127
53.265 3.775815
53.270 3.834106
53.275 3.766347
53.280 3.723867
53.285 3.751091
53.290 3.707263
53.295 3.600793
53.300 3.487046
53.305 3.535105
53.310 3.50729
53.315 3.515886
53.320 3.483326
53.325 3.284839
53.330 3.2234
53.335 3.22066
53.340 3.212711
53.345 3.049594
53.350 3.337893
53.355 3.596471
53.360 3.860449
53.365 3.763077
53.370 3.871697
53.375 4.150155
53.380 4.156602
53.385 4.26845
53.390 4.282095
53.395 4.344625
53.400 4.455241
53.405 4.114408
53.410 3.937684
53.415 3.817634
53.420 3.589443
53.425 3.625838
53.430 3.539296
53.435 3.640172
53.440 3.524615
53.445 3.493411
53.450 3.473054
53.455 3.199704
53.460 3.019399
53.465 2.912617
53.470 2.626477
53.475 2.886867
53.480 2.978201
53.485 2.75264
53.490 2.775722
53.495 3.160497
53.500 3.433381
53.505 3.657222
53.510 3.405368
53.515 3.320536
53.520 3.585731
53.525 3.498184
53.530 3.136006
53.535 2.956109
53.540 3.013103
53.545 3.250745
53.550 3.50953
53.555 3.610815
53.560 3.736795
53.565 3.97246
53.570 4.002416
53.575 3.943381
53.580 4.103677
53.585 3.950273
53.590 3.880893
53.595 3.676412
53.600 3.447813
53.605 3.424409
53.610 3.273706
53.615 3.136678
53.620 3.366436
53.625 3.402215
53.630 3.539416
53.635 3.717923
53.640 3.70305
53.645 3.627861
53.650 3.625207
53.655 3.47889
53.660 3.63689
53.665 3.781809
53.670 3.537036
53.675 3.520958
53.680 3.606854
53.685 3.610616
53.690 3.502769
53.695 3.296767
53.700 3.348343
53.705 3.452975
53.710 3.610199
53.715 3.499974
53.720 3.200948
53.725 3.216862
53.730 3.051747
53.735 2.98617
53.740 2.804325
53.745 2.644661
53.750 2.844605
53.755 2.868294
53.760 2.890777
53.765 2.924966
53.770 3.004615
53.775 2.965385
53.780 2.679614
53.785 2.660995
53.790 2.724696
53.795 2.768273
53.800 3.038279
53.805 3.329328
53.810 3.860916
53.815 4.228143
53.820 4.102281
53.825 3.98766
53.830 4.046566
53.835 3.683085
53.840 3.609915
53.845 3.146439
53.850 2.90746
53.855 2.801021
53.860 3.057028
53.865 3.176481
53.870 3.072524
53.875 3.050272
53.880 3.236258
53.885 3.487914
53.890 3.516937
53.895 3.349548
53.900 3.260796
53.905 3.287428
53.910 3.223169
53.915 3.330735
53.920 3.314885
53.925 3.403491
53.930 3.611288
53.935 3.872665
53.940 3.943075
53.945 3.871637
53.950 3.79616
53.955 4.036225
53.960 4.148758
53.965 4.3995
53.970 4.525373
53.975 4.673367
53.980 4.561305
53.985 4.655383
53.990 4.807219
53.995 4.622296
54.000 4.243508
54.005 3.955345
54.010 4.110327
54.015 4.328381
54.020 3.964871
54.025 3.656732
54.030 3.535738
54.035 3.802979
54.040 4.153052
54.045 4.060013
54.050 4.20006
54.055 4.512142
54.060 4.554628
54.065 4.309832
54.070 3.790492
54.075 3.830741
54.080 3.77578
54.085 3.458633
54.090 3.22314
54.095 3.150244
54.100 3.309416
54.105 3.46766
54.110 3.442446
54.115 3.419301
54.120 3.424305
54.125 3.653667
54.130 4.026629
54.135 4.260982
54.140 4.00493
54.145 3.685533
54.150 3.704997
54.155 3.768336
54.160 3.578482
54.165 3.196042
54.170 2.976552
54.175 2.934739
54.180 2.880922
54.185 2.77655
54.190 2.791108
54.195 3.004177
54.200 3.185699
54.205 3.520555
54.210 3.730469
54.215 4.097399
54.220 4.08059
54.225 4.366369
54.230 4.341584
54.235 4.380164
54.240 4.219847
54.245 4.220714
54.250 4.10786
54.255 3.975251
54.260 3.861031
54.265 3.894986
54.270 3.654797
54.275 3.539359
54.280 3.515971
54.285 3.686264
54.290 3.768678
54.295 3.688876
54.300 3.619539
54.305 3.760576
54.310 3.500673
54.315 3.2383
54.320 3.451042
54.325 3.251416
54.330 3.263734
54.335 3.222399
54.340 3.210881
54.345 3.641673
54.350 3.593907
54.355 3.401219
54.360 3.838004
54.365 3.976588
54.370 4.14254
54.375 4.195199
54.380 3.902085
54.385 4.005728
54.390 3.923944
54.395 3.576412
54.400 3.152271
54.405 3.124766
54.410 3.280375
54.415 3.440639
54.420 3.326131
54.425 3.269057
54.430 3.120287
54.435 3.344665
54.440 3.170331
54.445 3.110384
54.450 3.08493
54.455 3.303821
54.460 3.514308
54.465 3.878773
54.470 3.809536
54.475 3.776726
54.480 3.580869
54.485 3.547227
54.490 3.604988
54.495 3.554719
54.500 3.352131
54.505 3.212388
54.510 3.345692
54.515 3.524178
54.520 3.611577
54.525 3.491609
54.530 3.433665
54.535 3.625185
54.540 3.949937
54.545 3.920737
54.550 3.651575
54.555 3.352101
54.560 3.15706
54.565 3.149035
54.570 2.993333
54.575 2.6841
54.580 2.822651
54.585 3.001937
54.590 3.281385
54.595 3.518718
54.600 3.639089
54.605 3.565694
54.610 3.559727
54.615 3.468795
54.620 3.489719
54.625 2.994444
54.630 2.661173
54.635 2.760997
54.640 2.803156
54.645 2.923575
54.650 3.005345
54.655 3.118132
54.660 3.312904
54.665 3.253344
54.670 3.208478
54.675 3.355716
54.680 3.414456
54.685 3.293812
54.690 3.492273
54.695 3.583886
54.700 3.71736
54.705 3.738344
54.710 3.867167
54.715 3.82828
54.720 3.919628
54.725 3.887343
54.730 3.973325
54.735 3.909351
54.740 3.776385
54.745 3.422536
54.750 3.236294
54.755 3.172573
54.760 2.907155
54.765 2.780756
54.770 2.635213
54.775 2.884342
54.780 3.206997
54.785 3.234193
54.790 3.351586
54.795 3.274522
54.800 3.395509
54.805 3.561885
54.810 3.324453
54.815 3.530942
54.820 3.55034
54.825 3.511374
54.830 3.938708
54.835 4.023495
54.840 3.937269
54.845 4.027639
54.850 3.929954
54.855 4.015203
54.860 3.917342
54.865 3.531295
54.870 3.460662
54.875 3.472553
54.880 3.495127
54.885 3.362737
54.890 3.618017
54.895 3.730293
54.900 3.8763
54.905 3.946531
54.910 4.112478
54.915 4.039324
54.920 4.103589
54.925 4.004682
54.930 4.057307
54.935 4.172241
54.940 4.342471
54.945 4.062687
54.950 4.015918
54.955 4.058661
54.960 4.113661
54.965 3.954928
54.970 3.851232
54.975 3.782756
54.980 4.063725
54.985 4.117033
54.990 4.05127
54.995 3.924882
55.000 3.919941
55.005 3.537219
55.010 3.640493
55.015 3.49433
55.020 3.321388
55.025 3.179826
55.030 3.303769
55.035 3.404264
55.040 3.492774
55.045 3.026216
55.050 2.933293
55.055 3.139736
55.060 3.191491
55.065 3.093727
55.070 3.035745
55.075 3.045231
55.080 3.347181
55.085 3.211847
55.090 3.095813
55.095 3.140782
55.100 3.064761
55.105 3.25918
55.110 3.341036
55.115 3.16087
55.120 3.334035
55.125 3.319569
55.130 3.124462
55.135 3.126272
55.140 3.192567
55.145 3.264996
55.150 3.252474
55.155 3.17224
55.160 3.276997
55.165 3.457504
55.170 3.29766
55.175 3.152271
55.180 2.986305
55.185 3.12058
55.190 3.328883
55.195 3.322973
55.200 3.445506
55.205 3.579415
55.210 3.488563
55.215 3.655746
55.220 3.768935
55.225 3.440892
55.230 3.417599
55.235 3.238397
55.240 3.25582
55.245 3.234062
55.250 2.831886
55.255 2.759816
55.260 2.774461
55.265 2.558158
55.270 2.396864
55.275 2.335113
55.280 2.514167
55.285 2.705744
55.290 3.062227
55.295 3.419316
55.300 3.64379
55.305 3.977524
55.310 4.079625
55.315 4.0742
55.320 4.118268
55.325 3.797306
55.330 3.852276
55.335 3.779182
55.340 3.798601
55.345 3.608146
55.350 3.592759
55.355 3.576742
55.360 3.494114
55.365 3.281957
55.370 3.316766
55.375 3.233622
55.380 3.414744
55.385 3.435983
55.390 3.607266
55.395 3.800849
55.400 3.738089
55.405 3.935037
55.410 3.725095
55.415 3.507867
55.420 3.563963
55.425 3.014437
55.430 2.888697
55.435 2.85006
55.440 2.80074
55.445 3.061904
55.450 3.216667
55.455 3.228574
55.460 3.602504
55.465 3.780461
55.470 4.114504
55.475 4.291173
55.480 4.097987
55.485 4.23766
55.490 4.19799
55.495 4.507998
55.500 4.565119
55.505 4.427792
55.510 4.174594
55.515 4.099037
55.520 3.956018
55.525 3.835677
55.530 3.40151
55.535 3.237835
55.540 3.130244
55.545 3.145937
55.550 3.270116
55.555 3.583733
55.560 3.749864
55.565 3.691491
55.570 3.270984
55.575 3.197849
55.580 3.376007
55.585 3.417571
55.590 3.168611
55.595 3.248506
55.600 3.455243
55.605 3.60497
55.610 3.443677
55.615 3.152392
55.620 3.057225
55.625 2.830763
55.630 2.5916
55.635 2.625429
55.640 3.036099
55.645 3.331303
55.650 3.579383
55.655 3.553854
55.660 3.754649
55.665 3.845923
55.670 3.6856
55.675 3.54826
55.680 3.50957
55.685 3.598019
55.690 3.7301
55.695 3.991572
55.700 4.251056
55.705 4.358529
55.710 4.363923
55.715 4.355425
55.720 4.278045
55.725 4.186194
55.730 3.850176
55.735 3.663068
55.740 3.428568
55.745 3.449477
55.750 3.261528
55.755 3.376168
55.760 3.383688
55.765 3.623714
55.770 3.697494
55.775 3.762652
55.780 3.563376
55.785 3.390646
55.790 3.304847
55.795 3.028862
55.800 2.8089
55.805 3.002498
55.810 3.153913
55.815 3.557201
55.820 3.772452
55.825 3.823555
55.830 4.025837
55.835 4.480145
55.840 4.469641
55.845 4.425662
55.850 4.189099
55.855 4.228381
55.860 4.148253
55.865 3.976461
55.870 3.462433
55.875 3.411046
55.880 3.624744
55.885 3.910565
55.890 3.796939
55.895 3.531763
55.900 3.634255
55.905 3.672401
55.910 3.832265
55.915 3.700727
55.920 3.598604
55.925 3.630117
55.930 3.688261
55.935 3.720037
55.940 3.64554
55.945 3.730078
55.950 3.817571
55.955 4.064291
55.960 4.159193
55.965 4.216203
55.970 4.24683
55.975 4.180327
55.980 3.968444
55.985 3.649487
55.990 3.584498
55.995 3.585487
56.000 3.84777
56.005 4.061165
56.010 4.159645
56.015 3.924906
56.020 3.59044
56.025 3.574611
56.030 3.814783
56.035 3.726425
56.040 3.807075
56.045 3.763428
56.050 4.03257
56.055 4.525064
56.060 4.377369
56.065 3.868066
56.070 3.481845
56.075 3.163783
56.080 2.959664
56.085 2.901411
56.090 2.642658
56.095 2.592211
56.100 2.822961
56.105 2.880235
56.110 2.733702
56.115 2.645392
56.120 2.738507
56.125 2.986293
56.130 3.379957
56.135 3.623881
56.140 3.858594
56.145 4.254827
56.150 4.325837
56.155 4.056965
56.160 3.894694
56.165 3.427167
56.170 3.235844
56.175 3.356034
56.180 3.201571
56.185 3.523743
56.190 3.571041
56.195 3.808107
56.200 4.033016
56.205 4.149768
56.210 4.003614
56.215 4.115634
56.220 3.87485
56.225 3.907521
56.230 4.039037
56.235 4.154511
56.240 4.274294
56.245 4.557608
56.250 4.567887
56.255 4.314505
56.260 4.225632
56.265 3.94734
56.270 3.61567
56.275 3.293921
56.280 3.096073
56.285 3.296545
56.290 3.530156
56.295 3.408719
56.300 3.322028
56.305 3.312304
56.310 3.237015
56.315 2.889136
56.320 2.47363
56.325 2.398533
56.330 2.30818
56.335 2.183464
56.340 2.102745
56.345 2.1332
56.350 2.254575
56.355 2.439687
56.360 2.444451
56.365 2.475022
56.370 2.509081
56.375 2.612376
56.380 2.72504
56.385 2.923
56.390 3.010472
56.395 3.194751
56.400 3.47835
56.405 3.816848
56.410 3.894073
56.415 3.951457
56.420 4.11997
56.425 4.38036
56.430 4.44033
56.435 4.304472
56.440 4.184533
56.445 4.274478
56.450 4.129287
56.455 3.9138
56.460 3.598936
56.465 3.285216
56.470 3.332212
56.475 3.201232
56.480 3.081544
56.485 3.139702
56.490 3.331256
56.495 3.458144
56.500 3.516735
56.505 3.529091
56.510 3.779146
56.515 3.904583
56.520 3.809958
56.525 3.512673
56.530 3.705752
56.535 3.880971
56.540 3.778358
56.545 3.567066
56.550 3.453278
56.555 3.410542
56.560 3.382186
56.565 3.382465
56.570 3.427289
56.575 3.29267
56.580 3.272843
56.585 3.562353
56.590 3.810109
56.595 3.986448
56.600 3.834463
56.605 3.860014
56.610 4.103086
56.615 3.982852
56.620 3.892021
56.625 3.554804
56.630 3.277793
56.635 3.161076
56.640 3.015265
56.645 3.283485
56.650 3.38099
56.655 3.433865
56.660 3.352116
56.665 3.4941
56.670 3.458612
56.675 3.561251
56.680 3.207799
56.685 3.012802
56.690 2.883391
56.695 3.410586
56.700 3.5131
56.705 3.677846
56.710 3.701918
56.715 3.854104
56.720 3.983166
56.725 3.985669
56.730 3.89501
56.735 4.213932
56.740 3.795759
56.745 3.382948
56.750 3.375139
56.755 3.382037
56.760 3.38041
56.765 3.577099
56.770 3.364079
56.775 3.684667
56.780 3.752716
56.785 3.813198
56.790 3.935723
56.795 3.763444
56.800 3.374337
56.805 3.268398
56.810 3.439158
56.815 3.580415
56.820 3.63037
56.825 3.563192
56.830 3.594737
56.835 3.654027
56.840 3.749834
56.845 3.604172
56.850 3.675836
56.855 3.694425
56.860 3.528761
56.865 3.509114
56.870 3.707498
56.875 3.956442
56.880 3.77441
56.885 3.750492
56.890 3.593517
56.895 3.982568
56.900 4.232697
56.905 4.016665
56.910 3.896043
56.915 4.143218
56.920 4.061412
56.925 4.166756
56.930 4.093746
56.935 4.065477
56.940 4.066288
56.945 4.064746
56.950 3.778638
56.955 3.904043
56.960 4.007198
56.965 3.555072
56.970 3.541657
56.975 3.604388
56.980 3.534163
56.985 3.696632
56.990 3.767221
56.995 3.678871
57.000 3.783311
57.005 3.71544
57.010 3.594887
57.015 3.882347
57.020 3.906388
57.025 3.737577
57.030 3.66143
57.035 3.649588
57.040 3.641742
57.045 3.591311
57.050 3.47802
57.055 3.378761
57.060 3.375543
57.065 3.384538
57.070 3.691682
57.075 3.700009
57.080 3.750444
57.085 3.591419
57.090 3.553001
57.095 3.475098
57.100 3.615241
57.105 3.515157
57.110 3.723684
57.115 3.774426
57.120 3.892896
57.125 4.053407
57.130 4.291095
57.135 4.18622
57.140 3.942893
57.145 4.111926
57.150 4.131287
57.155 3.926647
57.160 3.795562
57.165 3.669759
57.170 4.143499
57.175 4.473186
57.180 4.004823
57.185 4.031719
57.190 3.978171
57.195 3.970496
57.200 3.995581
57.205 3.637146
57.210 3.777773
57.215 3.954185
57.220 4.043539
57.225 4.204523
57.230 4.247783
57.235 4.314063
57.240 4.119021
57.245 3.874363
57.250 3.862767
57.255 3.99599
57.260 4.08259
57.265 4.020587
57.270 3.94242
57.275 4.31818
57.280 4.460893
57.285 4.532331
57.290 4.298609
57.295 4.241917
57.300 4.251213
57.305 4.117792
57.310 3.966913
57.315 3.886859
57.320 3.862256
57.325 3.885511
57.330 4.187165
57.335 4.436632
57.340 4.765802
57.345 4.777216
57.350 4.818171
57.355 4.836337
57.360 4.773249
57.365 4.683973
57.370 4.588886
57.375 4.383756
57.380 4.208595
57.385 4.198595
57.390 4.306015
57.395 4.405155
57.400 4.052628
57.405 3.920697
57.410 3.938711
57.415 4.015626
57.420 3.654691
57.425 3.414923
57.430 3.232504
57.435 3.246292
57.440 3.148062
57.445 2.958114
57.450 3.127551
57.455 3.57248
57.460 3.67719
57.465 3.793947
57.470 3.81327
57.475 3.829267
57.480 3.908299
57.485 3.97842
57.490 3.734674
57.495 3.44571
57.500 3.373405
57.505 3.492926
57.510 3.446459
57.515 3.399368
57.520 3.017747
57.525 3.330257
57.530 3.527484
57.535 3.644612
57.540 3.583826
57.545 3.497674
57.550 3.728742
57.555 4.102926
57.560 3.840341
57.565 4.040805
57.570 4.015436
57.575 4.241287
57.580 4.189292
57.585 4.028152
57.590 3.884068
57.595 3.91485
57.600 3.857597
57.605 3.960083
57.610 4.160991
57.615 4.556421
57.620 4.708456
57.625 4.866625
57.630 5.195688
57.635 5.003007
57.640 4.945001
57.645 4.644837
57.650 4.25886
57.655 4.039361
57.660 3.881986
57.665 3.427059
57.670 3.54722
57.675 3.769164
57.680 3.968683
57.685 4.209547
57.690 4.373755
57.695 4.1806
57.700 4.441856
57.705 4.288638
57.710 4.28523
57.715 3.948833
57.720 3.755453
57.725 3.639924
57.730 3.797344
57.735 3.658906
57.740 3.545396
57.745 3.189359
57.750 3.227119
57.755 3.161223
57.760 3.231219
57.765 3.37491
57.770 3.381466
57.775 3.275709
57.780 3.476415
57.785 3.471819
57.790 3.49525
57.795 3.450921
57.800 3.624129
57.805 3.663002
57.810 3.940864
57.815 3.889606
57.820 4.005729
57.825 4.191591
57.830 3.789663
57.835 3.40597
57.840 3.468182
57.845 3.230432
57.850 3.16439
57.855 2.885338
57.860 2.863827
57.865 3.351459
57.870 3.425549
57.875 3.379604
57.880 3.728176
57.885 3.92111
57.890 4.191403
57.895 4.126312
57.900 3.970246
57.905 4.088774
57.910 4.143129
57.915 4.015923
57.920 3.93992
57.925 3.85211
57.930 4.063562
57.935 3.956994
57.940 3.845659
57.945 4.152222
57.950 4.261159
57.955 4.249667
57.960 4.317391
57.965 4.380219
57.970 4.430337
57.975 4.265198
57.980 3.920248
57.985 4.133634
57.990 4.153428
57.995 4.345436
58.000 4.329999
58.005 4.566745
58.010 4.838598
58.015 4.704055
58.020 4.571625
58.025 4.65296
58.030 4.446797
58.035 4.380785
58.040 4.324722
58.045 4.327865
58.050 4.342708
58.055 4.225417
58.060 4.190736
58.065 4.008985
58.070 4.106595
58.075 3.861537
58.080 3.66116
58.085 3.512926
58.090 3.530562
58.095 3.53031
58.100 3.618451
58.105 3.8625
58.110 4.408054
58.115 4.743819
58.120 4.945885
58.125 5.020182
58.130 5.151903
58.135 4.904593
58.140 4.450927
58.145 3.888541
58.150 3.638432
58.155 3.482667
58.160 3.147686
58.165 3.129213
58.170 3.286199
58.175 3.360505
58.180 3.627686
58.185 3.628657
58.190 3.692641
58.195 3.902016
58.200 3.728969
58.205 3.729969
58.210 3.579107
58.215 3.570731
58.220 3.479271
58.225 3.651703
58.230 3.654527
58.235 3.846383
58.240 3.700004
58.245 3.558253
58.250 3.601923
58.255 3.940674
58.260 3.534066
58.265 3.443063
58.270 3.493425
58.275 3.95998
58.280 4.493841
58.285 4.543326
58.290 4.202843
58.295 4.332828
58.300 4.235109
58.305 4.295829
58.310 4.221298
58.315 3.776783
58.320 3.631444
58.325 3.710137
58.330 3.818309
58.335 4.212556
58.340 3.8067
58.345 3.497737
58.350 3.678242
58.355 3.898417
58.360 4.343172
58.365 4.504187
58.370 4.443525
58.375 4.808846
58.380 4.893076
58.385 4.543314
58.390 4.420204
58.395 4.291797
58.400 4.34122
58.405 4.300262
58.410 4.169453
58.415 4.268979
58.420 4.62505
58.425 4.578327
58.430 4.132084
58.435 3.922092
58.440 3.969865
58.445 4.001372
58.450 3.893167
58.455 3.80306
58.460 3.977023
58.465 4.160281
58.470 4.187062
58.475 4.073113
58.480 4.106857
58.485 4.175446
58.490 4.352809
58.495 4.405003
58.500 4.523154
58.505 4.456332
58.510 4.495401
58.515 4.416098
58.520 4.461056
58.525 4.751618
58.530 4.791945
58.535 4.792482
58.540 5.041077
58.545 5.010576
58.550 5.043968
58.555 5.148917
58.560 5.255381
58.565 5.274018
58.570 5.307274
58.575 5.397959
58.580 5.621074
58.585 5.717855
58.590 5.476999
58.595 5.21532
58.600 5.036555
58.605 4.748564
58.610 4.551096
58.615 4.35763
58.620 4.250441
58.625 4.226435
58.630 4.207894
58.635 4.552381
58.640 4.674854
58.645 4.574588
58.650 4.660709
58.655 4.673474
58.660 4.871627
58.665 4.937391
58.670 4.598069
58.675 4.39114
58.680 4.494786
58.685 4.687853
58.690 4.809109
58.695 4.588112
58.700 4.081908
58.705 4.262681
58.710 4.687006
58.715 4.731297
58.720 4.521172
58.725 4.45291
58.730 4.323235
58.735 4.628494
58.740 4.484071
58.745 4.024902
58.750 4.000886
58.755 4.032183
58.760 4.010993
58.765 3.845198
