!@!!GADDS PLOTSO FILE: Chi integration type
!@!!Title/SampleName: map-168
!@!!Comment: ?
!@!!User: Bruker Instrument Administrator
!@!!Site: University of Illinois Chicago
!@!!Frame: map-168_01_000.gfrm
!@!!Wavelengths    1.54184   1.54056   1.54439
!@!!Frame angles: 2Theta: 63.000 Omega: 50.000 Phi: 0.000 Chi: 90.000
!@!!Integration range: 2Theta: 53.000 to 73.000  Gamma: -105.000 to -75.000
!@!!Integration method: bin normalized
!@!N
!@!SS
!@!M
!@!L 0.0 0.0 0.0 0.0
!@!XDegrees
!@!YCounts
53.000 3.81079
53.005 3.363868
53.010 3.415821
53.015 3.208154
53.020 3.483421
53.025 3.349263
53.030 3.244547
53.035 3.349485
53.040 3.431952
53.045 3.671048
53.050 3.648709
53.055 3.358778
53.060 3.172045
53.065 3.269377
53.070 3.378448
53.075 3.386493
53.080 3.147711
53.085 3.175426
53.090 3.186812
53.095 3.248867
53.100 3.197359
53.105 3.239502
53.110 2.989663
53.115 3.072331
53.120 3.059266
53.125 3.362451
53.130 3.36311
53.135 3.42086
53.140 3.616639
53.145 3.889962
53.150 4.006629
53.155 4.058838
53.160 3.792942
53.165 3.684343
53.170 3.661686
53.175 3.624691
53.180 3.885104
53.185 3.94173
53.190 3.826897
53.195 3.828207
53.200 3.797167
53.205 3.927659
53.210 3.672289
53.215 3.374746
53.220 3.346042
53.225 3.72587
53.230 3.919108
53.235 3.73396
53.240 3.691248
53.245 3.726251
53.250 3.712245
53.255 3.69911
53.260 3.750558
53.265 3.65001
53.270 3.524662
53.275 3.436392
53.280 3.77721
53.285 3.981738
53.290 3.706815
53.295 3.463029
53.300 3.777484
53.305 3.833328
53.310 3.787286
53.315 3.456125
53.320 3.233938
53.325 3.408714
53.330 3.351782
53.335 3.268205
53.340 3.360931
53.345 3.290229
53.350 3.341268
53.355 3.33329
53.360 3.092203
53.365 2.913596
53.370 2.917937
53.375 3.036575
53.380 3.288544
53.385 3.268582
53.390 3.38526
53.395 3.716968
53.400 3.936353
53.405 3.731477
53.410 3.570846
53.415 3.301104
53.420 3.366993
53.425 3.486025
53.430 3.779694
53.435 3.829262
53.440 3.971127
53.445 3.956716
53.450 3.889363
53.455 3.981418
53.460 4.070308
53.465 3.802891
53.470 3.644208
53.475 3.672083
53.480 3.908302
53.485 4.144167
53.490 4.303378
53.495 4.065484
53.500 3.96558
53.505 3.851969
53.510 3.552854
53.515 3.279413
53.520 3.368824
53.525 2.945207
53.530 3.130762
53.535 3.322221
53.540 3.526488
53.545 3.535791
53.550 3.515084
53.555 3.226202
53.560 3.175195
53.565 3.298473
53.570 3.300714
53.575 3.523122
53.580 3.645383
53.585 3.730538
53.590 3.829005
53.595 3.675609
53.600 3.431802
53.605 3.455024
53.610 3.369009
53.615 3.308943
53.620 3.234225
53.625 3.268458
53.630 3.437263
53.635 3.505449
53.640 3.785656
53.645 3.835952
53.650 3.759154
53.655 3.807577
53.660 3.76521
53.665 3.897766
53.670 3.752385
53.675 3.525707
53.680 3.515805
53.685 3.526216
53.690 3.576862
53.695 3.356235
53.700 3.030584
53.705 2.813244
53.710 2.667516
53.715 2.83014
53.720 3.157356
53.725 3.3774
53.730 3.641787
53.735 3.763973
53.740 3.910425
53.745 3.932066
53.750 3.891927
53.755 3.741328
53.760 3.616252
53.765 3.849634
53.770 3.982534
53.775 3.816292
53.780 3.821443
53.785 3.873989
53.790 3.830202
53.795 3.646898
53.800 3.558657
53.805 3.67572
53.810 4.03068
53.815 3.862438
53.820 3.419409
53.825 3.185299
53.830 2.992159
53.835 2.613845
53.840 2.566936
53.845 2.355725
53.850 2.578699
53.855 2.952541
53.860 3.331566
53.865 3.696689
53.870 4.160423
53.875 4.142587
53.880 4.132533
53.885 3.992051
53.890 3.973662
53.895 3.973038
53.900 3.847232
53.905 3.694773
53.910 3.740902
53.915 3.897888
53.920 4.198862
53.925 4.167719
53.930 4.396914
53.935 4.32585
53.940 4.412206
53.945 4.483896
53.950 4.611067
53.955 4.347223
53.960 4.188245
53.965 3.724744
53.970 3.571443
53.975 3.595745
53.980 3.485654
53.985 3.206641
53.990 3.191836
53.995 3.510249
54.000 3.989541
54.005 4.139753
54.010 3.88302
54.015 3.839346
54.020 3.975815
54.025 4.214785
54.030 4.088331
54.035 3.934179
54.040 3.850795
54.045 4.004774
54.050 3.922016
54.055 3.818387
54.060 3.783647
54.065 3.698752
54.070 3.663331
54.075 3.551303
54.080 3.682958
54.085 3.718663
54.090 3.635462
54.095 3.620967
54.100 3.717227
54.105 3.863556
54.110 3.878394
54.115 3.654194
54.120 3.657378
54.125 3.576789
54.130 3.549419
54.135 3.685811
54.140 3.486275
54.145 3.67571
54.150 3.738759
54.155 3.625496
54.160 3.711545
54.165 3.632499
54.170 3.520657
54.175 3.46057
54.180 3.404672
54.185 3.558518
54.190 3.7407
54.195 3.590138
54.200 3.609081
54.205 3.584367
54.210 3.554967
54.215 3.457915
54.220 3.595732
54.225 3.601381
54.230 3.421353
54.235 3.378543
54.240 3.276421
54.245 3.624767
54.250 3.751609
54.255 3.51295
54.260 3.45562
54.265 3.767431
54.270 3.85244
54.275 3.862944
54.280 3.621872
54.285 3.142383
54.290 3.413077
54.295 3.790581
54.300 3.798028
54.305 3.815171
54.310 3.667262
54.315 3.853427
54.320 4.418474
54.325 4.314186
54.330 3.999135
54.335 3.976938
54.340 4.361379
54.345 4.45565
54.350 4.099744
54.355 3.618762
54.360 3.434241
54.365 3.397483
54.370 3.390603
54.375 3.241065
54.380 3.329261
54.385 3.610647
54.390 3.648564
54.395 3.583633
54.400 3.616853
54.405 3.196459
54.410 3.250347
54.415 3.398168
54.420 3.578311
54.425 3.731287
54.430 3.879694
54.435 4.15684
54.440 4.174731
54.445 3.880904
54.450 3.652117
54.455 3.6662
54.460 3.631295
54.465 3.495318
54.470 3.149081
54.475 3.240296
54.480 3.318611
54.485 3.131118
54.490 2.93948
54.495 2.987476
54.500 3.182184
54.505 3.083993
54.510 3.051347
54.515 3.208981
54.520 3.169414
54.525 3.077683
54.530 2.988659
54.535 2.760172
54.540 3.051634
54.545 3.074372
54.550 3.179143
54.555 3.41927
54.560 3.465989
54.565 3.497877
54.570 3.816869
54.575 3.762521
54.580 3.648994
54.585 3.285577
54.590 3.258189
54.595 3.284358
54.600 3.374698
54.605 3.271995
54.610 3.031903
54.615 3.110491
54.620 3.130563
54.625 2.978183
54.630 2.997627
54.635 2.900747
54.640 3.005561
54.645 3.549762
54.650 3.458529
54.655 3.557836
54.660 3.61207
54.665 3.730807
54.670 3.453501
54.675 3.161786
54.680 3.185565
54.685 3.573275
54.690 3.628703
54.695 3.88974
54.700 3.928446
54.705 4.025186
54.710 3.844694
54.715 3.712014
54.720 3.769116
54.725 3.771291
54.730 3.471545
54.735 3.527468
54.740 3.892138
54.745 4.155731
54.750 4.235981
54.755 4.038836
54.760 3.984742
54.765 3.979579
54.770 4.118963
54.775 3.960338
54.780 3.763752
54.785 3.862618
54.790 3.760753
54.795 3.837617
54.800 3.669397
54.805 3.468839
54.810 3.252703
54.815 3.147299
54.820 3.294258
54.825 3.374558
54.830 3.431551
54.835 3.523496
54.840 3.276598
54.845 3.493546
54.850 3.437759
54.855 3.284471
54.860 3.339695
54.865 3.31165
54.870 3.316466
54.875 3.455522
54.880 3.452329
54.885 3.236292
54.890 3.216957
54.895 3.198138
54.900 3.00181
54.905 3.03514
54.910 2.91761
54.915 3.072201
54.920 3.511639
54.925 3.722999
54.930 3.868011
54.935 4.22808
54.940 4.377054
54.945 4.385552
54.950 4.103203
54.955 3.652965
54.960 3.343847
54.965 3.188959
54.970 2.943387
54.975 2.850165
54.980 3.065227
54.985 3.249435
54.990 3.454899
54.995 3.409606
55.000 3.427593
55.005 3.598991
55.010 3.657616
55.015 3.339339
55.020 3.06144
55.025 2.968333
55.030 3.168813
55.035 3.243406
55.040 3.064561
55.045 2.823612
55.050 3.000217
55.055 3.207904
55.060 3.283001
55.065 3.0801
55.070 2.833312
55.075 2.954623
55.080 3.284168
55.085 3.22758
55.090 3.138108
55.095 2.967686
55.100 3.200785
55.105 3.68355
55.110 3.572825
55.115 3.715578
55.120 3.631272
55.125 3.819155
55.130 4.2976
55.135 3.915016
55.140 3.800149
55.145 3.540288
55.150 3.408486
55.155 3.516879
55.160 3.514141
55.165 3.327467
55.170 3.520713
55.175 3.74747
55.180 4.013176
55.185 4.237418
55.190 4.497084
55.195 4.323023
55.200 4.302073
55.205 4.164813
55.210 4.006713
55.215 3.881592
55.220 3.716954
55.225 3.338113
55.230 3.28953
55.235 3.353703
55.240 3.546901
55.245 3.646335
55.250 3.665369
55.255 3.355513
55.260 3.264042
55.265 3.363393
55.270 3.373874
55.275 3.279871
55.280 3.287498
55.285 3.729424
55.290 4.179728
55.295 4.292732
55.300 4.289976
55.305 4.162973
55.310 4.207755
55.315 4.269994
55.320 3.998958
55.325 4.005511
55.330 4.29103
55.335 4.351836
55.340 4.629311
55.345 4.412802
55.350 4.445218
55.355 4.66841
55.360 4.542302
55.365 4.256827
55.370 3.989107
55.375 3.629011
55.380 3.574778
55.385 3.210065
55.390 2.895453
55.395 3.114902
55.400 3.182776
55.405 3.483898
55.410 3.767997
55.415 4.050817
55.420 4.210548
55.425 4.372244
55.430 4.467141
55.435 4.523294
55.440 4.856494
55.445 4.922034
55.450 4.717515
55.455 4.535023
55.460 4.344205
55.465 4.142949
55.470 4.022573
55.475 3.693171
55.480 3.671659
55.485 3.704774
55.490 3.881537
55.495 3.608449
55.500 3.706043
55.505 3.709858
55.510 3.656627
55.515 3.640231
55.520 3.575963
55.525 3.437431
55.530 3.549623
55.535 3.428198
55.540 3.498834
55.545 3.246198
55.550 3.049044
55.555 2.985621
55.560 3.091474
55.565 3.192808
55.570 3.123722
55.575 3.148567
55.580 3.524927
55.585 3.859379
55.590 4.29611
55.595 4.06392
55.600 3.919534
55.605 3.950998
55.610 3.914998
55.615 3.973932
55.620 4.004735
55.625 3.857938
55.630 3.96603
55.635 4.139839
55.640 4.395281
55.645 4.508177
55.650 4.416233
55.655 4.383227
55.660 4.556353
55.665 4.628741
55.670 4.519739
55.675 4.345715
55.680 4.166778
55.685 4.072178
55.690 3.961698
55.695 4.027151
55.700 4.127898
55.705 4.061992
55.710 4.257109
55.715 4.369706
55.720 4.519425
55.725 4.388671
55.730 4.078752
55.735 3.908774
55.740 3.709902
55.745 3.636569
55.750 3.689744
55.755 3.429568
55.760 3.369775
55.765 3.349954
55.770 3.533289
55.775 3.484357
55.780 3.236498
55.785 3.141116
55.790 3.238252
55.795 3.532263
55.800 3.455473
55.805 3.497393
55.810 3.68091
55.815 3.846888
55.820 3.880645
55.825 3.70374
55.830 3.814375
55.835 4.051108
55.840 4.155783
55.845 4.46593
55.850 4.452383
55.855 4.511334
55.860 4.441765
55.865 4.036785
55.870 4.016501
55.875 3.806038
55.880 3.423587
55.885 3.396886
55.890 3.360116
55.895 3.508021
55.900 3.68104
55.905 3.882037
55.910 4.142437
55.915 4.253624
55.920 4.149373
55.925 4.238413
55.930 4.615307
55.935 4.746573
55.940 4.520485
55.945 4.548065
55.950 4.32752
55.955 4.615296
55.960 4.480819
55.965 4.138416
55.970 4.350588
55.975 4.447485
55.980 4.621723
55.985 4.795648
55.990 4.577528
55.995 4.986136
56.000 5.261084
56.005 5.006586
56.010 4.954209
56.015 4.89987
56.020 4.939103
56.025 4.962961
56.030 4.752018
56.035 4.772061
56.040 4.893829
56.045 4.59903
56.050 4.561585
56.055 4.44527
56.060 4.388217
56.065 4.277749
56.070 4.068311
56.075 4.100778
56.080 4.295781
56.085 4.252372
56.090 4.490697
56.095 4.6276
56.100 4.588245
56.105 4.460182
56.110 4.344268
56.115 4.468585
56.120 4.746894
56.125 4.790229
56.130 4.797849
56.135 4.878098
56.140 5.124619
56.145 4.976826
56.150 4.704902
56.155 4.309086
56.160 4.283542
56.165 4.251499
56.170 4.155286
56.175 3.973044
56.180 3.81196
56.185 3.70102
56.190 3.636162
56.195 3.269803
56.200 3.140553
56.205 3.017971
56.210 2.982803
56.215 2.966429
56.220 3.226667
56.225 3.337607
56.230 3.828458
56.235 4.044735
56.240 4.327136
56.245 4.688218
56.250 4.668072
56.255 4.351633
56.260 4.445439
56.265 4.201041
56.270 4.006826
56.275 3.84856
56.280 3.705648
56.285 4.215539
56.290 4.235416
56.295 4.144746
56.300 4.205225
56.305 4.166286
56.310 4.036932
56.315 4.031896
56.320 3.977733
56.325 3.936933
56.330 4.025175
56.335 4.561828
56.340 4.764104
56.345 4.796541
56.350 4.784707
56.355 4.687335
56.360 4.820318
56.365 4.466833
56.370 3.952334
56.375 4.059383
56.380 4.059296
56.385 4.195936
56.390 4.200225
56.395 4.105827
56.400 4.243297
56.405 4.152456
56.410 3.980966
56.415 3.680121
56.420 3.895651
56.425 3.891591
56.430 3.808789
56.435 3.728106
56.440 3.756811
56.445 3.554347
56.450 3.616559
56.455 3.698497
56.460 3.948351
56.465 4.115324
56.470 4.026639
56.475 4.01033
56.480 4.427763
56.485 4.357152
56.490 3.932812
56.495 3.732775
56.500 3.790468
56.505 4.13052
56.510 4.042835
56.515 3.783949
56.520 3.840204
56.525 4.058712
56.530 3.926275
56.535 3.653744
56.540 3.661187
56.545 4.077856
56.550 4.229323
56.555 4.405898
56.560 4.450092
56.565 4.641062
56.570 4.695602
56.575 4.604096
56.580 4.562114
56.585 4.502501
56.590 4.128063
56.595 3.667208
56.600 3.611813
56.605 3.631634
56.610 3.579709
56.615 3.543539
56.620 3.429043
56.625 3.60787
56.630 3.927594
56.635 3.916651
56.640 4.07743
56.645 4.249069
56.650 4.186156
56.655 4.30844
56.660 4.715745
56.665 4.526971
56.670 4.618103
56.675 4.431473
56.680 4.691808
56.685 4.953982
56.690 5.21515
56.695 4.987351
56.700 5.25476
56.705 5.371625
56.710 5.172923
56.715 4.925742
56.720 4.69844
56.725 4.35292
56.730 4.408136
56.735 4.345823
56.740 4.181512
56.745 4.377008
56.750 4.362619
56.755 4.404117
56.760 4.428368
56.765 4.137529
56.770 4.056672
56.775 4.237188
56.780 4.208859
56.785 4.002131
56.790 3.926534
56.795 3.971786
56.800 4.328932
56.805 4.733593
56.810 4.647271
56.815 4.635958
56.820 4.734108
56.825 4.733695
56.830 4.813909
56.835 4.577038
56.840 4.342567
56.845 4.121071
56.850 4.19884
56.855 4.297599
56.860 4.408183
56.865 4.540385
56.870 4.605892
56.875 4.770011
56.880 4.979928
56.885 4.814712
56.890 4.750771
56.895 4.54178
56.900 4.257177
56.905 3.895934
56.910 3.601788
56.915 3.391284
56.920 3.590824
56.925 3.818973
56.930 4.187865
56.935 4.327866
56.940 4.510822
56.945 4.948793
56.950 5.184709
56.955 5.20162
56.960 5.030567
56.965 4.675558
56.970 4.809053
56.975 5.084612
56.980 4.843755
56.985 4.771482
56.990 4.550473
56.995 4.544713
57.000 4.518772
57.005 4.635116
57.010 4.622141
57.015 4.453384
57.020 4.237108
57.025 4.030365
57.030 3.913633
57.035 4.037124
57.040 3.65711
57.045 3.475319
57.050 3.769488
57.055 4.00274
57.060 4.511331
57.065 4.914892
57.070 5.009882
57.075 5.586361
57.080 5.337256
57.085 5.092674
57.090 4.787761
57.095 4.555939
57.100 4.439802
57.105 4.298079
57.110 4.134324
57.115 4.601789
57.120 4.490877
57.125 4.494825
57.130 4.263412
57.135 4.162345
57.140 4.132733
57.145 4.074431
57.150 4.127354
57.155 4.311122
57.160 4.454662
57.165 5.036294
57.170 5.233807
57.175 5.318416
57.180 5.163647
57.185 4.960609
57.190 5.086736
57.195 5.198293
57.200 4.785832
57.205 4.637772
57.210 4.170108
57.215 3.809174
57.220 3.862271
57.225 3.921532
57.230 3.706162
57.235 3.546224
57.240 3.498494
57.245 3.680917
57.250 3.678639
57.255 3.230051
57.260 2.951051
57.265 3.006349
57.270 2.87024
57.275 2.633062
57.280 2.525003
57.285 2.659656
57.290 2.804979
57.295 2.923607
57.300 3.143141
57.305 3.360408
57.310 3.795758
57.315 4.194818
57.320 4.382719
57.325 4.680198
57.330 4.684624
57.335 4.700532
57.340 4.782265
57.345 4.667162
57.350 4.914493
57.355 4.880916
57.360 5.096039
57.365 5.205099
57.370 4.880139
57.375 4.674716
57.380 4.853617
57.385 4.879603
57.390 4.826648
57.395 4.288423
57.400 4.18846
57.405 4.763401
57.410 4.975816
57.415 4.507447
57.420 4.371431
57.425 4.84164
57.430 5.019337
57.435 4.777288
57.440 4.288879
57.445 4.233256
57.450 4.261791
57.455 4.006949
57.460 3.767443
57.465 3.894809
57.470 4.173331
57.475 4.018823
57.480 4.07229
57.485 4.250978
57.490 4.308502
57.495 4.130511
57.500 3.887433
57.505 3.621398
57.510 3.87321
57.515 3.79318
57.520 3.600188
57.525 3.641175
57.530 3.884073
57.535 4.155675
57.540 4.477579
57.545 4.401066
57.550 4.488353
57.555 4.541141
57.560 4.610427
57.565 4.420684
57.570 4.269242
57.575 4.359184
57.580 4.500269
57.585 4.64032
57.590 4.828933
57.595 4.567417
57.600 4.752904
57.605 4.666373
57.610 4.383464
57.615 4.243885
57.620 4.021378
57.625 3.666104
57.630 3.736968
57.635 3.483153
57.640 3.540698
57.645 3.562177
57.650 3.516732
57.655 3.731993
57.660 3.97946
57.665 4.024367
57.670 4.129349
57.675 4.213386
57.680 4.56015
57.685 4.63522
57.690 4.706931
57.695 5.187477
57.700 5.182024
57.705 5.240449
57.710 5.261999
57.715 5.167464
57.720 5.351771
57.725 5.080023
57.730 4.464324
57.735 4.716989
57.740 4.709853
57.745 4.686589
57.750 4.603454
57.755 4.350532
57.760 4.530693
57.765 4.856564
57.770 4.538833
57.775 4.520531
57.780 4.302344
57.785 4.423987
57.790 4.633959
57.795 4.568427
57.800 4.602633
57.805 4.687679
57.810 4.691148
57.815 4.91991
57.820 4.945514
57.825 4.94419
57.830 4.986226
57.835 4.901742
57.840 4.890902
57.845 4.829748
57.850 4.89713
57.855 5.152926
57.860 5.027762
57.865 4.82223
57.870 4.492584
57.875 4.713701
57.880 4.900323
57.885 4.787193
57.890 4.426433
57.895 4.514282
57.900 4.642466
57.905 4.914188
57.910 4.893545
57.915 4.628653
57.920 4.420403
57.925 4.512197
57.930 4.564544
57.935 4.511522
57.940 4.453211
57.945 4.172947
57.950 4.260071
57.955 4.440974
57.960 4.378154
57.965 4.432996
57.970 4.483901
57.975 4.315142
57.980 4.437876
57.985 4.362954
57.990 4.477714
57.995 4.597397
58.000 4.425087
58.005 4.472041
58.010 4.675918
58.015 5.047052
58.020 5.443501
58.025 5.264878
58.030 5.233326
58.035 5.24249
58.040 5.180591
58.045 4.934426
58.050 4.904712
58.055 4.879771
58.060 4.835342
58.065 4.614407
58.070 4.624338
58.075 4.474811
58.080 4.598748
58.085 4.320041
58.090 4.234507
58.095 4.43322
58.100 4.34294
58.105 4.774079
58.110 5.063359
58.115 4.966161
58.120 4.842268
58.125 4.651876
58.130 4.459075
58.135 4.652446
58.140 4.320656
58.145 4.281402
58.150 4.254205
58.155 4.662831
58.160 4.778474
58.165 4.977098
58.170 4.916893
58.175 5.032954
58.180 4.983721
58.185 5.522084
58.190 5.31964
58.195 5.067311
58.200 4.942338
58.205 4.959707
58.210 4.915069
58.215 5.129123
58.220 4.690371
58.225 4.791217
58.230 4.934261
58.235 4.82321
58.240 4.664492
58.245 4.31896
58.250 4.247023
58.255 4.253763
58.260 3.939843
58.265 4.00719
58.270 4.267129
58.275 4.536951
58.280 4.707698
58.285 4.636782
58.290 4.513709
58.295 4.702034
58.300 4.789108
58.305 4.589453
58.310 4.517849
58.315 4.383374
58.320 4.377701
58.325 4.329581
58.330 4.092285
58.335 3.829496
58.340 3.697805
58.345 3.845105
58.350 3.820507
58.355 3.849082
58.360 4.257239
58.365 4.677263
58.370 4.968504
58.375 5.124287
58.380 4.950792
58.385 4.902672
58.390 4.845225
58.395 4.509403
58.400 4.367853
58.405 4.308827
58.410 4.319497
58.415 4.350053
58.420 4.749737
58.425 4.624979
58.430 4.534512
58.435 4.42924
58.440 4.479459
58.445 4.53163
58.450 4.632691
58.455 4.418181
58.460 4.426172
58.465 4.188264
58.470 4.165444
58.475 4.279217
58.480 4.504031
58.485 4.543651
58.490 5.003019
58.495 5.427158
58.500 5.600935
58.505 5.51529
58.510 5.444095
58.515 5.114813
58.520 4.99037
58.525 4.437693
58.530 4.670096
58.535 4.837526
58.540 4.726222
58.545 4.381172
58.550 4.379047
58.555 4.613047
58.560 4.744525
58.565 4.590495
58.570 4.726192
58.575 4.996946
58.580 5.580453
58.585 5.69721
58.590 5.34609
58.595 5.489097
58.600 5.505918
58.605 5.310296
58.610 5.089815
58.615 4.71373
58.620 4.971871
58.625 5.249704
58.630 5.051342
58.635 4.860217
58.640 5.068172
58.645 5.120502
58.650 4.987123
58.655 4.78624
58.660 4.557094
58.665 4.573493
58.670 4.515368
58.675 4.359306
58.680 4.342517
58.685 4.616518
58.690 4.62203
58.695 4.901122
58.700 4.66597
58.705 4.823643
58.710 4.931849
58.715 4.684307
58.720 4.498345
58.725 4.568259
58.730 4.615197
58.735 4.854007
58.740 4.753016
58.745 4.808156
58.750 5.162673
58.755 5.282787
58.760 5.363775
