!@!!GADDS PLOTSO FILE: Chi integration type
!@!!Title/SampleName: map-33
!@!!Comment: ?
!@!!User: Bruker Instrument Administrator
!@!!Site: University of Illinois Chicago
!@!!Frame: map-33_01_000.gfrm
!@!!Wavelengths    1.54184   1.54056   1.54439
!@!!Frame angles: 2Theta: 63.000 Omega: 50.000 Phi: 0.000 Chi: 90.000
!@!!Integration range: 2Theta: 53.000 to 73.000  Gamma: -105.000 to -75.000
!@!!Integration method: bin normalized
!@!N
!@!SS
!@!M
!@!L 0.0 0.0 0.0 0.0
!@!XDegrees
!@!YCounts
53.000 8.952901
53.005 8.644673
53.010 7.909303
53.015 7.625078
53.020 8.164312
53.025 9.083851
53.030 9.518595
53.035 9.713357
53.040 10.080504
53.045 10.424948
53.050 11.135715
53.055 11.376827
53.060 11.345665
53.065 11.242945
53.070 10.763754
53.075 10.68972
53.080 11.140408
53.085 11.058836
53.090 10.702333
53.095 10.598728
53.100 10.569054
53.105 10.869371
53.110 11.077465
53.115 10.569556
53.120 10.289054
53.125 10.468062
53.130 10.617891
53.135 11.07798
53.140 10.746617
53.145 10.542376
53.150 10.707107
53.155 10.587088
53.160 10.682819
53.165 11.026487
53.170 11.252901
53.175 11.308126
53.180 11.291151
53.185 11.194382
53.190 10.799274
53.195 10.137427
53.200 9.571156
53.205 9.336985
53.210 9.568844
53.215 9.752095
53.220 9.634894
53.225 9.917752
53.230 10.359811
53.235 10.621554
53.240 10.725941
53.245 10.606915
53.250 10.662267
53.255 11.045004
53.260 10.988407
53.265 10.855556
53.270 10.904131
53.275 10.960079
53.280 11.129892
53.285 11.173035
53.290 10.980239
53.295 11.150194
53.300 11.327288
53.305 11.155711
53.310 10.546832
53.315 10.576484
53.320 10.767163
53.325 10.894329
53.330 10.768025
53.335 10.499612
53.340 10.873158
53.345 11.122147
53.350 10.865191
53.355 10.7532
53.360 10.559895
53.365 10.409993
53.370 10.619514
53.375 10.471199
53.380 10.507675
53.385 10.690597
53.390 10.527099
53.395 10.560092
53.400 10.709845
53.405 10.205813
53.410 10.058019
53.415 10.259678
53.420 10.031339
53.425 10.650168
53.430 10.745753
53.435 10.871854
53.440 11.266104
53.445 11.706463
53.450 12.05142
53.455 12.267143
53.460 12.080051
53.465 12.112123
53.470 11.987292
53.475 11.616448
53.480 11.050359
53.485 10.616405
53.490 10.215878
53.495 10.123895
53.500 9.9176
53.505 10.046088
53.510 10.110674
53.515 9.949303
53.520 9.595382
53.525 9.783224
53.530 9.924032
53.535 10.376186
53.540 10.873057
53.545 11.117532
53.550 11.336658
53.555 11.815382
53.560 11.827077
53.565 11.461547
53.570 11.079958
53.575 10.849164
53.580 10.823342
53.585 10.723787
53.590 10.594659
53.595 10.387697
53.600 10.638146
53.605 10.816344
53.610 10.913253
53.615 11.148076
53.620 11.256883
53.625 11.699178
53.630 11.775362
53.635 11.334002
53.640 11.167129
53.645 10.897934
53.650 10.772106
53.655 10.483661
53.660 10.308571
53.665 10.639044
53.670 10.54099
53.675 10.601166
53.680 10.742002
53.685 11.132041
53.690 11.892181
53.695 12.229948
53.700 12.2306
53.705 12.574316
53.710 12.49593
53.715 12.111548
53.720 11.377729
53.725 10.840655
53.730 10.554749
53.735 10.90991
53.740 11.220874
53.745 11.56088
53.750 12.05669
53.755 12.532958
53.760 12.323372
53.765 12.337317
53.770 12.368541
53.775 12.071818
53.780 11.953598
53.785 11.808685
53.790 11.611914
53.795 11.643932
53.800 11.547071
53.805 11.424699
53.810 11.360389
53.815 11.204472
53.820 10.908608
53.825 11.028905
53.830 11.36247
53.835 11.396091
53.840 11.080249
53.845 10.863911
53.850 10.988968
53.855 10.913297
53.860 10.454813
53.865 10.083642
53.870 9.77218
53.875 10.192132
53.880 10.174353
53.885 10.009453
53.890 10.078096
53.895 9.947561
53.900 10.226625
53.905 10.181653
53.910 10.192187
53.915 10.708467
53.920 10.968626
53.925 11.151223
53.930 11.38166
53.935 11.240001
53.940 11.726077
53.945 11.981804
53.950 11.717138
53.955 11.78358
53.960 12.151785
53.965 12.673685
53.970 12.093915
53.975 11.482244
53.980 11.537429
53.985 11.570513
53.990 11.256744
53.995 10.259907
54.000 9.559212
54.005 10.253487
54.010 10.65696
54.015 10.712888
54.020 10.976071
54.025 11.406149
54.030 12.107725
54.035 12.862478
54.040 12.683576
54.045 12.106119
54.050 11.831676
54.055 11.551614
54.060 11.773582
54.065 11.191339
54.070 10.475869
54.075 10.543169
54.080 10.749965
54.085 10.956979
54.090 11.095675
54.095 11.362328
54.100 11.818845
54.105 11.710867
54.110 11.810958
54.115 12.33563
54.120 12.487856
54.125 12.365042
54.130 12.033649
54.135 11.788455
54.140 11.914449
54.145 11.450925
54.150 10.489435
54.155 10.266891
54.160 10.314671
54.165 10.464428
54.170 10.674351
54.175 11.02072
54.180 11.413893
54.185 11.810199
54.190 11.573789
54.195 11.263163
54.200 11.851135
54.205 11.709044
54.210 11.126216
54.215 10.534807
54.220 10.450664
54.225 10.88889
54.230 11.378239
54.235 11.289681
54.240 11.447086
54.245 11.980237
54.250 12.183645
54.255 12.597472
54.260 12.460384
54.265 11.595548
54.270 11.147261
54.275 11.206902
54.280 11.096375
54.285 11.182267
54.290 10.993542
54.295 11.086823
54.300 11.897757
54.305 12.444461
54.310 12.511914
54.315 12.365859
54.320 12.227312
54.325 12.188334
54.330 12.239959
54.335 12.144705
54.340 11.519582
54.345 11.618282
54.350 11.471653
54.355 11.139545
54.360 11.080616
54.365 10.945914
54.370 10.872665
54.375 11.315994
54.380 11.61622
54.385 11.859242
54.390 11.656549
54.395 11.507753
54.400 11.73993
54.405 11.697598
54.410 11.780865
54.415 11.433704
54.420 11.783597
54.425 12.37342
54.430 12.334575
54.435 11.651379
54.440 11.497641
54.445 11.876858
54.450 12.326634
54.455 12.297697
54.460 12.031766
54.465 12.340756
54.470 12.670753
54.475 12.71201
54.480 12.334437
54.485 12.330238
54.490 12.199533
54.495 12.065471
54.500 11.736079
54.505 11.522799
54.510 11.076572
54.515 10.649138
54.520 10.179247
54.525 10.524515
54.530 10.647499
54.535 10.861909
54.540 10.981535
54.545 11.201291
54.550 11.498811
54.555 11.307823
54.560 11.350683
54.565 11.186378
54.570 11.523803
54.575 11.497461
54.580 11.624357
54.585 11.661577
54.590 11.590454
54.595 11.770766
54.600 12.187143
54.605 11.774839
54.610 11.597763
54.615 11.355059
54.620 11.592822
54.625 11.404499
54.630 11.394547
54.635 11.308401
54.640 11.029565
54.645 10.972769
54.650 10.979367
54.655 10.966988
54.660 11.371176
54.665 11.443714
54.670 11.495795
54.675 12.122733
54.680 12.536345
54.685 12.193161
54.690 12.191869
54.695 11.899668
54.700 11.413725
54.705 11.274703
54.710 11.094026
54.715 11.055636
54.720 11.537049
54.725 11.483235
54.730 11.584245
54.735 11.753133
54.740 12.059414
54.745 11.969924
54.750 12.044805
54.755 11.394949
54.760 11.445882
54.765 11.228285
54.770 11.133842
54.775 11.246133
54.780 11.638758
54.785 12.135326
54.790 12.824152
54.795 12.900605
54.800 12.805268
54.805 12.622955
54.810 12.321429
54.815 12.015018
54.820 11.825295
54.825 11.285789
54.830 11.507763
54.835 12.449142
54.840 12.710274
54.845 13.104418
54.850 12.62797
54.855 12.306396
54.860 12.286119
54.865 11.953691
54.870 11.492239
54.875 11.918197
54.880 12.023477
54.885 12.362431
54.890 12.40156
54.895 12.139247
54.900 11.891001
54.905 11.686614
54.910 11.726615
54.915 12.294271
54.920 12.434818
54.925 12.578277
54.930 12.660586
54.935 12.800655
54.940 12.607907
54.945 12.163659
54.950 11.872049
54.955 11.813726
54.960 12.138511
54.965 12.401012
54.970 12.651586
54.975 12.732902
54.980 12.892275
54.985 12.943866
54.990 12.300243
54.995 12.01209
55.000 11.673301
55.005 11.475512
55.010 11.524711
55.015 11.509676
55.020 11.878654
55.025 12.679002
55.030 12.918569
55.035 13.304193
55.040 13.021804
55.045 12.532837
55.050 11.529519
55.055 10.88522
55.060 10.211441
55.065 9.896868
55.070 9.528481
55.075 9.866041
55.080 10.521494
55.085 10.562409
55.090 10.95896
55.095 11.250599
55.100 11.686277
55.105 12.027504
55.110 12.242218
55.115 12.208985
55.120 13.02483
55.125 13.413021
55.130 13.314947
55.135 13.003962
55.140 12.830165
55.145 12.985414
55.150 13.081971
55.155 12.554728
55.160 12.303902
55.165 12.589263
55.170 13.011601
55.175 12.775534
55.180 12.442543
55.185 12.414124
55.190 12.879026
55.195 12.899619
55.200 12.986121
55.205 12.708203
55.210 13.221023
55.215 13.234403
55.220 12.715776
55.225 12.17498
55.230 12.060854
55.235 12.137649
55.240 12.011324
55.245 11.479124
55.250 12.009879
55.255 13.125578
55.260 13.270259
55.265 13.143224
55.270 13.172146
55.275 13.051083
55.280 13.141171
55.285 12.155281
55.290 11.197814
55.295 11.498323
55.300 11.55809
55.305 11.340982
55.310 11.754038
55.315 12.00551
55.320 12.515944
55.325 12.878995
55.330 13.103731
55.335 13.554375
55.340 13.406763
55.345 13.145558
55.350 13.137551
55.355 13.182701
55.360 13.375432
55.365 12.802177
55.370 12.53034
55.375 12.621313
55.380 12.390531
55.385 12.359462
55.390 12.540295
55.395 12.158613
55.400 12.646019
55.405 12.758643
55.410 13.159879
55.415 13.346745
55.420 12.741007
55.425 12.802242
55.430 12.896186
55.435 12.29283
55.440 12.27787
55.445 12.238278
55.450 12.364404
55.455 12.730303
55.460 12.588668
55.465 13.000168
55.470 13.19674
55.475 12.642132
55.480 12.247092
55.485 12.390798
55.490 12.191841
55.495 12.557823
55.500 12.202332
55.505 12.351537
55.510 12.85468
55.515 12.887487
55.520 12.753231
55.525 12.614539
55.530 12.105841
55.535 12.506991
55.540 12.775056
55.545 13.475123
55.550 13.608641
55.555 13.952004
55.560 14.197957
55.565 14.326236
55.570 13.997127
55.575 13.458202
55.580 13.197501
55.585 12.946904
55.590 12.357222
55.595 12.59976
55.600 12.117794
55.605 11.750742
55.610 11.421781
55.615 11.525108
55.620 11.713499
55.625 11.782174
55.630 11.210374
55.635 11.264068
55.640 11.339546
55.645 10.989828
55.650 10.657499
55.655 10.978909
55.660 11.218287
55.665 11.704121
55.670 11.729978
55.675 12.210238
55.680 12.343785
55.685 12.325135
55.690 12.152184
55.695 11.788083
55.700 11.910508
55.705 12.349608
55.710 12.120581
55.715 12.36536
55.720 12.172331
55.725 12.371991
55.730 12.691522
55.735 12.745985
55.740 12.667142
55.745 12.928027
55.750 13.23093
55.755 13.218131
55.760 13.099359
55.765 12.712215
55.770 12.454347
55.775 12.842525
55.780 12.63923
55.785 12.484338
55.790 12.467835
55.795 12.036543
55.800 12.13698
55.805 12.248114
55.810 11.710004
55.815 11.614347
55.820 11.469624
55.825 11.504651
55.830 12.117191
55.835 12.160492
55.840 12.193145
55.845 13.084075
55.850 13.562987
55.855 13.888205
55.860 14.195251
55.865 14.611416
55.870 14.79325
55.875 15.029649
55.880 14.359076
55.885 13.916361
55.890 13.535207
55.895 13.097052
55.900 12.959345
55.905 13.318665
55.910 13.367003
55.915 13.165469
55.920 13.550406
55.925 14.063861
55.930 14.004874
55.935 13.925797
55.940 14.188259
55.945 14.825418
55.950 15.654804
55.955 15.4266
55.960 14.797303
55.965 14.478795
55.970 13.89184
55.975 13.208854
55.980 12.678692
55.985 11.490506
55.990 11.454748
55.995 12.139189
56.000 12.873186
56.005 13.066319
56.010 12.992701
56.015 12.93391
56.020 13.309079
56.025 13.686386
56.030 13.44634
56.035 13.372683
56.040 13.541844
56.045 13.533017
56.050 13.986594
56.055 13.739446
56.060 13.690973
56.065 14.094236
56.070 13.752981
56.075 13.484996
56.080 13.293288
56.085 13.173159
56.090 13.429103
56.095 12.985933
56.100 12.337645
56.105 12.331825
56.110 12.347708
56.115 12.298073
56.120 12.264605
56.125 12.202833
56.130 12.129092
56.135 12.318366
56.140 12.554053
56.145 12.85812
56.150 13.251884
56.155 13.679315
56.160 13.53846
56.165 13.508853
56.170 13.637083
56.175 13.866929
56.180 13.349359
56.185 13.051691
56.190 12.898795
56.195 13.135549
56.200 13.503739
56.205 13.30523
56.210 13.043601
56.215 13.183925
56.220 12.800061
56.225 12.833875
56.230 13.358202
56.235 13.208472
56.240 13.582544
56.245 14.089699
56.250 13.922995
56.255 14.186893
56.260 14.142178
56.265 14.133358
56.270 14.342775
56.275 13.552266
56.280 13.170897
56.285 13.090375
56.290 13.005049
56.295 13.031134
56.300 12.93564
56.305 12.597597
56.310 12.847253
56.315 13.095956
56.320 13.143064
56.325 13.34837
56.330 13.200482
56.335 12.98174
56.340 13.22897
56.345 13.25109
56.350 12.825094
56.355 13.020593
56.360 12.861036
56.365 12.633563
56.370 12.860362
56.375 13.08623
56.380 13.012451
56.385 13.425525
56.390 13.896994
56.395 14.47307
56.400 14.669712
56.405 14.561974
56.410 14.516441
56.415 14.486179
56.420 14.319245
56.425 14.562344
56.430 14.75
56.435 14.877441
56.440 14.328821
56.445 13.760931
56.450 13.680127
56.455 13.846353
56.460 13.637558
56.465 13.293276
56.470 13.465731
56.475 13.884291
56.480 14.360603
56.485 14.623888
56.490 14.710804
56.495 14.246638
56.500 14.148586
56.505 14.601501
56.510 14.652843
56.515 14.545818
56.520 14.426534
56.525 14.336692
56.530 14.328375
56.535 14.059978
56.540 13.219476
56.545 12.883256
56.550 13.131546
56.555 13.000801
56.560 13.181411
56.565 13.023508
56.570 12.946074
56.575 13.467444
56.580 13.678128
56.585 13.297713
56.590 12.662479
56.595 12.114917
56.600 12.614176
56.605 12.574607
56.610 12.118793
56.615 12.634501
56.620 12.750054
56.625 13.047934
56.630 12.929996
56.635 12.573651
56.640 12.78361
56.645 12.855647
56.650 12.315097
56.655 12.17561
56.660 12.305179
56.665 12.459058
56.670 12.474078
56.675 13.042917
56.680 13.356303
56.685 13.774352
56.690 13.875057
56.695 13.901023
56.700 14.10778
56.705 14.825865
56.710 14.447317
56.715 14.373248
56.720 14.73813
56.725 15.393065
56.730 15.258607
56.735 14.985559
56.740 13.943192
56.745 14.265892
56.750 14.687226
56.755 14.693473
56.760 15.217677
56.765 15.983627
56.770 16.187803
56.775 16.98485
56.780 16.771193
56.785 16.155735
56.790 15.746123
56.795 14.516094
56.800 14.112835
56.805 13.939295
56.810 13.379758
56.815 12.854212
56.820 13.056321
56.825 12.944392
56.830 13.028935
56.835 13.386846
56.840 13.881586
56.845 13.914732
56.850 14.41851
56.855 14.489803
56.860 14.612164
56.865 14.782093
56.870 14.26043
56.875 13.76474
56.880 13.821712
56.885 13.590975
56.890 13.517705
56.895 13.450661
56.900 13.875175
56.905 13.7307
56.910 13.712772
56.915 13.706785
56.920 13.714584
56.925 13.511994
56.930 13.716191
56.935 13.602916
56.940 13.891969
56.945 14.049829
56.950 13.811006
56.955 14.288185
56.960 14.505886
56.965 14.380713
56.970 14.438653
56.975 14.667991
56.980 14.065232
56.985 13.837543
56.990 13.229532
56.995 13.572263
57.000 13.862237
57.005 13.786866
57.010 14.309772
57.015 14.888679
57.020 15.207459
57.025 15.234024
57.030 14.813766
57.035 14.246027
57.040 14.019938
57.045 13.132062
57.050 13.359898
57.055 13.517167
57.060 13.501587
57.065 13.648159
57.070 14.086416
57.075 14.125795
57.080 14.429967
57.085 13.970065
57.090 13.615686
57.095 13.844985
57.100 13.774802
57.105 13.599408
57.110 13.182121
57.115 13.398473
57.120 14.106106
57.125 14.460894
57.130 14.626521
57.135 15.269893
57.140 15.304199
57.145 15.982818
57.150 15.379548
57.155 14.661246
57.160 14.591662
57.165 14.554913
57.170 14.862393
57.175 14.970922
57.180 15.271305
57.185 15.933309
57.190 16.377804
57.195 16.448112
57.200 16.446705
57.205 15.527138
57.210 15.555168
57.215 15.00248
57.220 14.496745
57.225 14.997458
57.230 14.829453
57.235 14.562039
57.240 15.107716
57.245 14.75107
57.250 14.966624
57.255 15.521628
57.260 14.898402
57.265 14.482924
57.270 14.254696
57.275 13.948213
57.280 13.656557
57.285 13.617024
57.290 13.257463
57.295 13.333108
57.300 13.608783
57.305 13.870265
57.310 14.010603
57.315 14.044869
57.320 14.184639
57.325 14.505675
57.330 14.561378
57.335 14.466027
57.340 14.797171
57.345 15.461102
57.350 15.665401
57.355 15.98113
57.360 15.67731
57.365 15.45854
57.370 15.125435
57.375 14.710925
57.380 14.384069
57.385 14.733452
57.390 14.485082
57.395 14.374344
57.400 14.616421
57.405 15.418904
57.410 15.83469
57.415 15.74937
57.420 15.473907
57.425 15.33828
57.430 16.025768
57.435 16.393023
57.440 16.298576
57.445 15.811177
57.450 15.671782
57.455 16.241104
57.460 16.356041
57.465 16.037363
57.470 15.625083
57.475 15.390101
57.480 15.543601
57.485 16.246269
57.490 16.000227
57.495 16.256865
57.500 16.214212
57.505 16.454805
57.510 16.988655
57.515 16.915337
57.520 16.260422
57.525 16.91
57.530 16.759129
57.535 16.993536
57.540 17.212685
57.545 17.070929
57.550 17.591547
57.555 17.749363
57.560 17.440041
57.565 18.062813
57.570 17.968386
57.575 18.085398
57.580 17.781626
57.585 17.38629
57.590 16.941906
57.595 16.739441
57.600 16.705267
57.605 16.182144
57.610 15.886627
57.615 15.872985
57.620 15.559884
57.625 15.874877
57.630 15.746527
57.635 15.341589
57.640 15.689095
57.645 15.549533
57.650 15.542357
57.655 16.266792
57.660 16.424143
57.665 15.887497
57.670 15.715549
57.675 16.00441
57.680 16.760479
57.685 17.259649
57.690 17.272112
57.695 17.24296
57.700 17.551222
57.705 17.693983
57.710 17.525536
57.715 17.011829
57.720 16.617798
57.725 16.667461
57.730 17.432199
57.735 18.079655
57.740 17.864418
57.745 17.53203
57.750 17.530382
57.755 17.568979
57.760 16.796164
57.765 15.837213
57.770 15.980228
57.775 16.24917
57.780 16.474901
57.785 16.408175
57.790 16.648441
57.795 16.847427
57.800 16.831717
57.805 16.730902
57.810 16.62134
57.815 16.618984
57.820 16.805735
57.825 17.069345
57.830 17.656868
57.835 17.754532
57.840 17.668043
57.845 17.638838
57.850 17.381739
57.855 16.988033
57.860 16.698711
57.865 16.163523
57.870 16.083342
57.875 15.911423
57.880 16.013878
57.885 16.110638
57.890 16.156805
57.895 16.37038
57.900 16.818405
57.905 16.822332
57.910 16.915274
57.915 17.11183
57.920 17.064175
57.925 16.844122
57.930 16.178093
57.935 16.413425
57.940 16.894758
57.945 17.303358
57.950 16.902273
57.955 17.138323
57.960 17.542789
57.965 17.773712
57.970 17.480824
57.975 17.311953
57.980 17.427248
57.985 17.990126
57.990 18.06879
57.995 18.071138
58.000 18.15884
58.005 17.947359
58.010 17.707428
58.015 17.025133
58.020 16.626587
58.025 16.967583
58.030 17.245882
58.035 16.840181
58.040 17.209644
58.045 17.390394
58.050 17.440569
58.055 17.625204
58.060 17.640627
58.065 17.285845
58.070 17.585169
58.075 17.771622
58.080 17.94125
58.085 18.037121
58.090 17.743729
58.095 17.376173
58.100 17.475973
58.105 18.007212
58.110 17.730436
58.115 17.62257
58.120 17.823271
58.125 17.66272
58.130 18.106504
58.135 18.352552
58.140 18.807636
58.145 18.845554
58.150 18.882658
58.155 18.671509
58.160 18.928041
58.165 18.628881
58.170 18.800346
58.175 19.115955
58.180 19.559029
58.185 19.699793
58.190 19.843195
58.195 20.050402
58.200 20.836044
58.205 20.630396
58.210 19.718731
58.215 19.367645
58.220 19.11973
58.225 18.903214
58.230 19.218754
58.235 19.016258
58.240 18.955502
58.245 19.281721
58.250 19.537872
58.255 20.404222
58.260 21.218315
58.265 20.967154
58.270 20.63225
58.275 20.637817
58.280 20.371304
58.285 20.778284
58.290 20.657198
58.295 20.286787
58.300 20.396656
58.305 20.972004
58.310 21.631533
58.315 22.180281
58.320 22.100227
58.325 21.770618
58.330 22.031376
58.335 22.462524
58.340 21.931284
58.345 21.904215
58.350 22.746477
58.355 23.493299
58.360 24.343483
58.365 24.705246
58.370 24.463093
58.375 24.862097
58.380 25.076805
58.385 25.050066
58.390 25.137695
58.395 25.650002
58.400 26.075041
58.405 26.730539
58.410 26.851885
58.415 26.734129
58.420 26.580147
58.425 26.491577
58.430 26.228941
58.435 26.184851
58.440 26.780064
