!@!!GADDS PLOTSO FILE: Chi integration type
!@!!Title/SampleName: map-12
!@!!Comment: ?
!@!!User: Bruker Instrument Administrator
!@!!Site: University of Illinois Chicago
!@!!Frame: map-12_01_000.gfrm
!@!!Wavelengths    1.54184   1.54056   1.54439
!@!!Frame angles: 2Theta: 63.000 Omega: 50.000 Phi: 0.000 Chi: 90.000
!@!!Integration range: 2Theta: 53.000 to 73.000  Gamma: -105.000 to -75.000
!@!!Integration method: bin normalized
!@!N
!@!SS
!@!M
!@!L 0.0 0.0 0.0 0.0
!@!XDegrees
!@!YCounts
53.000 7.794127
53.005 7.5519
53.010 7.222321
53.015 7.306905
53.020 6.972452
53.025 6.614917
53.030 7.074863
53.035 7.310298
53.040 7.19871
53.045 7.176468
53.050 7.417098
53.055 7.981758
53.060 8.326046
53.065 8.183972
53.070 8.249171
53.075 7.919822
53.080 7.926424
53.085 8.009295
53.090 8.208043
53.095 8.656552
53.100 8.759414
53.105 8.766269
53.110 8.865314
53.115 8.765581
53.120 8.607541
53.125 8.491699
53.130 8.456122
53.135 8.799578
53.140 9.15674
53.145 9.27134
53.150 9.341244
53.155 9.511689
53.160 9.311189
53.165 8.857717
53.170 8.376007
53.175 8.398252
53.180 8.85425
53.185 8.709281
53.190 8.089915
53.195 8.222005
53.200 8.417732
53.205 8.422285
53.210 7.867686
53.215 7.812222
53.220 8.119688
53.225 7.750354
53.230 7.284506
53.235 7.343205
53.240 7.756188
53.245 7.824721
53.250 7.226946
53.255 7.474202
53.260 8.067864
53.265 8.426147
53.270 8.537238
53.275 8.377076
53.280 8.737594
53.285 8.978807
53.290 9.221674
53.295 9.226774
53.300 9.313589
53.305 9.389798
53.310 9.39443
53.315 9.273233
53.320 9.409165
53.325 8.829846
53.330 8.734818
53.335 8.269487
53.340 7.938214
53.345 7.79376
53.350 7.921752
53.355 7.909423
53.360 7.917796
53.365 7.97889
53.370 8.43922
53.375 8.619787
53.380 8.654577
53.385 8.679144
53.390 9.391298
53.395 9.707023
53.400 9.780385
53.405 9.985491
53.410 9.979406
53.415 9.9821
53.420 9.758196
53.425 9.125854
53.430 8.895655
53.435 8.996174
53.440 8.757137
53.445 9.205678
53.450 9.304749
53.455 9.413196
53.460 10.014266
53.465 9.946522
53.470 9.907146
53.475 9.818259
53.480 9.235647
53.485 9.262631
53.490 9.191603
53.495 8.505997
53.500 8.541254
53.505 8.721648
53.510 8.812606
53.515 9.182151
53.520 9.10494
53.525 9.315179
53.530 9.020911
53.535 8.971913
53.540 8.829463
53.545 8.745296
53.550 8.419763
53.555 8.402837
53.560 8.520148
53.565 9.285771
53.570 9.429602
53.575 9.582491
53.580 9.618872
53.585 9.561698
53.590 9.358213
53.595 9.404531
53.600 9.356044
53.605 9.102942
53.610 9.305087
53.615 9.315639
53.620 8.957772
53.625 9.197498
53.630 8.666884
53.635 8.513999
53.640 8.639653
53.645 8.251256
53.650 8.413775
53.655 8.402097
53.660 8.268681
53.665 8.212239
53.670 7.784055
53.675 7.40039
53.680 7.240426
53.685 7.163656
53.690 7.419281
53.695 7.714017
53.700 8.183926
53.705 8.457358
53.710 8.806096
53.715 9.492976
53.720 9.648567
53.725 9.61658
53.730 9.504145
53.735 9.905692
53.740 9.939532
53.745 9.921469
53.750 9.882609
53.755 9.540253
53.760 9.453646
53.765 9.428391
53.770 9.360763
53.775 9.434691
53.780 9.198867
53.785 9.201383
53.790 9.615391
53.795 9.602266
53.800 9.321011
53.805 9.053703
53.810 9.429493
53.815 9.799914
53.820 9.590378
53.825 9.808208
53.830 9.530581
53.835 9.394313
53.840 9.460253
53.845 9.312803
53.850 9.27887
53.855 9.410282
53.860 9.325331
53.865 9.344027
53.870 9.523238
53.875 9.25923
53.880 9.115322
53.885 8.966815
53.890 8.741529
53.895 9.012305
53.900 9.539413
53.905 9.463549
53.910 9.407025
53.915 9.906882
53.920 10.342967
53.925 10.619343
53.930 10.207253
53.935 10.012442
53.940 10.254521
53.945 10.483237
53.950 9.814977
53.955 9.650634
53.960 9.707535
53.965 9.949234
53.970 9.871446
53.975 9.631827
53.980 9.172924
53.985 9.249909
53.990 9.213263
53.995 8.961589
54.000 8.952188
54.005 8.858861
54.010 8.857704
54.015 9.42974
54.020 9.481194
54.025 9.275603
54.030 9.041412
54.035 9.230093
54.040 9.521634
54.045 9.647628
54.050 9.440582
54.055 9.702972
54.060 10.247455
54.065 10.22437
54.070 9.978955
54.075 9.623961
54.080 9.620671
54.085 9.470476
54.090 9.007145
54.095 9.012278
54.100 9.195999
54.105 9.428389
54.110 9.701201
54.115 9.677562
54.120 9.671235
54.125 9.586823
54.130 9.595224
54.135 9.638512
54.140 9.544377
54.145 9.848289
54.150 9.645395
54.155 9.838802
54.160 10.423315
54.165 10.213212
54.170 10.115577
54.175 9.731624
54.180 9.566583
54.185 9.77041
54.190 9.687702
54.195 9.241164
54.200 9.426883
54.205 9.36885
54.210 9.269835
54.215 9.087052
54.220 9.028852
54.225 9.084745
54.230 9.123336
54.235 8.952218
54.240 9.188157
54.245 10.090271
54.250 10.677696
54.255 10.672771
54.260 10.959352
54.265 11.126555
54.270 11.087048
54.275 10.996211
54.280 10.444786
54.285 9.882364
54.290 9.920539
54.295 9.954337
54.300 9.883164
54.305 10.108718
54.310 10.018076
54.315 9.96068
54.320 10.259985
54.325 10.033628
54.330 9.977024
54.335 10.323015
54.340 11.016102
54.345 10.75552
54.350 10.902901
54.355 11.041445
54.360 10.793558
54.365 10.769922
54.370 10.482009
54.375 10.385846
54.380 10.73306
54.385 10.597312
54.390 10.553597
54.395 10.140594
54.400 9.99754
54.405 9.829288
54.410 9.617837
54.415 9.71874
54.420 9.691479
54.425 9.805291
54.430 10.283762
54.435 9.937338
54.440 9.856393
54.445 9.905503
54.450 9.81945
54.455 9.584081
54.460 9.680661
54.465 9.469933
54.470 10.292251
54.475 10.677831
54.480 10.760055
54.485 10.615339
54.490 10.823393
54.495 10.703487
54.500 10.683855
54.505 10.226791
54.510 9.812124
54.515 9.731915
54.520 9.74235
54.525 9.658652
54.530 9.445374
54.535 9.422921
54.540 9.339624
54.545 9.370461
54.550 9.877355
54.555 10.349023
54.560 10.499132
54.565 10.757863
54.570 10.750927
54.575 10.97013
54.580 10.763805
54.585 10.23326
54.590 9.936535
54.595 9.711788
54.600 9.94476
54.605 10.09341
54.610 10.135064
54.615 10.458304
54.620 10.469515
54.625 10.388384
54.630 10.274758
54.635 10.288666
54.640 10.316057
54.645 9.926985
54.650 9.647506
54.655 9.685265
54.660 10.115497
54.665 10.396192
54.670 10.779311
54.675 10.756023
54.680 11.032635
54.685 11.372359
54.690 11.31948
54.695 11.264451
54.700 10.831692
54.705 10.510177
54.710 10.267497
54.715 10.321555
54.720 10.350998
54.725 10.361621
54.730 9.889629
54.735 9.609627
54.740 9.799388
54.745 10.019925
54.750 9.786097
54.755 9.408634
54.760 8.862979
54.765 9.2686
54.770 9.294911
54.775 9.170036
54.780 9.150712
54.785 9.384683
54.790 9.973303
54.795 10.447556
54.800 10.787436
54.805 10.925941
54.810 11.242584
54.815 11.487149
54.820 11.43421
54.825 11.680596
54.830 11.441664
54.835 11.453438
54.840 11.454621
54.845 11.090088
54.850 10.879137
54.855 10.529883
54.860 10.015872
54.865 9.900307
54.870 9.853024
54.875 10.030515
54.880 10.728442
54.885 11.133827
54.890 11.749354
54.895 12.1955
54.900 12.627281
54.905 12.070911
54.910 11.676198
54.915 10.970642
54.920 10.783474
54.925 10.709208
54.930 10.590442
54.935 10.411593
54.940 10.755281
54.945 10.723109
54.950 10.511203
54.955 10.176491
54.960 9.941931
54.965 10.03078
54.970 9.952981
54.975 9.852015
54.980 9.569301
54.985 9.996208
54.990 10.290972
54.995 10.691005
55.000 10.873254
55.005 11.004489
55.010 11.075768
55.015 11.345781
55.020 10.825812
55.025 11.183093
55.030 11.328023
55.035 11.269004
55.040 11.353503
55.045 11.630391
55.050 11.775909
55.055 12.249506
55.060 11.743286
55.065 11.192139
55.070 11.231415
55.075 11.419025
55.080 11.130001
55.085 10.786393
55.090 10.438522
55.095 10.501114
55.100 10.671853
55.105 10.453474
55.110 10.264462
55.115 10.420386
55.120 10.555575
55.125 9.813388
55.130 9.666267
55.135 9.763319
55.140 9.83807
55.145 9.77561
55.150 9.573565
55.155 9.653799
55.160 10.207625
55.165 10.123366
55.170 9.9294
55.175 9.795009
55.180 10.104479
55.185 10.550947
55.190 11.003476
55.195 11.377076
55.200 11.276533
55.205 11.412752
55.210 11.496969
55.215 11.277428
55.220 11.159138
55.225 11.028385
55.230 10.870279
55.235 11.360694
55.240 11.68376
55.245 11.727774
55.250 12.104091
55.255 11.902191
55.260 12.092768
55.265 12.037116
55.270 12.022491
55.275 12.147007
55.280 12.231162
55.285 12.035651
55.290 12.254181
55.295 11.626715
55.300 11.271038
55.305 10.510984
55.310 9.960362
55.315 10.097837
55.320 10.084602
55.325 9.768755
55.330 9.939855
55.335 10.174412
55.340 10.54311
55.345 11.013751
55.350 10.793052
55.355 10.548266
55.360 11.364408
55.365 11.886683
55.370 12.09935
55.375 11.702458
55.380 11.460516
55.385 11.617768
55.390 11.656695
55.395 10.951402
55.400 10.549326
55.405 10.912682
55.410 11.346815
55.415 11.198171
55.420 11.255232
55.425 11.524376
55.430 11.479645
55.435 11.726848
55.440 11.621672
55.445 11.782108
55.450 12.03463
55.455 12.083697
55.460 12.385917
55.465 12.463905
55.470 12.476615
55.475 12.394668
55.480 12.406196
55.485 12.148423
55.490 11.780671
55.495 11.968437
55.500 12.052211
55.505 12.195514
55.510 12.398117
55.515 12.254611
55.520 12.188
55.525 12.623369
55.530 12.547911
55.535 12.797372
55.540 12.622925
55.545 12.148411
55.550 12.480674
55.555 12.955013
55.560 12.498417
55.565 12.095833
55.570 11.626857
55.575 11.141488
55.580 10.876471
55.585 10.516924
55.590 9.945393
55.595 10.067368
55.600 10.213401
55.605 10.524513
55.610 11.265173
55.615 11.593064
55.620 11.505098
55.625 11.081703
55.630 10.66564
55.635 10.513913
55.640 10.552855
55.645 10.256742
55.650 10.157249
55.655 10.633571
55.660 11.207223
55.665 11.656157
55.670 11.799877
55.675 11.366481
55.680 11.297253
55.685 11.39781
55.690 11.239937
55.695 11.884706
55.700 11.281845
55.705 11.064668
55.710 11.236927
55.715 11.139535
55.720 11.440325
55.725 11.577938
55.730 11.317479
55.735 11.856162
55.740 11.773749
55.745 11.835269
55.750 11.789503
55.755 11.167895
55.760 11.050704
55.765 10.826759
55.770 11.052564
55.775 11.270954
55.780 11.392858
55.785 11.503038
55.790 11.510722
55.795 10.903179
55.800 10.733891
55.805 10.614595
55.810 10.897179
55.815 11.036646
55.820 11.078976
55.825 11.278284
55.830 11.999259
55.835 12.507193
55.840 12.608602
55.845 12.508916
55.850 12.859284
55.855 13.47457
55.860 13.147701
55.865 12.577143
55.870 12.174444
55.875 11.926504
55.880 11.731364
55.885 11.656898
55.890 11.756426
55.895 12.186818
55.900 12.580618
55.905 13.234447
55.910 13.465044
55.915 13.708908
55.920 13.506535
55.925 13.287967
55.930 13.162683
55.935 13.009274
55.940 12.707669
55.945 12.946262
55.950 12.39069
55.955 12.220182
55.960 12.334699
55.965 12.354225
55.970 12.36406
55.975 12.132701
55.980 12.004945
55.985 11.86487
55.990 11.35071
55.995 11.394669
56.000 11.411776
56.005 11.639621
56.010 11.65952
56.015 11.898426
56.020 11.900784
56.025 12.409741
56.030 12.403133
56.035 11.9155
56.040 11.54483
56.045 11.502173
56.050 11.561335
56.055 12.332952
56.060 12.138273
56.065 12.10167
56.070 12.566227
56.075 12.699176
56.080 12.59832
56.085 12.34419
56.090 11.898862
56.095 11.96507
56.100 11.728048
56.105 11.48004
56.110 11.260412
56.115 11.331808
56.120 11.58952
56.125 11.451333
56.130 11.463355
56.135 11.794891
56.140 12.382952
56.145 12.577554
56.150 12.834389
56.155 12.760177
56.160 12.842898
56.165 12.870443
56.170 12.693442
56.175 12.151644
56.180 11.636182
56.185 11.419668
56.190 11.372309
56.195 11.354337
56.200 11.169124
56.205 11.00504
56.210 11.159925
56.215 11.553984
56.220 11.572401
56.225 11.528803
56.230 11.868759
56.235 12.500289
56.240 12.942564
56.245 13.345842
56.250 12.875945
56.255 12.946965
56.260 12.958693
56.265 12.94678
56.270 12.425953
56.275 12.186485
56.280 11.831245
56.285 12.248604
56.290 12.428496
56.295 12.30399
56.300 12.473767
56.305 12.599578
56.310 12.925944
56.315 12.519249
56.320 11.910443
56.325 11.671819
56.330 11.329687
56.335 11.103255
56.340 10.905773
56.345 10.722505
56.350 11.266669
56.355 11.731354
56.360 12.092565
56.365 12.539941
56.370 12.472448
56.375 12.300613
56.380 12.320479
56.385 11.88461
56.390 11.874172
56.395 12.058592
56.400 12.141307
56.405 11.698111
56.410 11.845675
56.415 12.039616
56.420 12.364191
56.425 12.340792
56.430 12.303937
56.435 12.332276
56.440 13.101954
56.445 12.980634
56.450 12.92189
56.455 12.94398
56.460 12.678961
56.465 12.130501
56.470 11.445244
56.475 10.989176
56.480 11.032407
56.485 10.810339
56.490 11.195959
56.495 11.566821
56.500 11.927803
56.505 12.519142
56.510 13.055433
56.515 13.15164
56.520 13.526288
56.525 13.343836
56.530 12.937938
56.535 13.060628
56.540 12.95462
56.545 13.23595
56.550 13.295736
56.555 13.681308
56.560 14.370042
56.565 14.920969
56.570 14.720628
56.575 14.666819
56.580 14.386703
56.585 14.555731
56.590 14.257614
56.595 13.177825
56.600 13.102868
56.605 13.436028
56.610 13.375654
56.615 13.497423
56.620 13.241655
56.625 13.276473
56.630 13.993327
56.635 13.760224
56.640 13.489511
56.645 13.182088
56.650 12.969651
56.655 12.879622
56.660 12.059445
56.665 11.702073
56.670 11.742193
56.675 11.931689
56.680 11.871318
56.685 11.542116
56.690 12.037378
56.695 12.792176
56.700 13.068011
56.705 13.360312
56.710 13.134948
56.715 13.176944
56.720 13.848421
56.725 13.481368
56.730 13.027452
56.735 12.74761
56.740 12.843869
56.745 13.400142
56.750 13.761848
56.755 13.293614
56.760 13.551742
56.765 13.78373
56.770 13.785429
56.775 13.479717
56.780 12.944736
56.785 12.902279
56.790 13.071009
56.795 12.722919
56.800 12.776641
56.805 12.423818
56.810 12.813328
56.815 13.542689
56.820 13.824239
56.825 14.048311
56.830 14.305971
56.835 14.516666
56.840 14.672245
56.845 13.900625
56.850 13.228312
56.855 12.782507
56.860 12.502437
56.865 12.825142
56.870 12.73475
56.875 13.0197
56.880 13.401062
56.885 14.02956
56.890 14.433261
56.895 14.104375
56.900 13.540007
56.905 13.096764
56.910 12.881491
56.915 12.792465
56.920 12.379106
56.925 12.52532
56.930 12.598083
56.935 12.784178
56.940 13.159012
56.945 13.232522
56.950 13.11898
56.955 13.23491
56.960 13.347444
56.965 13.468098
56.970 13.624501
56.975 13.570604
56.980 13.456772
56.985 13.223436
56.990 12.87098
56.995 13.060156
57.000 13.680209
57.005 13.677565
57.010 13.992291
57.015 14.563865
57.020 15.037934
57.025 15.159204
57.030 14.528835
57.035 13.837343
57.040 13.302853
57.045 12.737369
57.050 12.714039
57.055 12.785542
57.060 12.518651
57.065 12.719845
57.070 12.959683
57.075 13.379601
57.080 13.501801
57.085 12.962985
57.090 12.263612
57.095 12.009263
57.100 11.691372
57.105 11.956832
57.110 12.154993
57.115 11.96209
57.120 12.394778
57.125 12.599262
57.130 12.615951
57.135 12.289012
57.140 12.121505
57.145 11.972731
57.150 12.334991
57.155 11.978592
57.160 12.327055
57.165 12.930747
57.170 13.289608
57.175 13.466056
57.180 13.517661
57.185 13.156373
57.190 13.327938
57.195 13.188375
57.200 13.121731
57.205 12.972332
57.210 12.253337
57.215 11.830977
57.220 11.390593
57.225 11.510732
57.230 11.11181
57.235 11.333379
57.240 11.697668
57.245 12.478647
57.250 13.247849
57.255 14.08898
57.260 14.701353
57.265 15.293205
57.270 15.177434
57.275 15.302354
57.280 15.467547
57.285 14.939004
57.290 14.669748
57.295 14.591673
57.300 14.165205
57.305 13.944989
57.310 13.831915
57.315 14.283344
57.320 15.065027
57.325 14.867014
57.330 14.842458
57.335 14.783798
57.340 14.919585
57.345 15.021967
57.350 14.441483
57.355 14.084764
57.360 14.074185
57.365 14.107354
57.370 14.283056
57.375 14.305919
57.380 13.799582
57.385 13.538691
57.390 13.274513
57.395 13.536898
57.400 13.261502
57.405 13.313144
57.410 13.301879
57.415 13.423777
57.420 13.468577
57.425 13.397687
57.430 12.83883
57.435 13.215244
57.440 13.265428
57.445 12.944061
57.450 12.903844
57.455 12.534653
57.460 12.529524
57.465 12.339931
57.470 12.210748
57.475 12.116047
57.480 12.677871
57.485 12.761713
57.490 13.395297
57.495 13.548293
57.500 14.065951
57.505 13.781724
57.510 13.209453
57.515 12.601866
57.520 12.919614
57.525 12.598596
57.530 12.611936
57.535 12.436038
57.540 13.143183
57.545 13.937483
57.550 14.280161
57.555 14.634645
57.560 15.1185
57.565 15.178175
57.570 14.981433
57.575 14.672137
57.580 13.840582
57.585 13.429868
57.590 13.17465
57.595 13.215481
57.600 13.492072
57.605 13.374599
57.610 13.925537
57.615 14.781388
57.620 15.363159
57.625 14.934363
57.630 14.873993
57.635 15.185855
57.640 15.129602
57.645 14.653911
57.650 14.102755
57.655 13.80927
57.660 14.116202
57.665 13.976212
57.670 14.155824
57.675 14.330197
57.680 14.177166
57.685 14.341141
57.690 14.221417
57.695 14.365739
57.700 14.279865
57.705 13.688005
57.710 13.423955
57.715 13.667478
57.720 13.455171
57.725 13.21523
57.730 13.083047
57.735 12.748909
57.740 13.21319
57.745 13.61308
57.750 13.845324
57.755 14.077785
57.760 14.160269
57.765 14.249952
57.770 14.244598
57.775 14.192804
57.780 13.724392
57.785 13.89805
57.790 13.773194
57.795 13.318566
57.800 13.485932
57.805 14.160408
57.810 14.391017
57.815 14.744466
57.820 14.710987
57.825 14.776425
57.830 14.829427
57.835 14.322598
57.840 13.483992
57.845 13.1551
57.850 12.526564
57.855 11.884923
57.860 11.70217
57.865 11.803226
57.870 12.450992
57.875 12.927349
57.880 13.051155
57.885 13.599499
57.890 13.85589
57.895 13.882166
57.900 13.984544
57.905 13.581464
57.910 12.868181
57.915 12.499283
57.920 12.316132
57.925 12.532342
57.930 12.756065
57.935 12.666698
57.940 12.650675
57.945 13.183137
57.950 13.508205
57.955 13.553019
57.960 13.541717
57.965 13.824721
57.970 14.430516
57.975 14.351727
57.980 14.113577
57.985 14.413746
57.990 14.883359
57.995 15.135601
58.000 14.918288
58.005 14.462782
58.010 14.932161
58.015 14.806322
58.020 14.920916
58.025 14.609259
58.030 14.7801
58.035 14.66511
58.040 14.83592
58.045 14.723409
58.050 14.899121
58.055 14.69735
58.060 15.00566
58.065 14.590009
58.070 14.608318
58.075 15.037053
58.080 14.954337
58.085 15.456048
58.090 15.306845
58.095 15.558003
58.100 16.327551
58.105 16.195103
58.110 15.415521
58.115 15.499432
58.120 15.412243
58.125 15.404181
58.130 14.270502
58.135 13.453772
58.140 13.642067
58.145 13.799226
58.150 13.503044
58.155 12.920725
58.160 12.704571
58.165 13.391967
58.170 13.505533
58.175 13.413363
58.180 12.732285
58.185 12.636717
58.190 12.71006
58.195 13.07681
58.200 12.782166
58.205 12.237463
58.210 12.366086
58.215 13.714696
58.220 14.040389
58.225 14.364972
58.230 14.321659
58.235 14.860884
58.240 15.497128
58.245 15.299368
58.250 14.537366
58.255 14.540196
58.260 14.589099
58.265 14.648013
58.270 14.301783
58.275 14.17874
58.280 14.783624
58.285 14.941719
58.290 14.602614
58.295 14.290383
58.300 14.137497
58.305 14.313872
58.310 14.154258
58.315 13.82564
58.320 13.679781
58.325 14.081394
58.330 13.925168
58.335 13.788259
58.340 13.895719
58.345 13.889857
58.350 14.032908
58.355 14.6171
58.360 14.52308
58.365 14.799782
58.370 15.226336
58.375 15.374759
58.380 15.24563
58.385 14.717213
58.390 14.555635
58.395 14.027351
58.400 13.723345
58.405 13.54463
58.410 13.657333
58.415 13.855994
58.420 14.086103
58.425 14.326087
58.430 15.028273
58.435 14.957952
58.440 14.626217
58.445 14.427888
58.450 14.295924
58.455 14.428753
58.460 14.72833
58.465 14.906793
58.470 15.222799
58.475 15.331672
58.480 15.799598
58.485 15.667789
58.490 15.340694
58.495 15.009637
58.500 14.796582
58.505 14.625146
58.510 14.819448
58.515 14.018948
58.520 14.272759
58.525 14.49146
