!@!!GADDS PLOTSO FILE: Chi integration type
!@!!Title/SampleName: map-81
!@!!Comment: ?
!@!!User: Bruker Instrument Administrator
!@!!Site: University of Illinois Chicago
!@!!Frame: map-81_01_000.gfrm
!@!!Wavelengths    1.54184   1.54056   1.54439
!@!!Frame angles: 2Theta: 63.000 Omega: 50.000 Phi: 0.000 Chi: 90.000
!@!!Integration range: 2Theta: 53.000 to 73.000  Gamma: -105.000 to -75.000
!@!!Integration method: bin normalized
!@!N
!@!SS
!@!M
!@!L 0.0 0.0 0.0 0.0
!@!XDegrees
!@!YCounts
53.000 9.595833
53.005 9.435552
53.010 9.152675
53.015 9.088309
53.020 8.696512
53.025 8.777508
53.030 9.270466
53.035 9.40773
53.040 9.677855
53.045 9.833658
53.050 9.742572
53.055 10.009881
53.060 9.919048
53.065 9.757503
53.070 10.087854
53.075 10.038521
53.080 9.555889
53.085 9.485373
53.090 9.820275
53.095 10.133269
53.100 9.899356
53.105 9.109801
53.110 9.441768
53.115 9.830578
53.120 9.936147
53.125 9.751086
53.130 10.016861
53.135 10.221931
53.140 10.207993
53.145 10.075761
53.150 9.706561
53.155 9.377207
53.160 9.041507
53.165 8.688544
53.170 8.832286
53.175 9.117139
53.180 9.298005
53.185 9.574136
53.190 9.856483
53.195 9.682784
53.200 9.916702
53.205 9.969039
53.210 10.188285
53.215 10.772537
53.220 10.91378
53.225 11.038129
53.230 10.923997
53.235 10.674469
53.240 11.034431
53.245 10.997005
53.250 10.524071
53.255 10.334791
53.260 10.201268
53.265 10.443491
53.270 10.43797
53.275 9.777847
53.280 10.045622
53.285 10.829346
53.290 10.839323
53.295 10.942569
53.300 11.009928
53.305 11.154034
53.310 11.311907
53.315 11.054725
53.320 10.35359
53.325 10.565579
53.330 10.365826
53.335 10.060621
53.340 9.938787
53.345 9.755127
53.350 9.70333
53.355 10.206489
53.360 10.805215
53.365 11.138577
53.370 11.271416
53.375 11.203558
53.380 11.139567
53.385 11.138792
53.390 10.992103
53.395 10.652913
53.400 10.649182
53.405 10.579004
53.410 10.690974
53.415 10.575179
53.420 10.814354
53.425 10.724076
53.430 10.490196
53.435 10.425543
53.440 10.896712
53.445 10.940871
53.450 10.749367
53.455 9.935346
53.460 9.380823
53.465 9.739515
53.470 9.930452
53.475 9.466088
53.480 9.407948
53.485 9.478267
53.490 9.923927
53.495 10.385628
53.500 9.600472
53.505 9.880287
53.510 10.262156
53.515 10.707194
53.520 10.982709
53.525 10.893684
53.530 11.183931
53.535 11.609962
53.540 10.990725
53.545 10.90022
53.550 10.415771
53.555 10.174422
53.560 9.852652
53.565 9.393074
53.570 9.110322
53.575 8.920663
53.580 9.162535
53.585 9.570092
53.590 9.959183
53.595 9.815507
53.600 10.04458
53.605 10.4235
53.610 10.507217
53.615 10.444624
53.620 10.425458
53.625 10.447158
53.630 10.750036
53.635 10.130715
53.640 10.242287
53.645 9.94803
53.650 9.608288
53.655 9.937959
53.660 10.109783
53.665 10.417968
53.670 10.768052
53.675 11.158177
53.680 11.473805
53.685 11.802364
53.690 11.510342
53.695 11.559335
53.700 11.375378
53.705 11.265206
53.710 11.39281
53.715 11.449051
53.720 10.921197
53.725 10.599375
53.730 10.302094
53.735 10.225619
53.740 10.175703
53.745 10.257216
53.750 10.371543
53.755 10.782887
53.760 10.812639
53.765 11.215056
53.770 11.530511
53.775 11.387784
53.780 10.671786
53.785 10.398244
53.790 10.521961
53.795 10.150767
53.800 9.757526
53.805 9.379955
53.810 9.232832
53.815 9.517095
53.820 9.280148
53.825 9.299489
53.830 9.698261
53.835 9.983766
53.840 10.234081
53.845 9.8955
53.850 9.813038
53.855 10.140261
53.860 10.222508
53.865 10.832907
53.870 11.006172
53.875 11.529869
53.880 12.222771
53.885 12.648498
53.890 12.472399
53.895 12.036992
53.900 11.015817
53.905 10.605418
53.910 10.155832
53.915 9.753349
53.920 9.335858
53.925 9.325096
53.930 9.613245
53.935 10.062464
53.940 10.146391
53.945 10.332375
53.950 10.635668
53.955 10.627182
53.960 10.637382
53.965 10.721251
53.970 10.772766
53.975 11.021766
53.980 11.128375
53.985 10.84105
53.990 10.844866
53.995 10.897725
54.000 10.730378
54.005 10.602186
54.010 11.005659
54.015 11.0909
54.020 11.38855
54.025 11.390133
54.030 11.124249
54.035 11.322482
54.040 10.847757
54.045 10.705588
54.050 10.8704
54.055 11.50217
54.060 11.809094
54.065 11.761792
54.070 11.693357
54.075 12.214149
54.080 12.504841
54.085 12.529151
54.090 11.839602
54.095 11.795516
54.100 12.113529
54.105 12.02809
54.110 11.568755
54.115 11.170492
54.120 11.191239
54.125 11.502749
54.130 11.620375
54.135 11.520975
54.140 11.130044
54.145 11.307961
54.150 11.522703
54.155 11.281678
54.160 10.95879
54.165 10.657645
54.170 11.175872
54.175 11.154176
54.180 11.008222
54.185 10.738091
54.190 10.790347
54.195 10.95922
54.200 11.123706
54.205 11.074466
54.210 11.248609
54.215 11.03639
54.220 11.074997
54.225 11.370641
54.230 11.805836
54.235 11.909245
54.240 12.110392
54.245 12.929588
54.250 13.131322
54.255 13.301374
54.260 13.226918
54.265 12.870674
54.270 12.880172
54.275 12.463255
54.280 11.739931
54.285 11.368763
54.290 11.298936
54.295 11.233485
54.300 11.289489
54.305 11.214413
54.310 11.450076
54.315 11.736644
54.320 11.8684
54.325 12.135825
54.330 11.907393
54.335 11.667331
54.340 11.449717
54.345 11.652012
54.350 11.655914
54.355 11.510859
54.360 10.896823
54.365 11.004563
54.370 11.655089
54.375 12.256216
54.380 11.914783
54.385 12.066465
54.390 12.193557
54.395 12.083662
54.400 11.798665
54.405 11.48033
54.410 11.556057
54.415 11.85281
54.420 11.841976
54.425 11.714045
54.430 11.825777
54.435 12.546473
54.440 12.373935
54.445 12.047278
54.450 11.775015
54.455 11.519286
54.460 12.689003
54.465 12.885509
54.470 12.315549
54.475 12.399706
54.480 12.6752
54.485 12.774552
54.490 12.599019
54.495 11.919079
54.500 11.881296
54.505 11.953213
54.510 11.655524
54.515 11.594266
54.520 11.529945
54.525 11.364382
54.530 11.245023
54.535 11.055293
54.540 11.336532
54.545 11.214181
54.550 11.050165
54.555 11.604244
54.560 12.190436
54.565 12.101843
54.570 12.114383
54.575 12.14437
54.580 12.320677
54.585 12.13312
54.590 12.014157
54.595 12.269458
54.600 12.335737
54.605 11.978466
54.610 11.222405
54.615 11.396615
54.620 11.453173
54.625 11.369047
54.630 11.301893
54.635 11.498218
54.640 11.851165
54.645 12.088618
54.650 11.854184
54.655 12.111533
54.660 12.22347
54.665 12.118256
54.670 12.062334
54.675 12.022388
54.680 11.858686
54.685 11.398604
54.690 11.061002
54.695 10.918372
54.700 11.324415
54.705 11.117987
54.710 10.983624
54.715 11.286939
54.720 11.465488
54.725 11.293948
54.730 11.116962
54.735 10.765313
54.740 11.405673
54.745 11.511043
54.750 11.282536
54.755 11.508874
54.760 11.49132
54.765 11.170347
54.770 11.425868
54.775 11.144944
54.780 11.44116
54.785 11.339954
54.790 11.523741
54.795 12.064098
54.800 12.365315
54.805 11.793459
54.810 11.705653
54.815 11.762048
54.820 12.188968
54.825 12.084346
54.830 11.429147
54.835 11.441704
54.840 11.565144
54.845 11.344417
54.850 11.101192
54.855 10.778174
54.860 11.057614
54.865 11.44129
54.870 11.379832
54.875 11.558352
54.880 11.851743
54.885 11.829403
54.890 11.288997
54.895 11.10761
54.900 11.229556
54.905 11.098028
54.910 10.584074
54.915 10.764391
54.920 10.831346
54.925 11.22111
54.930 11.197872
54.935 11.293858
54.940 11.604194
54.945 11.577216
54.950 11.037258
54.955 11.366923
54.960 11.343847
54.965 11.579786
54.970 11.46679
54.975 11.540983
54.980 12.211432
54.985 12.684889
54.990 12.732422
54.995 13.0764
55.000 12.763987
55.005 12.76221
55.010 12.78756
55.015 12.195167
55.020 12.242197
55.025 11.944305
55.030 11.353799
55.035 11.454098
55.040 11.385418
55.045 11.269872
55.050 11.470716
55.055 11.182918
55.060 10.986105
55.065 11.267074
55.070 10.838552
55.075 10.699528
55.080 10.850986
55.085 10.899782
55.090 10.682859
55.095 10.754155
55.100 10.763024
55.105 11.133252
55.110 11.428635
55.115 11.433684
55.120 11.722546
55.125 11.770714
55.130 11.714785
55.135 11.506453
55.140 11.126349
55.145 10.789134
55.150 10.678144
55.155 10.427082
55.160 10.533423
55.165 10.088418
55.170 10.407172
55.175 10.64854
55.180 10.896492
55.185 11.224827
55.190 11.311718
55.195 11.563749
55.200 11.795314
55.205 11.909913
55.210 11.87586
55.215 11.623547
55.220 12.138646
55.225 12.57199
55.230 13.178345
55.235 13.594763
55.240 13.866726
55.245 14.126
55.250 13.906655
55.255 13.218928
55.260 12.810799
55.265 12.156294
55.270 12.093529
55.275 12.098762
55.280 12.358056
55.285 12.631991
55.290 12.466214
55.295 12.259991
55.300 12.043217
55.305 11.565726
55.310 11.024462
55.315 10.717375
55.320 10.288671
55.325 10.386518
55.330 10.803798
55.335 10.861804
55.340 11.111803
55.345 11.130684
55.350 11.127815
55.355 11.27763
55.360 11.347919
55.365 11.088803
55.370 11.329674
55.375 10.980124
55.380 11.020004
55.385 11.487283
55.390 11.140444
55.395 11.573584
55.400 11.262039
55.405 11.125652
55.410 11.338315
55.415 11.160315
55.420 10.801872
55.425 11.785375
55.430 11.61369
55.435 11.581445
55.440 11.532047
55.445 11.662731
55.450 12.297004
55.455 12.488744
55.460 12.184281
55.465 12.743055
55.470 13.240814
55.475 13.936855
55.480 13.837756
55.485 13.790747
55.490 13.778007
55.495 13.622169
55.500 13.221133
55.505 13.07969
55.510 13.08584
55.515 13.148
55.520 12.904938
55.525 12.89258
55.530 13.205134
55.535 13.657354
55.540 13.404489
55.545 12.680436
55.550 13.016023
55.555 13.285018
55.560 12.981668
55.565 12.945815
55.570 13.18808
55.575 13.44827
55.580 13.923461
55.585 13.440307
55.590 13.589891
55.595 13.834048
55.600 14.062084
55.605 13.966681
55.610 13.562636
55.615 13.05031
55.620 12.983265
55.625 12.4144
55.630 11.919043
55.635 11.30683
55.640 11.181306
55.645 11.521338
55.650 11.747854
55.655 11.969907
55.660 12.362673
55.665 12.322986
55.670 12.363931
55.675 12.256017
55.680 12.396741
55.685 12.896987
55.690 13.492617
55.695 13.959523
55.700 14.660139
55.705 15.124268
55.710 15.600686
55.715 15.720245
55.720 15.188148
55.725 14.164115
55.730 14.066868
55.735 14.16331
55.740 13.950206
55.745 13.563067
55.750 13.158551
55.755 12.998661
55.760 13.178257
55.765 12.779907
55.770 12.274909
55.775 12.26937
55.780 12.102797
55.785 12.268278
55.790 12.302341
55.795 12.456443
55.800 12.526011
55.805 12.808908
55.810 12.679365
55.815 12.834078
55.820 13.242598
55.825 13.30868
55.830 13.060579
55.835 12.813693
55.840 12.43159
55.845 12.578241
55.850 12.509058
55.855 12.579569
55.860 12.850368
55.865 13.343862
55.870 13.565063
55.875 14.074665
55.880 14.070466
55.885 13.500094
55.890 13.219164
55.895 12.824626
55.900 12.506721
55.905 11.53431
55.910 11.037834
55.915 11.361076
55.920 11.314
55.925 11.183161
55.930 11.064376
55.935 11.032699
55.940 11.625745
55.945 11.612403
55.950 11.907685
55.955 11.963683
55.960 12.068231
55.965 12.732929
55.970 13.08706
55.975 13.140567
55.980 13.072903
55.985 12.850166
55.990 12.897248
55.995 12.800508
56.000 12.716056
56.005 12.778833
56.010 13.183124
56.015 13.109639
56.020 13.348327
56.025 13.356924
56.030 13.065511
56.035 12.654003
56.040 12.657508
56.045 12.60448
56.050 12.576793
56.055 12.327331
56.060 12.708826
56.065 13.265087
56.070 13.301852
56.075 13.740317
56.080 14.141569
56.085 14.075014
56.090 13.87914
56.095 13.877074
56.100 13.840875
56.105 13.941666
56.110 12.986027
56.115 12.210981
56.120 12.568501
56.125 12.734848
56.130 12.52209
56.135 12.411717
56.140 12.580651
56.145 12.682041
56.150 12.683229
56.155 12.855189
56.160 12.704376
56.165 12.782584
56.170 13.332123
56.175 13.162649
56.180 12.716609
56.185 12.624321
56.190 12.520624
56.195 13.344575
56.200 13.43862
56.205 13.182178
56.210 13.452187
56.215 14.574243
56.220 14.427498
56.225 14.35514
56.230 13.843949
56.235 13.512589
56.240 13.480307
56.245 13.205359
56.250 12.917365
56.255 12.618777
56.260 12.188325
56.265 12.160645
56.270 12.692135
56.275 12.689108
56.280 12.663638
56.285 12.80472
56.290 13.861961
56.295 14.612371
56.300 15.053615
56.305 14.508559
56.310 14.529967
56.315 14.5758
56.320 14.604554
56.325 13.48838
56.330 12.146581
56.335 11.279902
56.340 11.130151
56.345 10.645351
56.350 10.229053
56.355 10.205319
56.360 10.615862
56.365 11.231765
56.370 11.85185
56.375 12.376575
56.380 12.663279
56.385 13.063455
56.390 13.553869
56.395 13.742023
56.400 13.950908
56.405 13.948762
56.410 14.015992
56.415 14.193731
56.420 14.471853
56.425 14.861871
56.430 15.160429
56.435 15.045923
56.440 14.907
56.445 15.078742
56.450 14.968187
56.455 14.696074
56.460 14.317202
56.465 14.445052
56.470 14.496043
56.475 14.786691
56.480 14.662703
56.485 14.768548
56.490 14.981373
56.495 14.623746
56.500 14.430611
56.505 14.30376
56.510 13.836649
56.515 13.670652
56.520 13.949448
56.525 14.066504
56.530 14.468634
56.535 14.546944
56.540 14.428881
56.545 14.777084
56.550 14.939017
56.555 14.965158
56.560 14.777573
56.565 14.873824
56.570 15.194345
56.575 15.304396
56.580 15.44418
56.585 15.31578
56.590 15.40156
56.595 15.510519
56.600 15.031244
56.605 14.596625
56.610 14.208147
56.615 13.958756
56.620 13.986709
56.625 14.068534
56.630 13.573203
56.635 13.04707
56.640 12.793128
56.645 12.66145
56.650 12.366746
56.655 12.077546
56.660 11.482838
56.665 12.094491
56.670 12.873116
56.675 13.197989
56.680 13.446058
56.685 13.500468
56.690 13.676012
56.695 13.797592
56.700 13.614292
56.705 13.537992
56.710 13.650804
56.715 13.358786
56.720 13.147008
56.725 13.260813
56.730 13.09528
56.735 12.708776
56.740 13.06734
56.745 13.362803
56.750 13.722525
56.755 13.784338
56.760 13.709873
56.765 14.156696
56.770 14.409264
56.775 14.209516
56.780 14.767581
56.785 14.694742
56.790 14.503296
56.795 14.290546
56.800 14.259521
56.805 14.453953
56.810 14.287062
56.815 13.756646
56.820 13.699583
56.825 14.122662
56.830 14.601049
56.835 14.552197
56.840 14.134714
56.845 13.797547
56.850 13.959183
56.855 14.187551
56.860 13.650495
56.865 13.912386
56.870 13.703786
56.875 13.348248
56.880 13.501901
56.885 13.691934
56.890 13.785643
56.895 14.088355
56.900 13.4424
56.905 13.513318
56.910 13.509307
56.915 13.277709
56.920 12.789706
56.925 12.987962
56.930 13.074679
56.935 13.518603
56.940 13.831918
56.945 13.841879
56.950 13.909497
56.955 13.953049
56.960 13.378437
56.965 13.589576
56.970 13.284912
56.975 13.278778
56.980 13.386807
56.985 13.218708
56.990 13.41258
56.995 14.122905
57.000 13.743801
57.005 14.42509
57.010 14.804137
57.015 14.972172
57.020 15.35043
57.025 15.378787
57.030 15.311311
57.035 15.124772
57.040 14.408265
57.045 13.951059
57.050 13.898465
57.055 13.841418
57.060 13.286207
57.065 12.916926
57.070 12.999201
57.075 13.358811
57.080 14.371392
57.085 14.749975
57.090 14.150927
57.095 14.540059
57.100 14.735512
57.105 14.711958
57.110 14.116284
57.115 13.586497
57.120 13.552538
57.125 13.926248
57.130 14.213661
57.135 14.479901
57.140 14.430411
57.145 14.635535
57.150 15.045448
57.155 15.090658
57.160 14.892783
57.165 14.402538
57.170 14.286297
57.175 14.473574
57.180 14.388791
57.185 14.267627
57.190 14.518784
57.195 14.856454
57.200 14.967565
57.205 14.448484
57.210 14.524749
57.215 14.898762
57.220 14.816755
57.225 14.516251
57.230 14.161166
57.235 14.070153
57.240 14.440516
57.245 14.353285
57.250 14.124832
57.255 14.014307
57.260 13.919102
57.265 14.09897
57.270 14.571353
57.275 14.720097
57.280 14.571936
57.285 14.258165
57.290 13.905593
57.295 14.705086
57.300 15.099193
57.305 14.658617
57.310 14.881182
57.315 14.889786
57.320 15.202389
57.325 15.882108
57.330 15.511182
57.335 14.961878
57.340 14.983745
57.345 14.830184
57.350 14.949755
57.355 14.995299
57.360 14.751532
57.365 14.67309
57.370 14.77446
57.375 14.687625
57.380 15.114421
57.385 15.184052
57.390 15.664483
57.395 15.188963
57.400 14.604038
57.405 14.794559
57.410 14.606673
57.415 13.947656
57.420 13.33906
57.425 13.11402
57.430 13.390392
57.435 13.715316
57.440 13.477947
57.445 13.398747
57.450 13.509439
57.455 13.224322
57.460 13.198297
57.465 13.807967
57.470 13.919041
57.475 14.137181
57.480 14.163021
57.485 14.472756
57.490 14.863419
57.495 15.022163
57.500 15.117617
57.505 15.05428
57.510 14.491138
57.515 14.308959
57.520 13.917176
57.525 13.513867
57.530 12.786179
57.535 12.549364
57.540 12.6396
57.545 13.037004
57.550 13.060156
57.555 13.095724
57.560 13.85768
57.565 14.217963
57.570 14.008101
57.575 13.853136
57.580 13.884538
57.585 13.801355
57.590 13.635821
57.595 13.841729
57.600 14.464322
57.605 15.206086
57.610 15.806247
57.615 16.123674
57.620 16.410816
57.625 16.583315
57.630 16.427292
57.635 15.680911
57.640 15.285034
57.645 14.916851
57.650 14.584295
57.655 14.568295
57.660 14.177663
57.665 14.366247
57.670 14.313393
57.675 13.950422
57.680 13.98956
57.685 14.462891
57.690 14.168777
57.695 14.293382
57.700 13.993291
57.705 14.051848
57.710 14.416731
57.715 14.061229
57.720 14.337056
57.725 15.026003
57.730 14.766623
57.735 14.381899
57.740 14.078625
57.745 13.986697
57.750 14.219193
57.755 13.826988
57.760 13.64017
57.765 14.251207
57.770 14.172703
57.775 14.294724
57.780 14.339075
57.785 14.241401
57.790 14.453032
57.795 14.477319
57.800 14.369491
57.805 14.753787
57.810 14.6876
57.815 14.768183
57.820 14.973571
57.825 14.656065
57.830 14.670327
57.835 14.551235
57.840 14.422264
57.845 14.301191
57.850 14.072232
57.855 14.087933
57.860 14.161991
57.865 13.955465
57.870 14.003259
57.875 13.912327
57.880 14.160402
57.885 13.929424
57.890 13.704667
57.895 13.824614
57.900 14.224645
57.905 14.38201
57.910 14.553493
57.915 14.805984
57.920 15.443871
57.925 15.533001
57.930 15.296951
57.935 14.844707
57.940 14.553876
57.945 15.143773
57.950 15.567393
57.955 15.298092
57.960 15.438563
57.965 15.713024
57.970 16.4722
57.975 16.965902
57.980 16.349083
57.985 15.566261
57.990 15.35245
57.995 15.84162
58.000 16.038219
58.005 15.51965
58.010 15.515747
58.015 15.454022
58.020 15.377405
58.025 15.309212
58.030 15.217216
58.035 14.86408
58.040 15.144829
58.045 14.98585
58.050 15.285986
58.055 15.608255
58.060 15.780351
58.065 14.858348
58.070 15.041718
58.075 14.691907
58.080 14.166405
58.085 14.008869
58.090 13.977983
58.095 13.801991
58.100 14.389044
58.105 14.820211
58.110 14.962532
58.115 15.611095
58.120 15.875348
58.125 15.845066
58.130 16.321997
58.135 16.270666
58.140 15.705982
58.145 15.624164
58.150 15.144693
58.155 14.898006
58.160 14.740161
58.165 14.997294
58.170 15.100553
58.175 15.330799
58.180 15.056298
58.185 15.810536
58.190 16.080097
58.195 16.340649
58.200 15.931347
58.205 15.828063
58.210 14.994388
58.215 14.797634
58.220 14.180761
58.225 14.3848
58.230 13.818669
58.235 13.423754
58.240 13.697053
58.245 14.453526
58.250 14.805578
58.255 15.030169
58.260 15.420178
58.265 16.355934
58.270 15.95732
58.275 15.119861
58.280 15.346175
58.285 16.289598
58.290 15.968162
58.295 15.364187
58.300 14.842785
58.305 15.058789
58.310 15.80366
58.315 15.069445
58.320 13.829182
58.325 14.010864
58.330 14.32453
58.335 14.220248
58.340 14.600609
58.345 14.423089
58.350 15.198357
58.355 15.985133
58.360 15.831058
58.365 15.969016
58.370 16.182537
58.375 15.950727
58.380 15.976538
58.385 15.914636
58.390 15.714654
58.395 15.68709
58.400 16.113323
58.405 16.8078
58.410 17.097095
58.415 17.10589
58.420 17.75494
58.425 17.972496
58.430 18.065744
58.435 17.200605
58.440 16.380396
58.445 16.316341
58.450 16.705349
58.455 15.904514
58.460 16.175587
58.465 16.335663
