!@!!GADDS PLOTSO FILE: Chi integration type
!@!!Title/SampleName: map-96
!@!!Comment: ?
!@!!User: Bruker Instrument Administrator
!@!!Site: University of Illinois Chicago
!@!!Frame: map-96_01_000.gfrm
!@!!Wavelengths    1.54184   1.54056   1.54439
!@!!Frame angles: 2Theta: 63.000 Omega: 50.000 Phi: 0.000 Chi: 90.000
!@!!Integration range: 2Theta: 53.000 to 73.000  Gamma: -105.000 to -75.000
!@!!Integration method: bin normalized
!@!N
!@!SS
!@!M
!@!L 0.0 0.0 0.0 0.0
!@!XDegrees
!@!YCounts
53.000 10.076565
53.005 9.774412
53.010 9.683086
53.015 9.231226
53.020 8.580992
53.025 8.363089
53.030 8.692423
53.035 9.528349
53.040 9.397438
53.045 9.116899
53.050 9.07171
53.055 9.243112
53.060 9.187656
53.065 8.886389
53.070 9.026114
53.075 9.454345
53.080 9.617446
53.085 10.085013
53.090 10.321792
53.095 10.643491
53.100 11.080276
53.105 11.043118
53.110 11.251192
53.115 11.281438
53.120 11.372425
53.125 11.19515
53.130 10.828834
53.135 10.071757
53.140 9.628345
53.145 10.087864
53.150 10.297539
53.155 10.467859
53.160 10.482033
53.165 10.749719
53.170 10.79991
53.175 10.681676
53.180 10.108857
53.185 9.567352
53.190 9.691488
53.195 9.963497
53.200 10.068639
53.205 10.4493
53.210 10.431211
53.215 10.37355
53.220 10.656277
53.225 9.895227
53.230 9.534773
53.235 9.336515
53.240 9.014124
53.245 9.17826
53.250 9.327441
53.255 9.286367
53.260 9.408194
53.265 9.298939
53.270 9.607361
53.275 9.73227
53.280 9.796348
53.285 9.331975
53.290 9.274726
53.295 9.576163
53.300 9.593976
53.305 9.261314
53.310 8.900531
53.315 8.899194
53.320 9.043572
53.325 9.011392
53.330 9.273098
53.335 9.426175
53.340 9.897301
53.345 10.029075
53.350 10.107319
53.355 10.497311
53.360 10.842336
53.365 10.861324
53.370 11.09429
53.375 11.038572
53.380 11.20956
53.385 11.951023
53.390 11.504141
53.395 11.369248
53.400 11.240782
53.405 10.980215
53.410 11.219077
53.415 10.920135
53.420 10.61095
53.425 10.738777
53.430 10.460765
53.435 10.359654
53.440 10.118377
53.445 9.895438
53.450 9.827141
53.455 9.700244
53.460 9.750135
53.465 10.00652
53.470 10.242674
53.475 10.481639
53.480 10.456962
53.485 10.608184
53.490 10.779385
53.495 11.133646
53.500 10.797216
53.505 11.138067
53.510 11.246537
53.515 11.524472
53.520 11.117236
53.525 10.442261
53.530 10.163827
53.535 10.431975
53.540 10.153564
53.545 10.231182
53.550 10.509139
53.555 11.249733
53.560 11.364344
53.565 11.119464
53.570 11.24188
53.575 11.408008
53.580 11.125299
53.585 10.571395
53.590 10.656789
53.595 11.251091
53.600 11.050136
53.605 10.44781
53.610 10.404416
53.615 10.335638
53.620 10.681086
53.625 10.691895
53.630 10.209731
53.635 10.875671
53.640 11.670864
53.645 11.564479
53.650 12.025906
53.655 11.765296
53.660 11.459564
53.665 11.595537
53.670 11.163986
53.675 10.688429
53.680 10.235007
53.685 9.446349
53.690 9.557453
53.695 9.950683
53.700 9.986088
53.705 9.966243
53.710 10.035881
53.715 10.340857
53.720 10.818618
53.725 11.413615
53.730 12.053561
53.735 12.313845
53.740 12.24838
53.745 12.4236
53.750 12.62349
53.755 12.216159
53.760 11.207294
53.765 10.568508
53.770 10.444425
53.775 10.503668
53.780 10.195473
53.785 10.00775
53.790 10.174397
53.795 10.717509
53.800 11.021085
53.805 11.298101
53.810 11.489158
53.815 11.925301
53.820 12.451243
53.825 12.229009
53.830 11.947069
53.835 12.04557
53.840 11.624269
53.845 11.456141
53.850 11.116725
53.855 10.947816
53.860 11.536329
53.865 11.645003
53.870 11.866285
53.875 12.15226
53.880 12.159029
53.885 12.326896
53.890 12.344673
53.895 11.838767
53.900 11.521777
53.905 10.998119
53.910 10.962246
53.915 11.120604
53.920 11.036939
53.925 11.188689
53.930 11.419283
53.935 11.387077
53.940 11.748283
53.945 11.430439
53.950 11.395544
53.955 11.229009
53.960 10.978538
53.965 11.481029
53.970 11.502587
53.975 11.577929
53.980 12.023274
53.985 12.270256
53.990 12.437954
53.995 12.768604
54.000 11.81988
54.005 11.589182
54.010 11.297332
54.015 11.400419
54.020 11.427993
54.025 10.950761
54.030 11.0218
54.035 12.005832
54.040 12.61613
54.045 12.680784
54.050 12.401971
54.055 12.752107
54.060 12.774795
54.065 12.433514
54.070 12.152397
54.075 11.980501
54.080 12.24412
54.085 12.295725
54.090 11.577487
54.095 11.625155
54.100 11.543694
54.105 11.058282
54.110 10.706661
54.115 10.230526
54.120 9.885559
54.125 10.336354
54.130 10.119201
54.135 10.152202
54.140 10.668599
54.145 11.276571
54.150 11.10336
54.155 10.808082
54.160 10.56498
54.165 11.05092
54.170 11.170596
54.175 11.107806
54.180 11.161066
54.185 11.697155
54.190 12.18727
54.195 12.063191
54.200 11.896905
54.205 11.916891
54.210 11.937034
54.215 12.097031
54.220 12.201818
54.225 12.431967
54.230 13.239733
54.235 13.497617
54.240 13.417906
54.245 13.290538
54.250 12.90758
54.255 12.814903
54.260 12.39978
54.265 11.728733
54.270 11.709503
54.275 11.643745
54.280 11.316776
54.285 11.221898
54.290 11.183634
54.295 11.616538
54.300 11.648853
54.305 11.396835
54.310 11.369422
54.315 11.54078
54.320 11.65889
54.325 11.524402
54.330 11.383694
54.335 11.632631
54.340 11.736023
54.345 11.754195
54.350 11.811831
54.355 12.16559
54.360 12.544584
54.365 12.445082
54.370 12.095913
54.375 11.787013
54.380 11.95361
54.385 12.16939
54.390 11.532075
54.395 10.834899
54.400 11.096211
54.405 11.447694
54.410 11.944074
54.415 11.933986
54.420 11.864973
54.425 12.682316
54.430 13.107524
54.435 12.679121
54.440 12.277711
54.445 11.744215
54.450 11.655656
54.455 11.260178
54.460 10.57773
54.465 10.556943
54.470 10.575968
54.475 11.497204
54.480 11.827451
54.485 11.640821
54.490 11.628692
54.495 12.126558
54.500 12.207841
54.505 12.314432
54.510 11.903678
54.515 11.631421
54.520 11.523561
54.525 11.45903
54.530 11.69452
54.535 11.546614
54.540 11.309591
54.545 11.511104
54.550 11.686837
54.555 11.988474
54.560 11.695138
54.565 11.495603
54.570 11.474475
54.575 11.66241
54.580 11.153743
54.585 11.18646
54.590 11.052604
54.595 11.073154
54.600 11.16387
54.605 11.381428
54.610 11.574009
54.615 11.538638
54.620 11.743398
54.625 11.818325
54.630 11.494117
54.635 11.314132
54.640 11.217772
54.645 10.809378
54.650 11.134064
54.655 11.007104
54.660 11.685375
54.665 12.066373
54.670 12.478806
54.675 12.828437
54.680 12.663094
54.685 12.74251
54.690 13.100991
54.695 12.575314
54.700 12.18014
54.705 11.850714
54.710 11.335442
54.715 11.982068
54.720 11.589602
54.725 11.197762
54.730 11.374913
54.735 11.524547
54.740 11.716253
54.745 11.872971
54.750 11.580187
54.755 11.729555
54.760 11.590009
54.765 11.670177
54.770 11.905128
54.775 12.250368
54.780 11.986591
54.785 11.760777
54.790 11.592766
54.795 11.955669
54.800 11.993459
54.805 11.723196
54.810 11.225566
54.815 11.824722
54.820 11.814446
54.825 12.288206
54.830 12.443604
54.835 12.514254
54.840 12.55427
54.845 12.397422
54.850 12.365364
54.855 12.612534
54.860 12.345747
54.865 11.910583
54.870 11.849574
54.875 11.730361
54.880 12.242965
54.885 12.019178
54.890 11.672485
54.895 11.457825
54.900 11.660146
54.905 11.825044
54.910 11.635617
54.915 11.135182
54.920 11.075655
54.925 11.317404
54.930 10.817794
54.935 10.427564
54.940 10.659971
54.945 11.328767
54.950 11.838623
54.955 11.925688
54.960 12.034629
54.965 12.817069
54.970 12.767023
54.975 12.541827
54.980 12.011524
54.985 12.072244
54.990 12.655916
54.995 12.241149
55.000 11.896177
55.005 11.93609
55.010 11.975689
55.015 12.170608
55.020 11.742286
55.025 11.275124
55.030 11.464174
55.035 11.346417
55.040 11.238605
55.045 11.535174
55.050 11.740277
55.055 12.361935
55.060 12.572665
55.065 12.919899
55.070 13.352196
55.075 13.746789
55.080 13.610629
55.085 13.123899
55.090 12.704002
55.095 12.73323
55.100 12.902225
55.105 12.749477
55.110 12.453819
55.115 12.430915
55.120 12.510437
55.125 12.58148
55.130 12.198252
55.135 11.950367
55.140 12.042456
55.145 11.859393
55.150 11.985621
55.155 12.352324
55.160 12.110679
55.165 12.25085
55.170 12.196092
55.175 12.274137
55.180 12.576369
55.185 12.797468
55.190 12.496642
55.195 12.954629
55.200 13.13705
55.205 13.120174
55.210 12.858037
55.215 12.695708
55.220 12.226498
55.225 12.480351
55.230 11.80977
55.235 11.681035
55.240 11.822072
55.245 12.045603
55.250 11.949227
55.255 12.322372
55.260 11.947291
55.265 12.491704
55.270 12.571988
55.275 12.368486
55.280 11.919432
55.285 12.078528
55.290 12.671708
55.295 12.791251
55.300 12.872254
55.305 12.385692
55.310 11.995448
55.315 12.29128
55.320 12.148547
55.325 12.319471
55.330 12.875105
55.335 13.452096
55.340 13.763268
55.345 14.140112
55.350 13.988059
55.355 13.729638
55.360 13.728357
55.365 13.511894
55.370 13.140918
55.375 13.452462
55.380 13.878145
55.385 13.98283
55.390 13.773994
55.395 13.209625
55.400 13.119589
55.405 13.436993
55.410 13.254554
55.415 12.96246
55.420 12.654696
55.425 12.407497
55.430 12.163015
55.435 12.167568
55.440 12.050745
55.445 12.059829
55.450 11.771635
55.455 11.788036
55.460 11.921984
55.465 12.160799
55.470 11.783191
55.475 11.526962
55.480 11.617743
55.485 12.158885
55.490 12.364755
55.495 13.20437
55.500 13.408999
55.505 13.147469
55.510 13.368663
55.515 13.492899
55.520 13.721148
55.525 13.676836
55.530 13.250669
55.535 13.628918
55.540 14.098265
55.545 14.301503
55.550 14.640307
55.555 14.69079
55.560 14.254588
55.565 13.479233
55.570 13.252827
55.575 13.397313
55.580 12.964607
55.585 12.475069
55.590 12.626974
55.595 12.801108
55.600 12.66719
55.605 12.409624
55.610 12.372527
55.615 12.433754
55.620 12.448461
55.625 12.25475
55.630 12.438789
55.635 12.663969
55.640 12.716556
55.645 12.503897
55.650 12.341198
55.655 12.569775
55.660 12.403596
55.665 12.519704
55.670 12.215874
55.675 11.969269
55.680 11.623692
55.685 11.719526
55.690 11.543169
55.695 11.733652
55.700 11.645197
55.705 12.028413
55.710 11.879241
55.715 12.187007
55.720 12.19283
55.725 12.29239
55.730 13.019991
55.735 13.381994
55.740 13.444003
55.745 14.048505
55.750 14.291931
55.755 13.945424
55.760 14.107095
55.765 14.123031
55.770 14.065122
55.775 14.485136
55.780 14.143108
55.785 13.943851
55.790 14.079281
55.795 14.102253
55.800 13.843497
55.805 13.416179
55.810 12.499887
55.815 12.459689
55.820 12.57532
55.825 12.462803
55.830 12.196478
55.835 12.411106
55.840 12.978114
55.845 13.395179
55.850 13.856105
55.855 13.564132
55.860 13.692136
55.865 13.804085
55.870 13.256899
55.875 13.127889
55.880 12.65755
55.885 12.801572
55.890 12.788273
55.895 12.704808
55.900 12.18177
55.905 12.001558
55.910 12.077959
55.915 12.405635
55.920 12.034136
55.925 12.180834
55.930 12.598887
55.935 13.493062
55.940 13.690316
55.945 13.643975
55.950 13.478132
55.955 13.79403
55.960 13.578012
55.965 13.123206
55.970 12.953237
55.975 12.718482
55.980 12.983356
55.985 12.865713
55.990 12.777238
55.995 12.523049
56.000 12.585178
56.005 12.638021
56.010 12.785865
56.015 12.013085
56.020 12.469135
56.025 12.638103
56.030 13.113654
56.035 12.985288
56.040 12.629981
56.045 12.5431
56.050 12.861979
56.055 12.221506
56.060 12.196772
56.065 12.129721
56.070 12.356186
56.075 12.88027
56.080 13.159585
56.085 13.569696
56.090 14.164446
56.095 14.33612
56.100 14.442857
56.105 14.133018
56.110 14.389147
56.115 14.553131
56.120 14.416283
56.125 14.106611
56.130 13.934228
56.135 13.923749
56.140 14.085154
56.145 13.756459
56.150 13.881642
56.155 13.751867
56.160 13.90332
56.165 13.358361
56.170 13.256201
56.175 13.075875
56.180 12.813713
56.185 12.721935
56.190 12.528191
56.195 12.938756
56.200 13.804958
56.205 13.913846
56.210 13.710593
56.215 13.565362
56.220 13.888766
56.225 14.294089
56.230 14.182038
56.235 13.8394
56.240 13.999746
56.245 14.693696
56.250 14.998302
56.255 14.619137
56.260 14.686504
56.265 14.710773
56.270 14.76664
56.275 14.960419
56.280 14.746143
56.285 14.680301
56.290 14.572901
56.295 14.061769
56.300 13.93963
56.305 13.768091
56.310 13.217171
56.315 12.820971
56.320 12.792227
56.325 12.663995
56.330 12.66146
56.335 12.826207
56.340 12.853623
56.345 12.906985
56.350 12.976217
56.355 13.122711
56.360 13.437072
56.365 13.596267
56.370 13.384237
56.375 13.303252
56.380 13.444889
56.385 13.518832
56.390 13.312803
56.395 12.989839
56.400 12.576511
56.405 12.315661
56.410 12.707648
56.415 12.860148
56.420 12.986042
56.425 13.162082
56.430 13.180899
56.435 13.653605
56.440 13.691899
56.445 13.402109
56.450 13.318247
56.455 13.378276
56.460 13.448879
56.465 13.97059
56.470 13.805885
56.475 13.887836
56.480 13.915444
56.485 13.67972
56.490 13.930311
56.495 14.541049
56.500 14.234821
56.505 14.384936
56.510 14.586651
56.515 14.738774
56.520 14.868258
56.525 14.492317
56.530 13.747275
56.535 13.782361
56.540 13.404943
56.545 12.853208
56.550 12.971332
56.555 13.448944
56.560 13.232774
56.565 13.064422
56.570 12.911646
56.575 12.787606
56.580 13.195538
56.585 12.963917
56.590 12.457381
56.595 12.432215
56.600 12.186057
56.605 12.398314
56.610 12.606041
56.615 12.280786
56.620 12.003178
56.625 12.108817
56.630 12.012602
56.635 12.044002
56.640 12.596649
56.645 12.879263
56.650 13.544647
56.655 13.858048
56.660 14.0349
56.665 14.285999
56.670 14.527885
56.675 14.159363
56.680 13.910974
56.685 13.799453
56.690 13.997614
56.695 14.504497
56.700 15.089772
56.705 15.366732
56.710 15.40153
56.715 15.749595
56.720 16.010754
56.725 15.987
56.730 15.653463
56.735 15.463886
56.740 15.142709
56.745 15.388034
56.750 14.84355
56.755 14.218484
56.760 13.914849
56.765 13.923022
56.770 14.085763
56.775 14.032519
56.780 14.012851
56.785 14.233624
56.790 14.333991
56.795 14.357357
56.800 14.311229
56.805 13.890096
56.810 14.084793
56.815 13.545792
56.820 13.461025
56.825 13.858451
56.830 13.88395
56.835 13.284194
56.840 13.295145
56.845 13.31394
56.850 13.899015
56.855 14.264191
56.860 13.712293
56.865 13.827899
56.870 14.053987
56.875 14.396783
56.880 14.583344
56.885 14.392068
56.890 14.270258
56.895 15.000272
56.900 15.356483
56.905 15.821127
56.910 15.383165
56.915 15.131389
56.920 14.822122
56.925 14.65564
56.930 13.990548
56.935 13.454846
56.940 13.673584
56.945 13.652201
56.950 13.997819
56.955 14.419635
56.960 14.697437
56.965 14.758197
56.970 14.810868
56.975 14.572845
56.980 14.55278
56.985 14.364212
56.990 13.893135
56.995 13.87184
57.000 14.372149
57.005 14.755219
57.010 14.717443
57.015 14.889515
57.020 15.172223
57.025 15.429041
57.030 15.229758
57.035 14.530133
57.040 14.18265
57.045 14.130001
57.050 14.00603
57.055 13.606519
57.060 13.415003
57.065 13.228955
57.070 13.295313
57.075 13.736374
57.080 13.665684
57.085 13.655098
57.090 13.48314
57.095 13.583978
57.100 13.965452
57.105 13.949867
57.110 13.745231
57.115 13.801672
57.120 14.161956
57.125 14.710777
57.130 14.399824
57.135 14.723507
57.140 14.76298
57.145 15.206441
57.150 14.974986
57.155 14.424907
57.160 14.010323
57.165 13.833416
57.170 13.541914
57.175 13.565954
57.180 13.134933
57.185 12.790709
57.190 13.094077
57.195 13.514576
57.200 13.563155
57.205 13.477699
57.210 13.472675
57.215 13.840181
57.220 14.375278
57.225 14.163427
57.230 14.186759
57.235 14.499366
57.240 14.360487
57.245 14.342363
57.250 13.956868
57.255 13.335521
57.260 13.216666
57.265 13.542598
57.270 13.80912
57.275 14.294977
57.280 14.198172
57.285 14.144166
57.290 14.765836
57.295 14.851953
57.300 14.325693
57.305 14.243835
57.310 14.007164
57.315 13.964504
57.320 14.20888
57.325 14.395268
57.330 14.854359
57.335 15.102081
57.340 15.23507
57.345 15.759159
57.350 16.372032
57.355 16.263235
57.360 16.024563
57.365 15.853671
57.370 15.659018
57.375 15.703262
57.380 15.359779
57.385 15.275314
57.390 15.28524
57.395 15.718398
57.400 16.208902
57.405 16.128181
57.410 15.803485
57.415 15.875024
57.420 16.012232
57.425 16.093487
57.430 15.53674
57.435 14.977233
57.440 14.830438
57.445 14.753005
57.450 14.574553
57.455 14.21961
57.460 14.078021
57.465 14.349153
57.470 14.152386
57.475 14.253982
57.480 14.248391
57.485 14.016866
57.490 14.015456
57.495 13.837527
57.500 13.347462
57.505 13.259089
57.510 12.632307
57.515 12.611053
57.520 12.693804
57.525 12.356619
57.530 12.395892
57.535 13.182945
57.540 13.692698
57.545 14.518581
57.550 14.767747
57.555 15.371353
57.560 16.073608
57.565 15.861677
57.570 15.24684
57.575 15.268568
57.580 15.063236
57.585 14.411983
57.590 13.887604
57.595 13.702467
57.600 13.948793
57.605 14.224338
57.610 14.302046
57.615 14.494777
57.620 15.170814
57.625 15.727999
57.630 15.950032
57.635 15.935323
57.640 15.824609
57.645 15.770643
57.650 15.611372
57.655 16.101675
57.660 16.172901
57.665 16.368002
57.670 16.515507
57.675 15.985182
57.680 16.103178
57.685 15.983794
57.690 15.063284
57.695 15.056992
57.700 14.710974
57.705 14.678143
57.710 15.127185
57.715 14.809822
57.720 15.012567
57.725 15.041215
57.730 15.301457
57.735 15.485534
57.740 15.343822
57.745 15.08748
57.750 15.184582
57.755 15.130804
57.760 15.129034
57.765 14.727427
57.770 14.537032
57.775 14.734964
57.780 15.225777
57.785 15.724914
57.790 15.581582
57.795 15.852777
57.800 15.640443
57.805 16.081795
57.810 16.391846
57.815 16.029785
57.820 15.868161
57.825 16.231256
57.830 16.36944
57.835 16.484549
57.840 16.105827
57.845 16.434038
57.850 16.864836
57.855 16.845858
57.860 16.557598
57.865 15.990458
57.870 15.791656
57.875 16.072361
57.880 15.499335
57.885 14.802984
57.890 14.624681
57.895 13.965388
57.900 14.40854
57.905 14.753561
57.910 14.458923
57.915 14.87037
57.920 15.312681
57.925 15.034767
57.930 15.798775
57.935 15.75993
57.940 16.107508
57.945 15.973924
57.950 16.129494
57.955 15.978508
57.960 15.960601
57.965 15.849209
57.970 16.5082
57.975 16.334204
57.980 17.033915
57.985 17.208584
57.990 17.297192
57.995 18.024612
58.000 18.012186
58.005 17.440062
58.010 17.013786
58.015 16.717527
58.020 16.561985
58.025 17.119444
58.030 17.431465
58.035 17.784302
58.040 18.458212
58.045 18.488232
58.050 19.015268
58.055 19.232992
58.060 18.423258
58.065 18.271366
58.070 18.049204
58.075 17.918203
58.080 18.028553
58.085 17.308767
58.090 16.947542
58.095 16.951471
58.100 16.327833
58.105 16.178232
58.110 16.274717
58.115 16.658695
58.120 17.120552
58.125 17.609108
58.130 17.970716
58.135 17.753929
58.140 17.197645
58.145 16.879562
58.150 16.601526
58.155 16.154108
58.160 15.353073
58.165 15.024093
58.170 15.743592
58.175 15.983694
58.180 15.803389
58.185 15.428602
58.190 15.661365
58.195 16.261236
58.200 16.912575
58.205 16.945251
58.210 17.363911
58.215 17.861132
58.220 18.246731
58.225 19.012365
58.230 19.510767
58.235 19.502363
58.240 19.703081
58.245 19.719433
58.250 19.724312
58.255 19.608644
58.260 19.262991
58.265 19.137173
58.270 19.228743
58.275 19.001873
58.280 19.066589
58.285 18.69453
58.290 18.572357
58.295 18.611477
58.300 18.408306
58.305 18.593304
58.310 19.494547
58.315 19.860329
58.320 20.631557
58.325 20.805397
58.330 20.82065
58.335 21.05868
58.340 20.497
58.345 20.290783
58.350 20.295546
58.355 20.176373
58.360 20.313095
58.365 20.235067
58.370 20.199099
58.375 20.274187
58.380 19.617479
58.385 19.412603
58.390 20.184017
58.395 20.602703
58.400 20.600912
58.405 20.780926
58.410 21.06464
58.415 21.665276
58.420 22.067406
58.425 21.650084
58.430 22.056892
58.435 22.533142
58.440 22.763996
58.445 23.378527
58.450 23.952742
58.455 24.126631
