!@!!GADDS PLOTSO FILE: Chi integration type
!@!!Title/SampleName: map-14a
!@!!Comment: ?
!@!!User: Bruker Instrument Administrator
!@!!Site: University of Illinois Chicago
!@!!Frame: map-14a_01_000.gfrm
!@!!Wavelengths    1.54184   1.54056   1.54439
!@!!Frame angles: 2Theta: 63.000 Omega: 50.000 Phi: 0.000 Chi: 90.000
!@!!Integration range: 2Theta: 53.000 to 73.000  Gamma: -105.000 to -75.000
!@!!Integration method: bin normalized
!@!N
!@!SS
!@!M
!@!L 0.0 0.0 0.0 0.0
!@!XDegrees
!@!YCounts
53.000 9.852266
53.005 9.448415
53.010 9.290738
53.015 9.322505
53.020 9.103566
53.025 9.245488
53.030 9.030477
53.035 8.962284
53.040 9.21586
53.045 9.405149
53.050 9.272997
53.055 8.695129
53.060 8.367119
53.065 8.698586
53.070 9.048221
53.075 9.504077
53.080 9.473741
53.085 9.713319
53.090 10.342248
53.095 10.362856
53.100 10.295564
53.105 9.789185
53.110 9.629875
53.115 9.390416
53.120 9.387361
53.125 8.83641
53.130 8.692101
53.135 8.481352
53.140 8.610348
53.145 8.711938
53.150 8.958172
53.155 8.820322
53.160 8.982477
53.165 8.83147
53.170 8.785485
53.175 8.77458
53.180 8.478709
53.185 7.833818
53.190 7.731761
53.195 7.78383
53.200 8.370135
53.205 8.421574
53.210 8.648042
53.215 9.047039
53.220 9.624049
53.225 9.88657
53.230 9.635309
53.235 9.043939
53.240 9.365479
53.245 9.337855
53.250 9.607958
53.255 9.399624
53.260 9.566168
53.265 9.807775
53.270 9.865054
53.275 9.665993
53.280 9.176163
53.285 9.126894
53.290 8.981387
53.295 8.879694
53.300 9.054252
53.305 9.057891
53.310 8.905112
53.315 8.842501
53.320 8.895293
53.325 9.100194
53.330 9.293491
53.335 9.380931
53.340 9.22448
53.345 9.597962
53.350 9.260137
53.355 9.15021
53.360 9.247386
53.365 8.796137
53.370 8.565145
53.375 8.255247
53.380 8.240296
53.385 8.729974
53.390 8.374212
53.395 8.232855
53.400 8.431328
53.405 8.850312
53.410 9.127799
53.415 9.134722
53.420 9.220964
53.425 9.45302
53.430 10.112159
53.435 10.256138
53.440 10.225735
53.445 10.462022
53.450 10.300549
53.455 10.521031
53.460 10.227996
53.465 9.589386
53.470 9.276811
53.475 8.923573
53.480 8.901598
53.485 9.280527
53.490 9.095518
53.495 9.210928
53.500 9.328465
53.505 9.541303
53.510 9.674333
53.515 9.232415
53.520 8.724446
53.525 8.951341
53.530 9.10702
53.535 9.366831
53.540 9.385948
53.545 9.388423
53.550 9.384065
53.555 9.503265
53.560 9.393371
53.565 9.551524
53.570 9.391557
53.575 9.454494
53.580 9.550424
53.585 9.654636
53.590 9.636682
53.595 9.571746
53.600 9.274454
53.605 9.370988
53.610 9.045064
53.615 9.435124
53.620 9.888667
53.625 10.087265
53.630 9.957533
53.635 9.985241
53.640 9.982436
53.645 10.164039
53.650 9.581422
53.655 9.133795
53.660 8.955893
53.665 8.900017
53.670 8.627737
53.675 8.785423
53.680 9.015642
53.685 8.891128
53.690 8.823984
53.695 9.424643
53.700 10.102169
53.705 10.160057
53.710 10.059281
53.715 9.976433
53.720 10.543718
53.725 10.398087
53.730 9.77773
53.735 9.342303
53.740 9.477
53.745 9.54353
53.750 9.60035
53.755 9.336475
53.760 9.353367
53.765 9.752213
53.770 9.49398
53.775 9.488618
53.780 9.371797
53.785 9.954022
53.790 10.456882
53.795 10.630828
53.800 10.956357
53.805 11.108994
53.810 11.387537
53.815 11.398238
53.820 10.907483
53.825 11.070506
53.830 10.980169
53.835 11.092505
53.840 10.973417
53.845 10.826349
53.850 10.983016
53.855 11.159247
53.860 11.205352
53.865 11.385288
53.870 10.790214
53.875 10.609375
53.880 10.375583
53.885 9.939534
53.890 9.918655
53.895 9.551034
53.900 9.434964
53.905 9.692743
53.910 9.60086
53.915 9.77556
53.920 9.752824
53.925 9.778753
53.930 10.327468
53.935 10.310182
53.940 10.352701
53.945 10.383757
53.950 10.220922
53.955 10.319112
53.960 9.820673
53.965 9.496662
53.970 9.661274
53.975 9.81189
53.980 9.811647
53.985 9.822908
53.990 9.504672
53.995 9.142433
54.000 9.076492
54.005 9.183106
54.010 8.895162
54.015 8.905568
54.020 9.08469
54.025 9.468985
54.030 9.874581
54.035 9.583012
54.040 9.921942
54.045 10.746692
54.050 11.434816
54.055 11.499804
54.060 11.134891
54.065 11.083417
54.070 11.364102
54.075 11.023631
54.080 10.978858
54.085 10.733722
54.090 10.53293
54.095 10.555931
54.100 10.627363
54.105 10.507402
54.110 10.711539
54.115 10.111848
54.120 10.153303
54.125 10.551623
54.130 10.88479
54.135 10.858184
54.140 10.677227
54.145 10.562695
54.150 10.507496
54.155 10.654298
54.160 10.279578
54.165 9.59037
54.170 9.437674
54.175 9.463362
54.180 9.815265
54.185 9.706791
54.190 9.536942
54.195 9.889933
54.200 10.26143
54.205 10.238025
54.210 9.6099
54.215 9.174818
54.220 9.036238
54.225 8.692464
54.230 8.358173
54.235 8.347496
54.240 8.454404
54.245 9.067945
54.250 9.49171
54.255 9.638789
54.260 9.805084
54.265 10.116158
54.270 9.757437
54.275 9.628441
54.280 8.927152
54.285 8.721851
54.290 9.027973
54.295 9.140516
54.300 9.141412
54.305 9.283739
54.310 9.523397
54.315 9.718222
54.320 9.563337
54.325 9.582837
54.330 9.130569
54.335 9.277437
54.340 9.265897
54.345 9.449129
54.350 9.915706
54.355 9.847861
54.360 9.840574
54.365 10.297683
54.370 10.325334
54.375 9.987565
54.380 9.880926
54.385 9.910963
54.390 10.085696
54.395 9.688666
54.400 9.646882
54.405 10.022277
54.410 10.426373
54.415 10.05505
54.420 9.776946
54.425 9.952788
54.430 10.405457
54.435 10.331163
54.440 9.998803
54.445 9.585414
54.450 9.605702
54.455 9.604969
54.460 9.319123
54.465 8.836466
54.470 8.896807
54.475 9.193915
54.480 9.127897
54.485 8.916749
54.490 9.085715
54.495 9.302764
54.500 9.682464
54.505 9.341107
54.510 9.15728
54.515 9.593209
54.520 9.779567
54.525 9.523243
54.530 9.529114
54.535 9.303401
54.540 9.859225
54.545 9.88891
54.550 9.985733
54.555 9.973245
54.560 10.244063
54.565 10.16648
54.570 10.27926
54.575 9.99548
54.580 10.229571
54.585 10.068512
54.590 10.006543
54.595 10.364129
54.600 10.338985
54.605 10.108097
54.610 9.904089
54.615 9.612022
54.620 9.583265
54.625 9.607635
54.630 9.21844
54.635 9.18294
54.640 9.916142
54.645 10.38314
54.650 10.439017
54.655 10.636704
54.660 10.379628
54.665 10.45118
54.670 10.3949
54.675 9.541585
54.680 9.26209
54.685 9.126706
54.690 9.219871
54.695 9.464856
54.700 9.53384
54.705 9.548675
54.710 9.568529
54.715 9.874559
54.720 9.96946
54.725 9.750521
54.730 9.530185
54.735 9.335839
54.740 9.549792
54.745 9.558125
54.750 9.698221
54.755 9.715759
54.760 9.722916
54.765 10.086136
54.770 10.404117
54.775 10.364697
54.780 10.385247
54.785 10.386805
54.790 10.301902
54.795 10.201695
54.800 10.141628
54.805 9.706164
54.810 10.14606
54.815 10.10361
54.820 10.064078
54.825 10.008705
54.830 10.044496
54.835 9.982101
54.840 9.553124
54.845 9.127414
54.850 9.170451
54.855 9.140618
54.860 9.460237
54.865 9.790092
54.870 10.02535
54.875 10.585869
54.880 10.300474
54.885 10.279567
54.890 10.32294
54.895 10.463511
54.900 10.504996
54.905 10.468351
54.910 10.408082
54.915 10.823539
54.920 11.084105
54.925 11.016306
54.930 10.972378
54.935 10.991637
54.940 10.859081
54.945 11.023918
54.950 11.08712
54.955 10.755546
54.960 10.765883
54.965 10.576237
54.970 10.576623
54.975 11.250473
54.980 11.52546
54.985 11.866806
54.990 12.379812
54.995 12.701612
55.000 12.225892
55.005 11.813527
55.010 11.257383
55.015 11.01843
55.020 10.73447
55.025 10.835417
55.030 10.827993
55.035 11.233971
55.040 11.134883
55.045 10.951515
55.050 10.800653
55.055 10.501378
55.060 10.015378
55.065 9.527529
55.070 9.854581
55.075 10.456175
55.080 10.659415
55.085 10.835506
55.090 10.778867
55.095 11.114225
55.100 11.576255
55.105 11.121843
55.110 10.813667
55.115 10.902765
55.120 11.326315
55.125 11.393229
55.130 11.178199
55.135 11.13201
55.140 11.197381
55.145 11.14169
55.150 10.634838
55.155 10.362961
55.160 10.436048
55.165 10.285875
55.170 10.553404
55.175 11.113884
55.180 11.512773
55.185 11.873632
55.190 11.968188
55.195 11.819869
55.200 12.092841
55.205 11.593261
55.210 11.088111
55.215 10.925713
55.220 10.347631
55.225 10.196141
55.230 10.227296
55.235 10.081205
55.240 10.146437
55.245 9.828957
55.250 10.043777
55.255 10.298035
55.260 10.387856
55.265 10.533001
55.270 10.473023
55.275 10.96017
55.280 11.302436
55.285 10.954209
55.290 10.458346
55.295 10.426118
55.300 10.499928
55.305 10.09253
55.310 9.699409
55.315 9.74136
55.320 9.364988
55.325 9.988355
55.330 9.886548
55.335 9.722178
55.340 9.916145
55.345 9.798905
55.350 9.843081
55.355 10.245562
55.360 10.121227
55.365 9.910188
55.370 9.928654
55.375 9.916165
55.380 9.912681
55.385 9.841246
55.390 9.856384
55.395 9.75607
55.400 9.662982
55.405 9.68884
55.410 9.847209
55.415 9.764903
55.420 9.840985
55.425 9.674756
55.430 9.697657
55.435 9.546307
55.440 9.367545
55.445 9.086541
55.450 9.182161
55.455 9.221042
55.460 9.001504
55.465 9.802126
55.470 10.446553
55.475 10.648258
55.480 10.457738
55.485 10.24397
55.490 10.645411
55.495 10.699717
55.500 10.13975
55.505 9.947933
55.510 10.432328
55.515 10.704781
55.520 10.831281
55.525 10.694454
55.530 10.713013
55.535 11.001083
55.540 10.869376
55.545 10.52698
55.550 10.794756
55.555 10.656303
55.560 10.466882
55.565 10.289739
55.570 9.692215
55.575 9.417717
55.580 9.219707
55.585 9.650619
55.590 9.844792
55.595 9.549807
55.600 9.553241
55.605 9.720192
55.610 9.915017
55.615 9.851781
55.620 9.013209
55.625 8.955855
55.630 8.956272
55.635 8.723756
55.640 8.681316
55.645 9.070556
55.650 9.496191
55.655 9.902045
55.660 9.751042
55.665 9.840361
55.670 9.681861
55.675 9.448728
55.680 9.043082
55.685 8.928005
55.690 9.125818
55.695 9.326507
55.700 10.038393
55.705 10.453981
55.710 10.670806
55.715 10.9031
55.720 10.788998
55.725 11.038383
55.730 11.22463
55.735 10.961748
55.740 11.074282
55.745 11.153977
55.750 10.777373
55.755 10.834332
55.760 10.360067
55.765 9.89908
55.770 9.41929
55.775 9.060179
55.780 9.264215
55.785 9.31965
55.790 9.187134
55.795 9.052222
55.800 9.484748
55.805 9.939259
55.810 10.076824
55.815 10.338247
55.820 10.310116
55.825 10.57842
55.830 10.689605
55.835 10.554216
55.840 10.534167
55.845 10.313001
55.850 9.988407
55.855 9.978727
55.860 9.945563
55.865 9.874727
55.870 9.969949
55.875 9.751204
55.880 9.74968
55.885 9.991287
55.890 9.913995
55.895 9.413915
55.900 9.731454
55.905 9.839315
55.910 10.623176
55.915 10.592035
55.920 10.36727
55.925 10.376838
55.930 10.798516
55.935 10.522612
55.940 10.604254
55.945 9.827235
55.950 9.7525
55.955 9.934223
55.960 9.992944
55.965 9.946037
55.970 9.620621
55.975 9.421877
55.980 9.852965
55.985 9.9653
55.990 10.138908
55.995 10.596504
56.000 10.960983
56.005 11.204739
56.010 10.968157
56.015 11.125206
56.020 11.203614
56.025 11.173316
56.030 11.067221
56.035 11.29685
56.040 11.323543
56.045 11.66413
56.050 11.831035
56.055 11.524982
56.060 11.624617
56.065 11.568686
56.070 11.332069
56.075 11.505642
56.080 11.416448
56.085 11.280983
56.090 11.445932
56.095 11.609684
56.100 11.546031
56.105 11.535085
56.110 11.189218
56.115 11.124031
56.120 11.11687
56.125 10.592576
56.130 9.92616
56.135 9.929654
56.140 9.954799
56.145 10.137097
56.150 9.893492
56.155 10.032903
56.160 10.358745
56.165 10.595874
56.170 10.445701
56.175 10.108304
56.180 9.798786
56.185 9.711663
56.190 9.953835
56.195 9.855397
56.200 9.761646
56.205 9.685907
56.210 9.945114
56.215 10.473055
56.220 10.678552
56.225 10.715045
56.230 10.594638
56.235 10.471478
56.240 10.643517
56.245 10.616159
56.250 10.092334
56.255 9.762997
56.260 9.486014
56.265 9.589647
56.270 9.358706
56.275 9.412862
56.280 9.239242
56.285 9.60992
56.290 9.684134
56.295 9.712428
56.300 9.684618
56.305 9.69154
56.310 9.490887
56.315 9.438792
56.320 9.244121
56.325 8.984794
56.330 9.077991
56.335 9.408991
56.340 9.79138
56.345 10.180825
56.350 10.275311
56.355 10.621316
56.360 10.658491
56.365 10.9004
56.370 11.02227
56.375 11.109243
56.380 10.902534
56.385 10.7822
56.390 10.489038
56.395 10.599493
56.400 10.62004
56.405 10.739487
56.410 11.023488
56.415 11.063635
56.420 10.925874
56.425 11.253389
56.430 11.297583
56.435 11.387083
56.440 10.651421
56.445 10.32694
56.450 10.773812
56.455 11.227719
56.460 11.623569
56.465 11.789581
56.470 11.655309
56.475 12.263695
56.480 12.637699
56.485 12.16201
56.490 12.502526
56.495 12.708323
56.500 12.741901
56.505 12.832353
56.510 12.63499
56.515 12.557182
56.520 12.810936
56.525 12.532861
56.530 12.34111
56.535 11.587766
56.540 11.311304
56.545 11.486215
56.550 11.538074
56.555 11.505957
56.560 11.121907
56.565 11.087554
56.570 11.440613
56.575 11.334914
56.580 10.87566
56.585 11.02421
56.590 11.171385
56.595 11.117136
56.600 11.129395
56.605 11.196816
56.610 11.403218
56.615 11.433311
56.620 11.043096
56.625 10.890466
56.630 10.895724
56.635 10.699559
56.640 10.812509
56.645 10.853029
56.650 11.115646
56.655 11.506458
56.660 12.163384
56.665 12.094175
56.670 12.429015
56.675 12.543126
56.680 12.244966
56.685 12.094357
56.690 11.955921
56.695 12.329123
56.700 12.096285
56.705 11.517331
56.710 11.324658
56.715 11.400664
56.720 11.414943
56.725 11.233508
56.730 10.612265
56.735 10.96002
56.740 11.046529
56.745 10.865751
56.750 11.214897
56.755 11.136219
56.760 11.152994
56.765 10.894203
56.770 10.611728
56.775 10.501517
56.780 10.409432
56.785 10.056409
56.790 10.111587
56.795 9.555003
56.800 9.281631
56.805 9.850794
56.810 10.157387
56.815 10.526617
56.820 10.477544
56.825 10.418444
56.830 11.206586
56.835 11.589918
56.840 11.261208
56.845 11.087146
56.850 10.952341
56.855 10.903618
56.860 10.790312
56.865 10.614267
56.870 10.695648
56.875 10.702592
56.880 10.810955
56.885 10.578009
56.890 10.553912
56.895 10.531886
56.900 10.175808
56.905 10.196109
56.910 10.222189
56.915 10.041917
56.920 10.415477
56.925 10.661534
56.930 11.081068
56.935 11.698883
56.940 11.561423
56.945 11.224348
56.950 11.083158
56.955 10.732698
56.960 10.289214
56.965 9.797153
56.970 9.139261
56.975 9.67184
56.980 10.20636
56.985 10.383677
56.990 10.296129
56.995 10.587244
57.000 11.122637
57.005 11.495367
57.010 11.1238
57.015 11.084548
57.020 11.400599
57.025 11.511193
57.030 11.435776
57.035 11.148391
57.040 11.632379
57.045 11.859861
57.050 12.075026
57.055 11.89878
57.060 11.845867
57.065 11.680335
57.070 11.691547
57.075 10.570298
57.080 10.193059
57.085 9.81685
57.090 9.893493
57.095 9.623908
57.100 9.532744
57.105 9.428951
57.110 9.309967
57.115 9.157825
57.120 9.164948
57.125 9.24146
57.130 9.247082
57.135 9.254663
57.140 9.309691
57.145 9.673201
57.150 9.962172
57.155 10.075957
57.160 10.402449
57.165 10.464551
57.170 10.248637
57.175 9.757145
57.180 9.603715
57.185 9.359256
57.190 9.635508
57.195 9.76099
57.200 10.143501
57.205 10.577763
57.210 10.839006
57.215 10.789452
57.220 10.537869
57.225 10.31523
57.230 10.397171
57.235 10.653666
57.240 10.624405
57.245 10.811835
57.250 10.854497
57.255 10.692001
57.260 10.3093
57.265 9.656716
57.270 8.954313
57.275 9.286997
57.280 9.255875
57.285 9.422632
57.290 9.411687
57.295 9.448229
57.300 9.979746
57.305 10.184735
57.310 10.203104
57.315 10.604382
57.320 10.968195
57.325 10.705543
57.330 10.713162
57.335 10.72149
57.340 10.849913
57.345 10.604099
57.350 10.102245
57.355 9.468645
57.360 9.698988
57.365 9.936188
57.370 9.95273
57.375 9.872688
57.380 10.172763
57.385 10.36445
57.390 11.074747
57.395 11.252197
57.400 10.848861
57.405 10.349817
57.410 9.676208
57.415 9.060605
57.420 9.16966
57.425 8.740093
57.430 8.786116
57.435 8.966615
57.440 9.126419
57.445 9.4937
57.450 9.857502
57.455 9.994494
57.460 10.374439
57.465 10.36522
57.470 10.187995
57.475 10.246946
57.480 10.485028
57.485 10.422711
57.490 10.237183
57.495 9.73969
57.500 9.80804
57.505 10.064472
57.510 9.861975
57.515 9.575061
57.520 9.328272
57.525 9.083696
57.530 9.343078
57.535 9.670795
57.540 9.789876
57.545 10.372804
57.550 10.72837
57.555 10.958369
57.560 11.22674
57.565 11.172836
57.570 10.729937
57.575 10.501026
57.580 10.296249
57.585 9.946689
57.590 9.968805
57.595 10.138274
57.600 10.549336
57.605 11.018369
57.610 11.069776
57.615 10.767171
57.620 10.978853
57.625 11.190532
57.630 10.222541
57.635 9.796404
57.640 10.032131
57.645 10.087428
57.650 10.082249
57.655 9.901623
57.660 10.143591
57.665 11.05115
57.670 10.820524
57.675 10.395001
57.680 10.27447
57.685 10.626854
57.690 10.655405
57.695 10.218442
57.700 9.863431
57.705 10.338922
57.710 10.437099
57.715 10.672112
57.720 10.805429
57.725 11.471393
57.730 12.376884
57.735 12.504229
57.740 11.71896
57.745 11.435184
57.750 11.276858
57.755 10.818197
57.760 10.044597
57.765 9.347013
57.770 9.310601
57.775 9.302463
57.780 9.766919
57.785 9.935198
57.790 9.677489
57.795 9.87377
57.800 9.894945
57.805 10.24922
57.810 10.540694
57.815 10.280452
57.820 10.120877
57.825 9.793837
57.830 9.93334
57.835 9.539194
57.840 8.989669
57.845 9.16048
57.850 9.220049
57.855 9.969007
57.860 10.606689
57.865 10.403958
57.870 11.203208
57.875 11.668166
57.880 11.625296
57.885 11.516746
57.890 11.080091
57.895 10.926711
57.900 11.025665
57.905 10.949462
57.910 10.498278
57.915 10.376291
57.920 10.30128
57.925 10.228302
57.930 10.406785
57.935 10.335811
57.940 10.252382
57.945 10.462573
57.950 10.312527
57.955 10.38685
57.960 10.461102
57.965 10.573483
57.970 10.343554
57.975 10.057118
57.980 10.037291
57.985 10.046234
57.990 10.176684
57.995 10.655359
58.000 10.709011
58.005 10.60288
58.010 10.607806
58.015 10.613381
58.020 10.817126
58.025 10.86161
58.030 10.14796
58.035 9.893204
58.040 10.509924
58.045 10.995118
58.050 11.266269
58.055 11.365922
58.060 10.979401
58.065 11.312083
58.070 11.771963
58.075 11.488113
58.080 11.083086
58.085 10.796899
58.090 10.449778
58.095 10.603098
58.100 10.401724
58.105 10.126307
58.110 9.643521
58.115 9.956256
58.120 10.221158
58.125 10.486269
58.130 10.271176
58.135 10.519127
58.140 10.801801
58.145 10.91547
58.150 10.63706
58.155 10.345593
58.160 10.596018
58.165 10.879975
58.170 10.54476
58.175 10.266742
58.180 10.53166
58.185 10.378322
58.190 10.682384
58.195 10.749236
58.200 10.714084
58.205 10.982501
58.210 10.956861
58.215 10.950379
58.220 11.464232
58.225 11.212089
58.230 10.861613
58.235 10.892267
58.240 10.660016
58.245 11.019382
58.250 10.946008
58.255 11.054331
58.260 11.383639
58.265 11.03231
58.270 10.527042
58.275 10.172731
58.280 10.313464
58.285 10.486565
58.290 9.596137
58.295 9.179691
58.300 9.80701
58.305 10.370365
58.310 10.519054
58.315 9.869199
58.320 9.362901
58.325 9.747766
58.330 9.66608
58.335 9.416975
58.340 9.612782
58.345 10.249513
58.350 10.528378
58.355 10.703543
58.360 10.485094
58.365 10.642878
58.370 10.51519
58.375 10.672037
58.380 10.267308
58.385 10.388563
58.390 10.870858
58.395 11.172945
58.400 11.416639
58.405 11.555913
58.410 11.457955
58.415 11.220312
58.420 11.191236
58.425 11.246684
58.430 11.576257
58.435 11.316669
58.440 10.382483
58.445 9.992002
58.450 10.348827
58.455 10.238866
58.460 10.131615
58.465 9.860435
58.470 10.505507
58.475 11.158635
58.480 11.526064
58.485 11.730484
58.490 11.996658
58.495 11.858193
58.500 11.775498
58.505 11.738758
58.510 11.860357
58.515 11.696544
58.520 11.438317
58.525 11.36902
58.530 11.321719
58.535 11.430757
58.540 11.156931
58.545 10.83166
58.550 10.913796
58.555 10.967231
58.560 10.559175
58.565 10.699255
58.570 10.62467
58.575 10.789508
58.580 11.325339
