!@!!GADDS PLOTSO FILE: Chi integration type
!@!!Title/SampleName: map-13c
!@!!Comment: ?
!@!!User: Bruker Instrument Administrator
!@!!Site: University of Illinois Chicago
!@!!Frame: map-13c_01_000.gfrm
!@!!Wavelengths    1.54184   1.54056   1.54439
!@!!Frame angles: 2Theta: 63.000 Omega: 50.000 Phi: 0.000 Chi: 90.000
!@!!Integration range: 2Theta: 53.000 to 73.000  Gamma: -105.000 to -75.000
!@!!Integration method: bin normalized
!@!N
!@!SS
!@!M
!@!L 0.0 0.0 0.0 0.0
!@!XDegrees
!@!YCounts
53.000 10.499804
53.005 10.814927
53.010 10.650167
53.015 10.528845
53.020 10.823771
53.025 10.680898
53.030 10.622468
53.035 10.581598
53.040 10.886326
53.045 10.988796
53.050 11.035799
53.055 10.944529
53.060 11.084435
53.065 11.204229
53.070 11.149534
53.075 10.930431
53.080 10.868833
53.085 10.87058
53.090 11.137848
53.095 10.984082
53.100 11.046549
53.105 11.253338
53.110 11.631872
53.115 11.563249
53.120 10.977361
53.125 10.4471
53.130 10.532494
53.135 10.805359
53.140 10.610771
53.145 9.8746
53.150 9.984961
53.155 10.701979
53.160 10.996368
53.165 10.471749
53.170 10.202485
53.175 10.4938
53.180 10.46523
53.185 10.668444
53.190 10.659915
53.195 10.994094
53.200 11.063971
53.205 11.139879
53.210 11.308669
53.215 11.279626
53.220 10.968039
53.225 10.784792
53.230 10.504916
53.235 10.702767
53.240 10.719335
53.245 10.378203
53.250 10.365552
53.255 10.410759
53.260 10.599722
53.265 10.797304
53.270 9.988284
53.275 9.626496
53.280 9.863585
53.285 9.756763
53.290 9.529815
53.295 9.458395
53.300 9.345204
53.305 9.768973
53.310 10.01691
53.315 9.994411
53.320 10.965955
53.325 11.486854
53.330 11.66475
53.335 12.0313
53.340 12.119201
53.345 12.393043
53.350 12.19832
53.355 11.538275
53.360 11.093873
53.365 10.944998
53.370 11.290902
53.375 11.25727
53.380 10.864835
53.385 10.872685
53.390 10.668854
53.395 10.65299
53.400 10.466373
53.405 10.081836
53.410 10.137365
53.415 10.677047
53.420 10.886107
53.425 10.909881
53.430 11.248772
53.435 11.376166
53.440 11.491263
53.445 11.714562
53.450 11.771777
53.455 11.642948
53.460 11.793964
53.465 12.220012
53.470 11.999432
53.475 12.036885
53.480 11.732938
53.485 11.424723
53.490 11.986604
53.495 11.855761
53.500 11.581344
53.505 11.583647
53.510 11.684536
53.515 12.101631
53.520 12.649797
53.525 12.202127
53.530 11.667777
53.535 11.411638
53.540 11.055062
53.545 10.600139
53.550 10.090991
53.555 10.314695
53.560 10.872702
53.565 11.414801
53.570 11.379557
53.575 11.816371
53.580 12.03198
53.585 11.859044
53.590 11.317494
53.595 10.717155
53.600 10.696137
53.605 11.034765
53.610 11.46759
53.615 11.720465
53.620 11.565223
53.625 11.450874
53.630 11.03404
53.635 10.608307
53.640 10.205315
53.645 9.669053
53.650 9.759576
53.655 10.202778
53.660 10.907279
53.665 11.678298
53.670 11.914491
53.675 12.022079
53.680 12.283097
53.685 11.995177
53.690 12.065718
53.695 12.084423
53.700 11.785108
53.705 11.899172
53.710 11.896078
53.715 11.894094
53.720 12.505543
53.725 12.099792
53.730 12.520189
53.735 12.985387
53.740 12.890629
53.745 13.180417
53.750 12.961191
53.755 12.336922
53.760 11.968642
53.765 11.452013
53.770 11.11346
53.775 11.204641
53.780 10.927527
53.785 10.821778
53.790 10.474934
53.795 9.981518
53.800 10.084335
53.805 10.360931
53.810 10.221551
53.815 10.076255
53.820 9.946956
53.825 10.329737
53.830 10.472933
53.835 10.560396
53.840 10.317486
53.845 10.162148
53.850 10.109166
53.855 10.06948
53.860 10.449018
53.865 10.46662
53.870 10.46111
53.875 10.864765
53.880 11.335502
53.885 11.44146
53.890 11.752263
53.895 11.818069
53.900 11.722787
53.905 11.411691
53.910 10.908772
53.915 10.338216
53.920 10.620451
53.925 10.179646
53.930 10.107674
53.935 10.480216
53.940 11.150986
53.945 12.048181
53.950 12.163116
53.955 12.207158
53.960 12.563353
53.965 12.601447
53.970 12.267966
53.975 11.589631
53.980 11.574471
53.985 11.82185
53.990 11.549429
53.995 10.982133
54.000 10.828603
54.005 10.972983
54.010 10.985759
54.015 10.484468
54.020 10.420159
54.025 10.58776
54.030 11.72792
54.035 12.087893
54.040 12.154487
54.045 11.818141
54.050 11.833238
54.055 11.760298
54.060 11.258151
54.065 10.458439
54.070 10.513852
54.075 10.951743
54.080 11.716112
54.085 12.095274
54.090 12.254072
54.095 12.479912
54.100 12.742175
54.105 12.416188
54.110 12.038778
54.115 11.877417
54.120 11.734195
54.125 11.723552
54.130 11.510317
54.135 11.623225
54.140 12.004093
54.145 11.861226
54.150 11.757056
54.155 11.870466
54.160 11.771991
54.165 11.384633
54.170 11.467075
54.175 11.354901
54.180 11.26178
54.185 11.460625
54.190 11.655827
54.195 11.753964
54.200 12.445117
54.205 12.244904
54.210 12.451238
54.215 12.328265
54.220 11.665131
54.225 11.546472
54.230 12.043633
54.235 11.761397
54.240 11.471002
54.245 11.869283
54.250 12.559036
54.255 13.342941
54.260 13.901828
54.265 13.545309
54.270 13.25861
54.275 13.262232
54.280 12.955912
54.285 12.21282
54.290 11.915598
54.295 11.57589
54.300 11.396514
54.305 11.579886
54.310 11.336738
54.315 11.408602
54.320 11.631097
54.325 11.109307
54.330 10.858736
54.335 11.059118
54.340 11.110771
54.345 11.44618
54.350 11.625654
54.355 11.628419
54.360 11.976649
54.365 12.086951
54.370 12.047292
54.375 12.199905
54.380 12.021736
54.385 12.008963
54.390 11.850583
54.395 11.930923
54.400 12.10455
54.405 12.234173
54.410 12.01613
54.415 11.829817
54.420 12.041157
54.425 12.280594
54.430 12.329196
54.435 12.534091
54.440 12.663495
54.445 12.709564
54.450 12.646536
54.455 12.543691
54.460 12.348342
54.465 12.098644
54.470 11.594875
54.475 11.422816
54.480 11.597602
54.485 10.923563
54.490 10.960674
54.495 11.435934
54.500 11.911758
54.505 11.756956
54.510 11.705067
54.515 11.93327
54.520 12.185725
54.525 12.15979
54.530 11.60237
54.535 11.762904
54.540 12.340173
54.545 12.33515
54.550 12.034378
54.555 12.210349
54.560 12.205795
54.565 12.088614
54.570 11.960175
54.575 11.792873
54.580 11.808332
54.585 11.941248
54.590 11.498321
54.595 11.162858
54.600 10.964417
54.605 10.97597
54.610 11.028396
54.615 11.096581
54.620 11.633802
54.625 11.89616
54.630 12.221642
54.635 12.494678
54.640 12.311071
54.645 12.088536
54.650 12.022862
54.655 12.218129
54.660 12.371928
54.665 12.390817
54.670 12.101665
54.675 11.932429
54.680 12.110834
54.685 12.133433
54.690 12.051324
54.695 11.451235
54.700 11.494524
54.705 11.787472
54.710 12.29348
54.715 11.883986
54.720 11.540306
54.725 11.389908
54.730 11.707695
54.735 11.582554
54.740 11.184637
54.745 11.456841
54.750 12.222346
54.755 12.706882
54.760 13.11454
54.765 13.14994
54.770 13.173256
54.775 12.558156
54.780 12.414787
54.785 11.57676
54.790 11.066053
54.795 10.686941
54.800 10.85227
54.805 11.258296
54.810 11.983488
54.815 12.142404
54.820 12.743251
54.825 12.879379
54.830 12.72258
54.835 12.377521
54.840 12.287511
54.845 11.818133
54.850 11.883906
54.855 11.87271
54.860 12.027587
54.865 12.245328
54.870 12.574569
54.875 12.734077
54.880 12.372962
54.885 12.275442
54.890 12.010011
54.895 11.618642
54.900 11.493886
54.905 11.608654
54.910 11.530981
54.915 12.392186
54.920 12.172969
54.925 12.47072
54.930 12.980466
54.935 13.442656
54.940 13.321643
54.945 13.638596
54.950 13.80391
54.955 13.728992
54.960 13.265574
54.965 12.983404
54.970 12.564018
54.975 12.218218
54.980 11.476769
54.985 11.099701
54.990 11.282071
54.995 11.128233
55.000 11.395856
55.005 11.72766
55.010 12.356757
55.015 12.594597
55.020 12.783805
55.025 12.964316
55.030 13.309078
55.035 12.716308
55.040 11.948207
55.045 11.822629
55.050 11.223948
55.055 11.216681
55.060 11.256989
55.065 11.552011
55.070 12.017696
55.075 12.07498
55.080 11.98052
55.085 12.250755
55.090 12.254085
55.095 12.59013
55.100 12.631162
55.105 12.599052
55.110 12.7498
55.115 12.730867
55.120 12.567928
55.125 12.08236
55.130 11.423043
55.135 11.18543
55.140 11.196186
55.145 11.352179
55.150 11.182923
55.155 11.684452
55.160 11.995644
55.165 12.102187
55.170 12.174387
55.175 12.42685
55.180 12.713899
55.185 12.989621
55.190 12.337441
55.195 11.874393
55.200 11.951184
55.205 12.261662
55.210 11.918027
55.215 11.880337
55.220 11.569787
55.225 11.982652
55.230 12.572859
55.235 13.016644
55.240 13.049767
55.245 13.262511
55.250 13.182798
55.255 13.578988
55.260 13.716529
55.265 13.654884
55.270 13.488836
55.275 13.60858
55.280 13.678903
55.285 13.982649
55.290 13.541162
55.295 13.211805
55.300 12.639272
55.305 12.093294
55.310 12.076489
55.315 11.779946
55.320 11.323005
55.325 11.882585
55.330 12.629104
55.335 13.349314
55.340 13.647
55.345 13.64773
55.350 13.636743
55.355 13.778177
55.360 13.671099
55.365 13.257754
55.370 12.730495
55.375 12.591032
55.380 12.430984
55.385 12.709137
55.390 12.412968
55.395 12.265789
55.400 12.521337
55.405 12.685799
55.410 12.639267
55.415 12.685223
55.420 12.804986
55.425 13.76334
55.430 13.742087
55.435 14.020269
55.440 14.198891
55.445 14.433443
55.450 14.463669
55.455 14.261311
55.460 13.491823
55.465 13.236454
55.470 13.141407
55.475 13.096282
55.480 12.451838
55.485 12.246666
55.490 12.459565
55.495 12.312956
55.500 11.855457
55.505 11.82774
55.510 11.962476
55.515 12.547817
55.520 12.621861
55.525 12.728716
55.530 13.63396
55.535 13.483204
55.540 13.313443
55.545 13.195812
55.550 13.494129
55.555 13.890553
55.560 13.50002
55.565 13.043101
55.570 13.17394
55.575 12.710875
55.580 12.954268
55.585 12.974472
55.590 12.692428
55.595 13.098239
55.600 13.164978
55.605 13.312477
55.610 13.752502
55.615 13.399104
55.620 12.897382
55.625 12.974367
55.630 12.744126
55.635 12.99801
55.640 12.867226
55.645 13.486485
55.650 13.475238
55.655 13.715808
55.660 13.519819
55.665 13.43191
55.670 12.584881
55.675 12.471189
55.680 11.695017
55.685 11.501173
55.690 11.199741
55.695 11.403579
55.700 11.146648
55.705 12.007247
55.710 12.067556
55.715 12.026073
55.720 12.592904
55.725 12.915077
55.730 12.988661
55.735 13.895963
55.740 14.00554
55.745 14.117798
55.750 14.519456
55.755 14.457265
55.760 14.326
55.765 13.626675
55.770 12.929091
55.775 12.844155
55.780 12.728852
55.785 12.665675
55.790 12.384705
55.795 12.358809
55.800 12.610582
55.805 12.107708
55.810 12.3361
55.815 12.452422
55.820 12.833327
55.825 13.367385
55.830 13.911627
55.835 14.910667
55.840 15.233104
55.845 15.340675
55.850 15.84
55.855 15.506787
55.860 14.828728
55.865 14.378426
55.870 13.773003
55.875 13.800056
55.880 13.610429
55.885 13.069198
55.890 12.738391
55.895 13.283566
55.900 13.471052
55.905 13.627631
55.910 13.354474
55.915 13.239738
55.920 13.460589
55.925 13.507257
55.930 13.384954
55.935 13.704123
55.940 13.986455
55.945 14.312918
55.950 14.707497
55.955 14.700828
55.960 14.838968
55.965 14.729124
55.970 14.652714
55.975 14.255002
55.980 13.843039
55.985 13.630342
55.990 13.40266
55.995 13.111342
56.000 13.020837
56.005 13.180684
56.010 13.822083
56.015 13.783325
56.020 13.904917
56.025 14.101098
56.030 14.484799
56.035 14.500029
56.040 14.267632
56.045 14.376883
56.050 14.6045
56.055 14.186701
56.060 13.72107
56.065 13.48915
56.070 13.233148
56.075 13.279715
56.080 12.892046
56.085 13.34602
56.090 13.741687
56.095 14.334694
56.100 14.910745
56.105 15.275973
56.110 15.399368
56.115 15.09746
56.120 14.32213
56.125 14.121386
56.130 13.708288
56.135 12.78739
56.140 12.603122
56.145 12.130953
56.150 12.640326
56.155 12.804348
56.160 12.50715
56.165 12.592271
56.170 13.152317
56.175 13.303792
56.180 13.31695
56.185 13.500527
56.190 14.123337
56.195 14.560238
56.200 14.62434
56.205 14.428135
56.210 13.643079
56.215 13.580662
56.220 13.421529
56.225 13.707322
56.230 13.998392
56.235 14.101278
56.240 13.844571
56.245 14.54396
56.250 14.608219
56.255 14.45501
56.260 14.067112
56.265 13.901519
56.270 14.058543
56.275 14.406424
56.280 14.13844
56.285 14.295599
56.290 14.414953
56.295 14.051809
56.300 13.999912
56.305 13.845716
56.310 13.866077
56.315 14.211924
56.320 13.725326
56.325 13.522973
56.330 13.134714
56.335 12.942978
56.340 12.718364
56.345 12.490515
56.350 12.860276
56.355 13.26648
56.360 13.372798
56.365 13.688863
56.370 13.90468
56.375 14.370093
56.380 14.315679
56.385 14.092402
56.390 14.032796
56.395 13.662151
56.400 13.899199
56.405 13.712227
56.410 13.187949
56.415 13.166231
56.420 12.696862
56.425 12.335643
56.430 12.670617
56.435 12.600285
56.440 13.140924
56.445 13.336268
56.450 13.560758
56.455 13.657208
56.460 14.038795
56.465 14.217894
56.470 14.389205
56.475 13.934264
56.480 13.862533
56.485 13.556826
56.490 14.265141
56.495 14.132116
56.500 13.532471
56.505 13.198569
56.510 13.535277
56.515 13.533618
56.520 13.115192
56.525 12.737666
56.530 12.992389
56.535 13.033466
56.540 13.282192
56.545 13.38668
56.550 13.661391
56.555 13.599385
56.560 13.385002
56.565 13.57469
56.570 14.305312
56.575 14.148602
56.580 13.971116
56.585 13.701448
56.590 14.452614
56.595 14.77369
56.600 14.421625
56.605 13.764488
56.610 13.249292
56.615 13.507839
56.620 13.337433
56.625 13.071114
56.630 13.326028
56.635 14.133908
56.640 14.775667
56.645 15.216272
56.650 15.005864
56.655 15.714755
56.660 16.251951
56.665 16.114248
56.670 15.631261
56.675 15.826456
56.680 16.164234
56.685 16.536346
56.690 16.121845
56.695 15.557179
56.700 15.267361
56.705 15.379389
56.710 15.093137
56.715 14.69957
56.720 14.43759
56.725 14.449164
56.730 14.790054
56.735 14.458755
56.740 14.348679
56.745 14.545835
56.750 14.637568
56.755 15.029202
56.760 15.149089
56.765 14.772672
56.770 15.764174
56.775 15.942411
56.780 15.884186
56.785 16.522593
56.790 16.327822
56.795 16.292997
56.800 16.457823
56.805 16.551754
56.810 16.392809
56.815 16.026968
56.820 16.299316
56.825 16.471153
56.830 16.144711
56.835 16.083899
56.840 15.50224
56.845 15.826137
56.850 15.64503
56.855 14.942598
56.860 14.799267
56.865 14.86799
56.870 14.660258
56.875 14.496943
56.880 14.792902
56.885 14.732964
56.890 14.723677
56.895 14.830202
56.900 15.202533
56.905 15.413663
56.910 15.338744
56.915 15.150556
56.920 15.1876
56.925 15.297371
56.930 15.192749
56.935 14.910975
56.940 14.663512
56.945 14.611418
56.950 14.39664
56.955 14.300854
56.960 13.951032
56.965 13.84483
56.970 14.478562
56.975 14.470015
56.980 14.302678
56.985 14.372998
56.990 14.624869
56.995 15.105106
57.000 14.940875
57.005 14.588646
57.010 14.868373
57.015 15.302897
57.020 15.112274
57.025 14.394108
57.030 14.198596
57.035 13.956563
57.040 13.486357
57.045 12.679962
57.050 12.572943
57.055 13.010463
57.060 13.154015
57.065 12.945817
57.070 13.249176
57.075 13.836309
57.080 14.457801
57.085 14.178493
57.090 14.127355
57.095 14.176829
57.100 14.378379
57.105 14.614932
57.110 14.869555
57.115 14.887031
57.120 14.895977
57.125 14.771675
57.130 15.07826
57.135 15.502673
57.140 15.5709
57.145 15.42178
57.150 16.289837
57.155 17.046261
57.160 17.245787
57.165 16.903656
57.170 16.790953
57.175 16.788895
57.180 16.236416
57.185 15.347381
57.190 14.541821
57.195 15.039509
57.200 15.526005
57.205 15.05884
57.210 15.419532
57.215 15.506254
57.220 15.528559
57.225 15.201946
57.230 14.52771
57.235 14.623164
57.240 14.826262
57.245 14.278575
57.250 14.2242
57.255 14.393695
57.260 15.034295
57.265 15.807571
57.270 15.620316
57.275 15.099082
57.280 14.988647
57.285 15.181066
57.290 15.59694
57.295 15.548256
57.300 15.602021
57.305 16.751389
57.310 17.451363
57.315 17.495274
57.320 17.600218
57.325 17.157486
57.330 17.369232
57.335 16.810638
57.340 16.367895
57.345 16.28311
57.350 16.269049
57.355 16.332327
57.360 15.998729
57.365 15.978695
57.370 15.848974
57.375 15.576579
57.380 15.436234
57.385 15.391346
57.390 15.424026
57.395 15.693211
57.400 15.394626
57.405 15.825819
57.410 16.236349
57.415 16.195229
57.420 16.744833
57.425 16.722012
57.430 16.633263
57.435 16.681038
57.440 16.440733
57.445 16.294434
57.450 17.255627
57.455 17.009659
57.460 16.906691
57.465 17.241032
57.470 17.302429
57.475 17.013493
57.480 16.621052
57.485 16.36553
57.490 16.503038
57.495 17.003695
57.500 17.080061
57.505 17.156612
57.510 17.286465
57.515 17.599903
57.520 17.168701
57.525 16.729855
57.530 16.249506
57.535 16.319338
57.540 16.189455
57.545 15.902437
57.550 15.773646
57.555 15.736652
57.560 16.362988
57.565 17.12015
57.570 17.093422
57.575 17.6257
57.580 17.747721
57.585 17.568941
57.590 18.116196
57.595 17.764374
57.600 17.177458
57.605 17.238707
57.610 16.754431
57.615 16.807144
57.620 16.846687
57.625 15.86626
57.630 15.614966
57.635 15.216949
57.640 14.973106
57.645 15.209006
57.650 15.267452
57.655 15.715355
57.660 17.442436
57.665 17.52916
57.670 17.78545
57.675 18.174372
57.680 18.439539
57.685 18.421625
57.690 18.154303
57.695 17.193518
57.700 17.49419
57.705 16.974798
57.710 16.894537
57.715 17.062843
57.720 17.054783
57.725 16.984108
57.730 16.89119
57.735 16.872009
57.740 17.14665
57.745 16.989454
57.750 17.124775
57.755 17.410688
57.760 17.775442
57.765 18.352282
57.770 18.485394
57.775 18.505449
57.780 18.086264
57.785 17.717325
57.790 17.515387
57.795 17.581299
57.800 17.260454
57.805 17.596075
57.810 17.720325
57.815 18.001202
57.820 18.348459
57.825 18.538122
57.830 18.603395
57.835 18.731987
57.840 18.72331
57.845 18.562979
57.850 18.652935
57.855 18.39872
57.860 17.952114
57.865 17.592751
57.870 17.588591
57.875 17.413643
57.880 18.060556
57.885 18.506889
57.890 18.47855
57.895 18.421394
57.900 18.028008
57.905 17.771351
57.910 17.7272
57.915 16.848871
57.920 15.857562
57.925 15.823437
57.930 16.130436
57.935 16.584352
57.940 16.50164
57.945 16.519619
57.950 16.693157
57.955 16.964865
57.960 16.810556
57.965 16.24004
57.970 16.056219
57.975 16.152269
57.980 16.014103
57.985 16.170179
57.990 16.368649
57.995 16.637321
58.000 17.063957
58.005 16.74799
58.010 16.408331
58.015 16.370628
58.020 16.63661
58.025 17.188158
58.030 17.358416
58.035 17.170931
58.040 17.652576
58.045 18.036282
58.050 18.228563
58.055 18.00596
58.060 18.07637
58.065 18.483902
58.070 18.83127
58.075 19.194921
58.080 18.971123
58.085 18.907349
58.090 18.988762
58.095 18.676682
58.100 18.38171
58.105 18.376862
58.110 18.610897
58.115 18.595989
58.120 18.520475
58.125 17.966982
58.130 18.083319
58.135 17.883924
58.140 18.058933
58.145 18.353371
58.150 19.105589
58.155 19.098288
58.160 19.78974
58.165 19.850746
58.170 20.197496
58.175 20.196091
58.180 19.651489
58.185 19.401087
58.190 20.168705
58.195 19.994127
58.200 20.574268
58.205 20.200113
58.210 20.594063
58.215 20.89888
58.220 21.635809
58.225 21.860975
58.230 22.045479
58.235 21.89035
58.240 22.146448
58.245 22.288654
58.250 22.374573
58.255 21.554834
58.260 21.641293
58.265 21.545538
58.270 21.489729
58.275 21.537367
58.280 20.849762
58.285 21.00185
58.290 21.787731
58.295 21.7094
58.300 21.991415
58.305 22.692705
58.310 23.107172
58.315 23.896566
58.320 24.446316
58.325 24.213818
58.330 24.49824
58.335 25.367626
58.340 25.536943
58.345 25.879009
58.350 26.346945
58.355 26.867943
58.360 27.141754
58.365 27.400299
58.370 26.881701
58.375 26.967924
58.380 26.918436
58.385 27.249346
58.390 27.817078
58.395 28.189182
58.400 27.993341
58.405 27.763571
58.410 28.122742
58.415 28.271296
58.420 28.437777
58.425 28.237692
58.430 29.031466
58.435 29.972746
58.440 30.894461
58.445 31.200081
58.450 31.327003
