!@!!GADDS PLOTSO FILE: Chi integration type
!@!!Title/SampleName: map-14
!@!!Comment: ?
!@!!User: Bruker Instrument Administrator
!@!!Site: University of Illinois Chicago
!@!!Frame: map-14_01_000.gfrm
!@!!Wavelengths    1.54184   1.54056   1.54439
!@!!Frame angles: 2Theta: 63.000 Omega: 50.000 Phi: 0.000 Chi: 90.000
!@!!Integration range: 2Theta: 53.000 to 73.000  Gamma: -105.000 to -75.000
!@!!Integration method: bin normalized
!@!N
!@!SS
!@!M
!@!L 0.0 0.0 0.0 0.0
!@!XDegrees
!@!YCounts
53.000 8.081956
53.005 8.042944
53.010 7.930573
53.015 7.710263
53.020 7.669767
53.025 8.125252
53.030 7.730296
53.035 8.029763
53.040 7.980268
53.045 8.20354
53.050 8.469383
53.055 8.33673
53.060 8.540676
53.065 8.694485
53.070 8.611772
53.075 8.959594
53.080 9.227224
53.085 9.12781
53.090 9.251346
53.095 8.823516
53.100 8.448199
53.105 8.207475
53.110 7.832843
53.115 8.094625
53.120 8.007559
53.125 7.754634
53.130 7.995705
53.135 8.359764
53.140 8.893699
53.145 9.118573
53.150 8.739467
53.155 8.795878
53.160 8.67979
53.165 8.382769
53.170 8.028872
53.175 7.563965
53.180 7.551458
53.185 7.452264
53.190 7.792933
53.195 7.975864
53.200 8.37678
53.205 8.319087
53.210 8.082643
53.215 7.855327
53.220 7.902958
53.225 7.853504
53.230 7.508404
53.235 7.425382
53.240 7.592823
53.245 7.501546
53.250 7.301345
53.255 7.015377
53.260 7.274994
53.265 7.502425
53.270 7.615868
53.275 7.782165
53.280 8.066372
53.285 8.647373
53.290 8.969637
53.295 8.895843
53.300 9.023316
53.305 9.313276
53.310 9.213736
53.315 9.258927
53.320 8.920708
53.325 8.764806
53.330 8.640855
53.335 8.096008
53.340 8.0602
53.345 8.260693
53.350 8.405472
53.355 8.567842
53.360 8.381333
53.365 8.257263
53.370 8.267554
53.375 8.266578
53.380 8.406371
53.385 8.223917
53.390 8.08397
53.395 8.522143
53.400 9.02422
53.405 9.250216
53.410 9.223427
53.415 9.523829
53.420 9.838964
53.425 10.011463
53.430 9.644355
53.435 9.336937
53.440 9.518074
53.445 9.064307
53.450 8.316692
53.455 8.289388
53.460 8.239222
53.465 8.086261
53.470 7.785807
53.475 7.601838
53.480 7.95085
53.485 8.284534
53.490 7.954721
53.495 8.251054
53.500 8.591644
53.505 8.767535
53.510 9.057599
53.515 9.037954
53.520 9.198196
53.525 9.493393
53.530 9.768992
53.535 9.68097
53.540 9.47006
53.545 8.728408
53.550 8.83672
53.555 8.503864
53.560 8.390266
53.565 8.256253
53.570 8.515189
53.575 8.906495
53.580 9.443291
53.585 9.547836
53.590 10.011688
53.595 9.671895
53.600 9.631841
53.605 9.659001
53.610 9.324212
53.615 9.42209
53.620 9.516275
53.625 9.38101
53.630 9.500307
53.635 9.09733
53.640 8.767485
53.645 8.612357
53.650 8.024899
53.655 7.8625
53.660 8.021885
53.665 8.141662
53.670 8.519616
53.675 8.471963
53.680 8.627395
53.685 8.759659
53.690 8.938953
53.695 9.074385
53.700 9.118959
53.705 9.241961
53.710 9.261172
53.715 9.102142
53.720 9.304985
53.725 9.092083
53.730 8.725114
53.735 8.192718
53.740 7.906396
53.745 7.777377
53.750 7.93889
53.755 7.994882
53.760 8.281554
53.765 8.390314
53.770 8.761087
53.775 9.21642
53.780 9.486679
53.785 9.254856
53.790 9.006507
53.795 9.286121
53.800 9.264686
53.805 9.2162
53.810 9.097146
53.815 9.075218
53.820 9.424542
53.825 9.270171
53.830 8.434612
53.835 8.313446
53.840 8.719119
53.845 8.903649
53.850 8.761505
53.855 8.5958
53.860 8.646316
53.865 9.061967
53.870 9.181899
53.875 8.94798
53.880 9.198833
53.885 9.102032
53.890 9.257152
53.895 9.521933
53.900 9.370848
53.905 9.131062
53.910 8.83475
53.915 8.976151
53.920 9.180943
53.925 9.171263
53.930 9.488014
53.935 9.294
53.940 9.182516
53.945 8.926342
53.950 8.942657
53.955 8.824074
53.960 8.564859
53.965 8.591272
53.970 8.955524
53.975 9.341418
53.980 9.745759
53.985 9.164583
53.990 8.929444
53.995 8.668565
54.000 8.24812
54.005 8.040643
54.010 7.782611
54.015 7.434599
54.020 8.22214
54.025 8.755331
54.030 9.244963
54.035 9.207174
54.040 9.470507
54.045 10.10602
54.050 10.232965
54.055 9.955289
54.060 9.780359
54.065 9.400935
54.070 9.7447
54.075 9.400057
54.080 8.841962
54.085 8.445863
54.090 8.049081
54.095 8.320977
54.100 8.397777
54.105 8.56376
54.110 8.840308
54.115 9.522408
54.120 9.848174
54.125 10.291769
54.130 10.021722
54.135 10.165186
54.140 10.360133
54.145 10.36694
54.150 9.775252
54.155 9.720744
54.160 9.381021
54.165 9.461911
54.170 9.284998
54.175 9.083827
54.180 8.992622
54.185 9.1097
54.190 8.956863
54.195 8.689517
54.200 9.055629
54.205 8.457069
54.210 8.475774
54.215 8.834212
54.220 9.184061
54.225 9.287247
54.230 9.162985
54.235 9.490677
54.240 9.786773
54.245 9.663408
54.250 9.642595
54.255 9.636593
54.260 10.322948
54.265 10.374017
54.270 9.998907
54.275 9.952066
54.280 9.914091
54.285 10.058203
54.290 9.844092
54.295 9.709518
54.300 10.086446
54.305 10.179037
54.310 10.631524
54.315 10.567552
54.320 10.43625
54.325 10.294105
54.330 10.110376
54.335 9.385365
54.340 9.143161
54.345 9.091212
54.350 8.957392
54.355 8.879447
54.360 8.987094
54.365 9.423159
54.370 10.481502
54.375 10.303819
54.380 10.197755
54.385 10.241483
54.390 10.465503
54.395 10.492751
54.400 10.251898
54.405 10.062195
54.410 9.995804
54.415 9.912036
54.420 9.856601
54.425 9.02745
54.430 8.787822
54.435 8.453574
54.440 8.104719
54.445 8.184861
54.450 8.269415
54.455 8.816693
54.460 9.328925
54.465 9.6898
54.470 9.979401
54.475 9.858907
54.480 9.730053
54.485 9.520678
54.490 9.287559
54.495 9.335348
54.500 9.107061
54.505 8.676596
54.510 8.943544
54.515 9.019625
54.520 9.570757
54.525 9.634413
54.530 9.245299
54.535 9.432603
54.540 9.773594
54.545 9.994311
54.550 10.024134
54.555 9.683784
54.560 9.514617
54.565 9.456557
54.570 9.350493
54.575 9.358419
54.580 9.151564
54.585 8.74228
54.590 8.797553
54.595 9.379683
54.600 9.360307
54.605 9.265772
54.610 9.048957
54.615 8.989227
54.620 9.18055
54.625 8.837818
54.630 8.57958
54.635 8.567833
54.640 8.753952
54.645 9.338663
54.650 9.564064
54.655 9.814718
54.660 9.829885
54.665 9.671334
54.670 9.893414
54.675 10.314282
54.680 9.948762
54.685 9.892093
54.690 10.100911
54.695 10.606806
54.700 11.227897
54.705 11.031352
54.710 10.291966
54.715 10.522705
54.720 10.638549
54.725 10.643181
54.730 10.464025
54.735 10.584396
54.740 10.827746
54.745 11.097881
54.750 10.858869
54.755 10.815421
54.760 10.796204
54.765 10.929704
54.770 10.645693
54.775 10.580751
54.780 10.810314
54.785 10.694037
54.790 10.521276
54.795 10.365336
54.800 10.288135
54.805 10.195492
54.810 9.716685
54.815 9.54202
54.820 9.3355
54.825 9.040696
54.830 8.786526
54.835 8.53177
54.840 8.760863
54.845 9.098967
54.850 9.112032
54.855 9.329332
54.860 9.70502
54.865 9.958063
54.870 10.167687
54.875 10.21452
54.880 9.586024
54.885 9.440116
54.890 9.917736
54.895 10.09142
54.900 9.983694
54.905 9.732643
54.910 9.854923
54.915 10.794004
54.920 10.77942
54.925 10.512879
54.930 10.583879
54.935 10.732714
54.940 10.794538
54.945 10.700774
54.950 10.463539
54.955 10.560827
54.960 10.178345
54.965 10.09218
54.970 10.343788
54.975 10.336403
54.980 10.621572
54.985 10.388069
54.990 10.453141
54.995 10.389709
55.000 10.433197
55.005 10.289629
55.010 10.488518
55.015 10.223205
55.020 10.018676
55.025 10.277203
55.030 10.635453
55.035 10.300978
55.040 10.061937
55.045 9.694173
55.050 9.862267
55.055 10.183713
55.060 10.405769
55.065 10.64911
55.070 10.990256
55.075 11.292877
55.080 11.725695
55.085 12.428764
55.090 12.464941
55.095 11.999451
55.100 11.695635
55.105 11.163108
55.110 10.871289
55.115 10.370082
55.120 9.784551
55.125 9.707502
55.130 9.560229
55.135 9.699368
55.140 10.271778
55.145 10.286237
55.150 10.17722
55.155 10.25128
55.160 10.437333
55.165 9.945123
55.170 10.060906
55.175 9.982886
55.180 10.350746
55.185 10.830434
55.190 10.738797
55.195 10.350899
55.200 10.693602
55.205 10.264754
55.210 10.410394
55.215 10.285181
55.220 9.910437
55.225 10.351487
55.230 10.343333
55.235 10.200013
55.240 10.298021
55.245 10.201425
55.250 10.165977
55.255 10.250669
55.260 10.119184
55.265 10.620811
55.270 11.262723
55.275 11.065296
55.280 10.940578
55.285 10.641461
55.290 10.524359
55.295 10.70576
55.300 10.410707
55.305 10.200267
55.310 10.464959
55.315 10.439311
55.320 10.44539
55.325 9.800943
55.330 9.445575
55.335 9.492082
55.340 9.293561
55.345 9.196099
55.350 9.269316
55.355 9.747058
55.360 10.475628
55.365 10.452093
55.370 10.632582
55.375 10.580414
55.380 10.452251
55.385 10.461381
55.390 10.671464
55.395 10.833567
55.400 10.560235
55.405 10.683519
55.410 10.821978
55.415 10.86694
55.420 11.184534
55.425 10.752381
55.430 10.775724
55.435 10.938148
55.440 10.671846
55.445 10.803398
55.450 10.568874
55.455 10.14008
55.460 9.856286
55.465 9.443116
55.470 9.377555
55.475 9.746784
55.480 10.22019
55.485 10.495138
55.490 10.366896
55.495 10.436039
55.500 10.613247
55.505 10.873512
55.510 10.870005
55.515 10.488182
55.520 10.825853
55.525 10.69588
55.530 10.439425
55.535 10.287249
55.540 9.719059
55.545 9.743124
55.550 9.672377
55.555 9.624803
55.560 9.939994
55.565 10.760455
55.570 10.668807
55.575 10.395579
55.580 10.49974
55.585 10.387174
55.590 10.384274
55.595 10.650135
55.600 10.705648
55.605 10.888778
55.610 11.364704
55.615 11.12129
55.620 11.391315
55.625 11.423079
55.630 11.367714
55.635 11.083692
55.640 10.954123
55.645 11.075009
55.650 11.166245
55.655 11.450624
55.660 11.756577
55.665 11.70936
55.670 11.977217
55.675 11.969822
55.680 11.457104
55.685 11.420979
55.690 11.589146
55.695 11.377356
55.700 11.402174
55.705 11.442659
55.710 11.827271
55.715 12.086501
55.720 11.686682
55.725 11.420087
55.730 12.038877
55.735 11.959139
55.740 11.495743
55.745 11.338432
55.750 11.50044
55.755 11.476321
55.760 10.92522
55.765 10.223528
55.770 10.31071
55.775 10.200555
55.780 10.129479
55.785 9.926724
55.790 10.249942
55.795 10.539862
55.800 10.891324
55.805 11.37295
55.810 12.157935
55.815 12.306502
55.820 12.158783
55.825 11.880627
55.830 12.05778
55.835 12.074768
55.840 11.963764
55.845 11.689001
55.850 11.927667
55.855 12.001282
55.860 11.885098
55.865 11.264801
55.870 10.587559
55.875 10.625972
55.880 10.036718
55.885 9.60881
55.890 9.931516
55.895 9.820019
55.900 10.217128
55.905 10.584517
55.910 10.537322
55.915 11.086303
55.920 11.751334
55.925 11.84151
55.930 12.139841
55.935 12.043191
55.940 11.942689
55.945 11.973008
55.950 11.617957
55.955 11.143723
55.960 11.188697
55.965 11.185641
55.970 11.277457
55.975 10.871518
55.980 10.999712
55.985 10.943756
55.990 10.762573
55.995 10.685701
56.000 10.874967
56.005 10.6605
56.010 11.124714
56.015 11.206303
56.020 11.58374
56.025 11.289345
56.030 10.810719
56.035 10.697167
56.040 10.94544
56.045 11.433786
56.050 11.744766
56.055 11.630169
56.060 12.056808
56.065 12.465012
56.070 12.296515
56.075 11.8349
56.080 10.713362
56.085 10.685265
56.090 10.587248
56.095 10.142397
56.100 9.968678
56.105 10.024018
56.110 10.049421
56.115 9.715029
56.120 9.729098
56.125 10.398226
56.130 10.960851
56.135 11.068677
56.140 11.448622
56.145 11.986036
56.150 12.4726
56.155 12.751821
56.160 12.539248
56.165 12.905449
56.170 13.338408
56.175 13.158443
56.180 12.838871
56.185 12.999049
56.190 12.668474
56.195 12.671886
56.200 12.365528
56.205 12.299508
56.210 12.006773
56.215 11.957192
56.220 12.110975
56.225 12.336405
56.230 12.162886
56.235 11.985235
56.240 11.942557
56.245 12.305535
56.250 12.597096
56.255 12.073399
56.260 11.562468
56.265 11.115719
56.270 10.801398
56.275 10.594047
56.280 10.262574
56.285 9.929416
56.290 10.682708
56.295 11.411845
56.300 11.871044
56.305 11.991469
56.310 11.844101
56.315 12.06354
56.320 11.808433
56.325 11.533319
56.330 11.41587
56.335 11.438075
56.340 11.671359
56.345 12.167118
56.350 12.504246
56.355 12.150293
56.360 12.218206
56.365 12.125522
56.370 11.924243
56.375 11.939312
56.380 11.617259
56.385 11.464107
56.390 11.696836
56.395 11.570897
56.400 11.259338
56.405 11.319568
56.410 11.455476
56.415 11.479937
56.420 11.827947
56.425 12.184815
56.430 12.356358
56.435 12.15472
56.440 12.311364
56.445 12.582218
56.450 12.596395
56.455 12.272416
56.460 12.493724
56.465 12.554694
56.470 12.732885
56.475 12.246628
56.480 12.097724
56.485 12.564638
56.490 12.967839
56.495 12.428794
56.500 12.38864
56.505 12.802619
56.510 13.235043
56.515 12.825339
56.520 12.494997
56.525 12.16291
56.530 12.131547
56.535 12.13573
56.540 11.899904
56.545 11.394947
56.550 11.714527
56.555 12.064229
56.560 12.510409
56.565 12.7225
56.570 13.049428
56.575 13.324711
56.580 13.833
56.585 13.633982
56.590 13.047313
56.595 12.781861
56.600 12.63607
56.605 12.112783
56.610 11.597253
56.615 11.941372
56.620 12.393255
56.625 12.583836
56.630 12.425364
56.635 12.584149
56.640 12.905996
56.645 12.93993
56.650 12.335447
56.655 12.623788
56.660 12.872684
56.665 12.577049
56.670 11.597712
56.675 11.347767
56.680 11.658564
56.685 11.820092
56.690 11.259905
56.695 11.300821
56.700 11.738895
56.705 12.309976
56.710 12.589824
56.715 12.410679
56.720 12.083456
56.725 12.238355
56.730 12.289446
56.735 13.047209
56.740 13.669877
56.745 13.650312
56.750 14.324564
56.755 14.759867
56.760 14.841681
56.765 14.582955
56.770 13.816432
56.775 12.794744
56.780 12.274272
56.785 11.838785
56.790 11.896232
56.795 11.783558
56.800 11.460773
56.805 11.447586
56.810 11.896566
56.815 12.229687
56.820 11.811438
56.825 11.596869
56.830 11.427834
56.835 11.733973
56.840 12.352706
56.845 12.763205
56.850 12.839789
56.855 13.126962
56.860 13.023891
56.865 12.974948
56.870 12.834106
56.875 12.296051
56.880 12.026838
56.885 11.818618
56.890 11.317878
56.895 11.092373
56.900 11.341749
56.905 11.716359
56.910 12.191689
56.915 12.247936
56.920 12.314314
56.925 12.742134
56.930 13.163848
56.935 13.03958
56.940 12.536983
56.945 12.48446
56.950 12.690516
56.955 12.843408
56.960 13.187512
56.965 13.087767
56.970 12.333819
56.975 12.778994
56.980 12.587057
56.985 12.802845
56.990 12.842236
56.995 12.652045
57.000 13.020692
57.005 14.022554
57.010 13.921259
57.015 13.504275
57.020 13.103371
57.025 13.163827
57.030 12.86978
57.035 12.566631
57.040 12.058053
57.045 11.946948
57.050 12.185161
57.055 12.324451
57.060 11.942067
57.065 12.106402
57.070 12.230169
57.075 12.644102
57.080 12.850255
57.085 12.266995
57.090 11.830225
57.095 11.976311
57.100 11.917998
57.105 11.947177
57.110 11.772732
57.115 12.327976
57.120 12.719705
57.125 13.156188
57.130 13.392056
57.135 13.106841
57.140 13.17693
57.145 13.074561
57.150 12.551294
57.155 12.575312
57.160 12.329532
57.165 12.459268
57.170 12.58511
57.175 12.322831
57.180 12.399901
57.185 12.400157
57.190 12.265007
57.195 12.265159
57.200 12.647068
57.205 13.02171
57.210 13.075205
57.215 12.926523
57.220 13.059095
57.225 13.270821
57.230 12.658051
57.235 12.097463
57.240 11.766968
57.245 11.561002
57.250 11.113806
57.255 10.749621
57.260 10.383304
57.265 11.011433
57.270 11.334945
57.275 11.096523
57.280 11.556862
57.285 12.137541
57.290 12.710154
57.295 13.005067
57.300 12.776955
57.305 12.325168
57.310 13.063935
57.315 13.067148
57.320 13.172632
57.325 13.169529
57.330 13.495236
57.335 14.160146
57.340 14.337249
57.345 13.860367
57.350 14.476411
57.355 14.455737
57.360 14.65827
57.365 14.813142
57.370 14.53472
57.375 15.062201
57.380 15.327772
57.385 14.918129
57.390 15.270205
57.395 15.233624
57.400 15.115518
57.405 15.271025
57.410 15.047638
57.415 15.089208
57.420 14.76066
57.425 14.460185
57.430 14.059368
57.435 13.610738
57.440 13.236141
57.445 13.005983
57.450 12.87022
57.455 12.418728
57.460 12.074727
57.465 12.150805
57.470 12.091069
57.475 11.876138
57.480 11.976201
57.485 12.522735
57.490 13.121559
57.495 13.647885
57.500 14.197307
57.505 14.42252
57.510 14.790276
57.515 14.704483
57.520 14.222363
57.525 13.86985
57.530 13.505114
57.535 13.664686
57.540 13.988017
57.545 13.76087
57.550 13.784466
57.555 13.761828
57.560 13.690861
57.565 13.47707
57.570 12.962857
57.575 13.129923
57.580 13.367177
57.585 13.301708
57.590 13.320183
57.595 13.768305
57.600 14.26411
57.605 14.4989
57.610 14.265858
57.615 14.136409
57.620 14.121114
57.625 14.154142
57.630 14.196128
57.635 13.891725
57.640 13.397029
57.645 13.594476
57.650 14.132534
57.655 14.574781
57.660 14.843343
57.665 14.658568
57.670 14.746764
57.675 14.837695
57.680 14.168365
57.685 13.968578
57.690 13.840776
57.695 13.435205
57.700 13.081523
57.705 12.722528
57.710 12.793184
57.715 12.87431
57.720 12.814924
57.725 12.793974
57.730 13.249581
57.735 13.357615
57.740 13.607598
57.745 13.847446
57.750 14.564203
57.755 14.227083
57.760 14.173328
57.765 13.986162
57.770 14.029733
57.775 14.485261
57.780 13.975896
57.785 13.809752
57.790 14.303987
57.795 14.144324
57.800 14.556762
57.805 14.863404
57.810 14.900569
57.815 15.206923
57.820 14.867848
57.825 14.563684
57.830 14.638354
57.835 14.368875
57.840 14.155874
57.845 14.115273
57.850 14.116849
57.855 13.790755
57.860 13.885027
57.865 14.071369
57.870 13.835948
57.875 13.633471
57.880 13.307628
57.885 13.269187
57.890 13.364241
57.895 12.989315
57.900 12.719681
57.905 12.990449
57.910 13.207153
57.915 13.395604
57.920 13.36606
57.925 13.449269
57.930 14.047657
57.935 14.329502
57.940 14.229771
57.945 13.825579
57.950 13.32052
57.955 13.140033
57.960 12.905658
57.965 12.720997
57.970 12.017691
57.975 11.715161
57.980 12.033689
57.985 12.192925
57.990 12.566031
57.995 12.857705
58.000 12.55805
58.005 13.026443
58.010 13.264346
58.015 13.631274
58.020 13.804346
58.025 13.719318
58.030 13.841031
58.035 14.299273
58.040 14.817822
58.045 14.235277
58.050 13.747663
58.055 13.96391
58.060 13.99216
58.065 13.628409
58.070 13.313311
58.075 12.936337
58.080 13.485834
58.085 13.797011
58.090 13.714862
58.095 13.698204
58.100 14.10448
58.105 14.289743
58.110 14.240061
58.115 13.712297
58.120 13.708992
58.125 14.796971
58.130 15.409419
58.135 15.512343
58.140 15.83304
58.145 16.135817
58.150 16.634041
58.155 16.296415
58.160 15.14139
58.165 14.949342
58.170 14.806291
58.175 14.214475
58.180 13.998695
58.185 13.981846
58.190 13.51904
58.195 13.183855
58.200 12.945903
58.205 12.722485
58.210 13.232738
58.215 13.545997
58.220 13.66208
58.225 14.251998
58.230 14.850733
58.235 15.383178
58.240 15.350685
58.245 15.144353
58.250 14.798038
58.255 14.383558
58.260 14.158651
58.265 13.691298
58.270 13.562863
58.275 13.51276
58.280 13.46686
58.285 13.86946
58.290 14.027364
58.295 14.058345
58.300 14.087796
58.305 14.031248
58.310 14.278885
58.315 14.154154
58.320 13.662212
58.325 14.067031
58.330 14.349783
58.335 14.553576
58.340 14.731765
58.345 14.235783
58.350 14.38929
58.355 14.870973
58.360 14.243889
58.365 14.125148
58.370 14.192305
58.375 14.351868
58.380 15.022485
58.385 15.165431
58.390 14.861206
58.395 15.44414
58.400 15.759757
58.405 15.506725
58.410 15.553014
58.415 15.55736
58.420 15.39998
58.425 15.896622
58.430 15.615391
58.435 15.228652
58.440 15.245834
58.445 15.275859
58.450 15.677581
58.455 15.694741
58.460 14.891212
58.465 14.780376
58.470 14.509559
58.475 13.620954
58.480 13.069545
58.485 12.634063
58.490 13.056154
58.495 13.629203
58.500 14.036876
58.505 14.227233
58.510 14.715313
58.515 15.090036
58.520 14.736709
58.525 14.791382
58.530 14.744102
58.535 14.531928
58.540 14.967921
58.545 15.307682
