!@!!GADDS PLOTSO FILE: Chi integration type
!@!!Title/SampleName: map-86
!@!!Comment: ?
!@!!User: Bruker Instrument Administrator
!@!!Site: University of Illinois Chicago
!@!!Frame: map-86_01_000.gfrm
!@!!Wavelengths    1.54184   1.54056   1.54439
!@!!Frame angles: 2Theta: 63.000 Omega: 50.000 Phi: 0.000 Chi: 90.000
!@!!Integration range: 2Theta: 53.000 to 73.000  Gamma: -105.000 to -75.000
!@!!Integration method: bin normalized
!@!N
!@!SS
!@!M
!@!L 0.0 0.0 0.0 0.0
!@!XDegrees
!@!YCounts
53.000 6.931711
53.005 6.903023
53.010 6.855678
53.015 6.507002
53.020 6.51293
53.025 6.900092
53.030 6.847492
53.035 7.078872
53.040 6.870167
53.045 7.236153
53.050 7.241561
53.055 6.861045
53.060 6.472833
53.065 6.378594
53.070 6.452273
53.075 6.53985
53.080 6.057733
53.085 6.423795
53.090 6.74894
53.095 6.89492
53.100 7.365914
53.105 7.263844
53.110 7.627785
53.115 7.847562
53.120 7.732009
53.125 7.76072
53.130 8.134359
53.135 8.005212
53.140 7.999262
53.145 7.407476
53.150 6.974331
53.155 7.165998
53.160 7.445991
53.165 7.33515
53.170 7.385303
53.175 7.336061
53.180 7.443323
53.185 7.742195
53.190 7.279728
53.195 6.957439
53.200 7.200242
53.205 7.555958
53.210 7.447987
53.215 7.425611
53.220 7.479716
53.225 7.505543
53.230 7.62655
53.235 7.506823
53.240 7.066599
53.245 7.518281
53.250 8.129068
53.255 8.047597
53.260 7.86047
53.265 7.600576
53.270 7.414808
53.275 7.385602
53.280 6.764857
53.285 6.355028
53.290 6.886688
53.295 7.21952
53.300 7.082498
53.305 7.353374
53.310 7.621641
53.315 7.29163
53.320 6.95075
53.325 6.576653
53.330 6.627566
53.335 7.082515
53.340 6.971504
53.345 6.996657
53.350 7.233656
53.355 7.413398
53.360 7.502451
53.365 7.111025
53.370 6.898878
53.375 6.743145
53.380 6.850105
53.385 7.374986
53.390 7.696649
53.395 8.271513
53.400 8.560259
53.405 8.925658
53.410 8.980832
53.415 9.156727
53.420 9.034678
53.425 8.887769
53.430 8.423062
53.435 8.106989
53.440 7.801138
53.445 7.985726
53.450 7.773077
53.455 8.055339
53.460 8.187331
53.465 8.302673
53.470 8.631307
53.475 8.52247
53.480 8.274017
53.485 8.076707
53.490 7.793351
53.495 7.688719
53.500 7.639914
53.505 7.514229
53.510 7.88697
53.515 7.758874
53.520 7.850655
53.525 7.621244
53.530 7.662068
53.535 7.658214
53.540 7.81643
53.545 7.967128
53.550 8.102724
53.555 8.022345
53.560 7.921794
53.565 7.609723
53.570 7.659588
53.575 7.756478
53.580 7.712847
53.585 7.59134
53.590 7.598225
53.595 7.634123
53.600 7.594522
53.605 7.254305
53.610 6.907496
53.615 7.246832
53.620 7.49889
53.625 7.435643
53.630 7.332811
53.635 7.700627
53.640 7.997283
53.645 8.312239
53.650 8.165303
53.655 8.151761
53.660 8.191658
53.665 8.336054
53.670 8.423669
53.675 8.163308
53.680 8.359408
53.685 8.405763
53.690 8.544133
53.695 8.924189
53.700 8.934701
53.705 8.787617
53.710 8.851964
53.715 8.654255
53.720 8.753443
53.725 8.469454
53.730 8.133974
53.735 8.135594
53.740 8.13677
53.745 8.009445
53.750 7.523698
53.755 7.396815
53.760 7.454546
53.765 7.364404
53.770 7.842153
53.775 7.767497
53.780 7.823053
53.785 8.130459
53.790 8.061113
53.795 8.190208
53.800 8.145226
53.805 7.502951
53.810 7.334432
53.815 7.310491
53.820 7.278494
53.825 6.903681
53.830 7.222903
53.835 7.19332
53.840 7.675735
53.845 8.047194
53.850 7.993311
53.855 8.021566
53.860 7.962202
53.865 7.540029
53.870 7.687728
53.875 7.781644
53.880 7.496144
53.885 7.351617
53.890 7.81352
53.895 8.06526
53.900 8.050091
53.905 7.850963
53.910 7.117912
53.915 7.029403
53.920 6.927619
53.925 6.887594
53.930 7.423069
53.935 7.509484
53.940 7.862197
53.945 8.431616
53.950 9.368206
53.955 9.507747
53.960 9.142654
53.965 8.923032
53.970 8.75796
53.975 8.468728
53.980 7.988788
53.985 7.482594
53.990 7.722753
53.995 7.860478
54.000 8.081511
54.005 7.808013
54.010 7.530209
54.015 7.527278
54.020 7.558356
54.025 7.514822
54.030 7.158674
54.035 7.340224
54.040 7.534689
54.045 8.077232
54.050 8.597795
54.055 8.783574
54.060 8.847734
54.065 8.748035
54.070 8.730817
54.075 9.248311
54.080 8.970287
54.085 8.7965
54.090 8.744956
54.095 8.72685
54.100 8.82145
54.105 8.647311
54.110 8.733564
54.115 8.616634
54.120 8.154428
54.125 8.227424
54.130 8.1854
54.135 8.432695
54.140 8.569521
54.145 8.283595
54.150 8.35082
54.155 8.421752
54.160 8.409157
54.165 8.834106
54.170 8.98993
54.175 9.045797
54.180 8.881297
54.185 8.68183
54.190 8.57914
54.195 8.589522
54.200 8.435022
54.205 8.326569
54.210 8.609587
54.215 8.938487
54.220 8.836335
54.225 8.860077
54.230 8.518192
54.235 8.599943
54.240 8.166186
54.245 7.876798
54.250 8.197068
54.255 8.318785
54.260 8.405559
54.265 8.489728
54.270 8.695895
54.275 9.098479
54.280 9.35893
54.285 9.379257
54.290 9.599388
54.295 9.608473
54.300 9.574645
54.305 9.176831
54.310 8.895459
54.315 8.652276
54.320 8.398653
54.325 8.005809
54.330 7.834306
54.335 7.811023
54.340 7.728239
54.345 7.746384
54.350 7.548486
54.355 7.903327
54.360 8.292172
54.365 8.353207
54.370 8.07886
54.375 8.233958
54.380 8.702064
54.385 8.676551
54.390 8.324377
54.395 7.868344
54.400 8.317001
54.405 9.047452
54.410 8.712807
54.415 8.235555
54.420 8.226879
54.425 9.092446
54.430 9.742264
54.435 9.579138
54.440 9.320014
54.445 9.235026
54.450 9.236493
54.455 9.093801
54.460 8.309389
54.465 7.779666
54.470 7.442184
54.475 7.964833
54.480 8.626254
54.485 9.048346
54.490 9.039518
54.495 9.681429
54.500 9.971853
54.505 9.730008
54.510 9.532096
54.515 8.982948
54.520 9.197236
54.525 9.418923
54.530 8.907155
54.535 9.13535
54.540 9.261089
54.545 9.219231
54.550 9.717367
54.555 9.251164
54.560 8.840642
54.565 8.502071
54.570 8.343496
54.575 8.376945
54.580 8.208667
54.585 7.78239
54.590 7.800339
54.595 7.97797
54.600 8.187677
54.605 8.232055
54.610 8.09298
54.615 8.305557
54.620 8.558243
54.625 8.97497
54.630 9.40727
54.635 9.872256
54.640 9.693925
54.645 9.808174
54.650 9.305785
54.655 9.242336
54.660 8.987956
54.665 8.349122
54.670 8.085532
54.675 8.169435
54.680 7.885514
54.685 8.25673
54.690 8.416556
54.695 8.582011
54.700 8.825609
54.705 8.67204
54.710 8.755684
54.715 8.719194
54.720 8.079146
54.725 7.926211
54.730 7.927985
54.735 7.860384
54.740 7.880532
54.745 8.028588
54.750 8.244482
54.755 8.574968
54.760 8.889544
54.765 8.877299
54.770 8.979554
54.775 9.309736
54.780 8.884934
54.785 8.558101
54.790 8.31048
54.795 7.964169
54.800 7.866277
54.805 7.790533
54.810 7.351094
54.815 7.655759
54.820 8.102771
54.825 8.051796
54.830 7.672966
54.835 7.897171
54.840 8.40619
54.845 8.96122
54.850 9.219152
54.855 8.949325
54.860 9.230923
54.865 9.62215
54.870 9.789362
54.875 9.369349
54.880 9.330564
54.885 9.328027
54.890 9.579208
54.895 9.578641
54.900 9.271474
54.905 9.255331
54.910 9.346097
54.915 9.147468
54.920 9.333672
54.925 9.62935
54.930 9.214785
54.935 9.114977
54.940 9.046121
54.945 9.252812
54.950 8.888598
54.955 8.505274
54.960 8.317963
54.965 8.917964
54.970 9.027098
54.975 9.231081
54.980 9.265789
54.985 9.648638
54.990 9.46298
54.995 9.599138
55.000 9.933744
55.005 9.921622
55.010 9.721754
55.015 9.512862
55.020 9.35288
55.025 9.380692
55.030 9.491823
55.035 9.355154
55.040 9.791337
55.045 9.955431
55.050 10.481821
55.055 10.838575
55.060 10.841002
55.065 10.754312
55.070 10.604524
55.075 10.328225
55.080 10.346703
55.085 10.611354
55.090 10.810739
55.095 11.008182
55.100 10.691732
55.105 10.418196
55.110 9.883199
55.115 9.742877
55.120 9.370504
55.125 8.887332
55.130 8.67031
55.135 8.737929
55.140 8.595523
55.145 8.719727
55.150 8.163914
55.155 7.996823
55.160 8.286667
55.165 8.256644
55.170 8.562473
55.175 9.061212
55.180 9.398914
55.185 9.99878
55.190 10.44844
55.195 10.593235
55.200 10.753588
55.205 10.523257
55.210 10.301692
55.215 10.068229
55.220 9.431141
55.225 9.331694
55.230 9.490672
55.235 9.330025
55.240 9.484484
55.245 9.720725
55.250 10.194862
55.255 10.412731
55.260 9.867739
55.265 9.968756
55.270 10.359
55.275 10.444061
55.280 10.277452
55.285 9.596627
55.290 9.983953
55.295 10.223292
55.300 9.981091
55.305 9.805874
55.310 9.848101
55.315 9.945235
55.320 10.379024
55.325 10.30119
55.330 10.464767
55.335 10.458481
55.340 10.250497
55.345 9.881039
55.350 9.635083
55.355 9.797348
55.360 9.838538
55.365 9.805403
55.370 9.986094
55.375 10.352393
55.380 10.672063
55.385 10.803708
55.390 10.488644
55.395 9.970589
55.400 9.313128
55.405 8.835049
55.410 8.464104
55.415 8.108015
55.420 7.977899
55.425 8.563225
55.430 9.361565
55.435 10.072198
55.440 10.307181
55.445 10.478447
55.450 10.656749
55.455 10.61656
55.460 10.121856
55.465 9.616683
55.470 9.623199
55.475 9.737759
55.480 9.765804
55.485 9.78723
55.490 9.645251
55.495 9.75013
55.500 9.936754
55.505 9.98949
55.510 10.010057
55.515 10.144882
55.520 10.226047
55.525 10.564508
55.530 10.872802
55.535 10.578239
55.540 10.397026
55.545 10.3243
55.550 10.401201
55.555 10.585278
55.560 10.098095
55.565 9.937611
55.570 9.962155
55.575 10.539486
55.580 10.515579
55.585 10.284603
55.590 10.435674
55.595 10.363136
55.600 9.987137
55.605 9.526602
55.610 9.409854
55.615 9.426799
55.620 9.124516
55.625 8.80165
55.630 9.290618
55.635 9.654282
55.640 10.090325
55.645 9.758606
55.650 10.007085
55.655 10.431421
55.660 10.432571
55.665 9.899036
55.670 9.779387
55.675 9.714011
55.680 9.539388
55.685 9.243924
55.690 8.886559
55.695 8.716864
55.700 9.146704
55.705 9.091127
55.710 8.983224
55.715 9.180817
55.720 9.176517
55.725 9.776972
55.730 10.03139
55.735 9.62281
55.740 9.565499
55.745 9.437263
55.750 9.855459
55.755 10.070322
55.760 10.00593
55.765 10.29633
55.770 10.544457
55.775 10.731326
55.780 11.095877
55.785 10.897166
55.790 10.502554
55.795 10.17597
55.800 9.905278
55.805 10.037903
55.810 9.679035
55.815 9.69874
55.820 9.878304
55.825 10.787231
55.830 11.383461
55.835 11.675968
55.840 11.682042
55.845 12.194044
55.850 11.792736
55.855 11.361046
55.860 10.735384
55.865 10.37126
55.870 10.14556
55.875 10.114247
55.880 10.165851
55.885 9.9679
55.890 10.075055
55.895 10.115095
55.900 9.897206
55.905 9.85498
55.910 10.116568
55.915 10.180453
55.920 10.456526
55.925 10.700573
55.930 11.013002
55.935 11.40181
55.940 11.605517
55.945 11.565573
55.950 11.501475
55.955 11.715331
55.960 11.763726
55.965 11.759109
55.970 11.836049
55.975 11.39348
55.980 10.81955
55.985 10.73726
55.990 10.078045
55.995 10.013393
56.000 9.932332
56.005 9.994012
56.010 10.574511
56.015 10.359344
56.020 10.767573
56.025 11.733412
56.030 11.868828
56.035 11.49214
56.040 10.97718
56.045 10.785675
56.050 10.920433
56.055 10.603349
56.060 9.575495
56.065 9.306473
56.070 9.256118
56.075 9.22641
56.080 9.253809
56.085 9.308445
56.090 9.471403
56.095 9.628212
56.100 9.453939
56.105 9.428578
56.110 9.869171
56.115 9.471729
56.120 9.15229
56.125 8.869128
56.130 8.567099
56.135 8.907808
56.140 9.133315
56.145 9.155441
56.150 10.241507
56.155 11.097511
56.160 12.08411
56.165 12.71043
56.170 12.345015
56.175 12.324728
56.180 11.90467
56.185 11.461103
56.190 11.398983
56.195 10.868281
56.200 11.112004
56.205 11.171655
56.210 11.18749
56.215 11.886646
56.220 11.589202
56.225 11.454447
56.230 11.381513
56.235 11.539248
56.240 11.803242
56.245 11.81399
56.250 11.679369
56.255 11.923595
56.260 11.95793
56.265 11.54121
56.270 10.99838
56.275 11.269217
56.280 11.120122
56.285 11.050706
56.290 11.38099
56.295 11.859089
56.300 12.833253
56.305 13.141953
56.310 13.097287
56.315 13.335194
56.320 12.80176
56.325 12.208919
56.330 12.08916
56.335 11.582205
56.340 11.237502
56.345 11.359802
56.350 11.535662
56.355 11.866639
56.360 11.59998
56.365 10.557813
56.370 10.730974
56.375 10.840482
56.380 10.454232
56.385 10.398896
56.390 10.456141
56.395 10.602857
56.400 11.082403
56.405 10.989021
56.410 10.560398
56.415 10.177369
56.420 9.927194
56.425 9.958482
56.430 9.851208
56.435 9.540057
56.440 9.629728
56.445 9.968681
56.450 10.209689
56.455 10.293526
56.460 10.350081
56.465 10.906162
56.470 11.073814
56.475 10.969813
56.480 11.394559
56.485 11.909225
56.490 12.789527
56.495 13.392695
56.500 13.263569
56.505 13.37597
56.510 13.041164
56.515 12.738516
56.520 12.478858
56.525 11.72878
56.530 11.181849
56.535 10.61802
56.540 10.197615
56.545 10.374693
56.550 10.675639
56.555 10.694386
56.560 11.06814
56.565 11.147395
56.570 11.503884
56.575 12.428977
56.580 12.634479
56.585 12.253276
56.590 11.849792
56.595 12.381161
56.600 12.622393
56.605 12.741343
56.610 12.146182
56.615 12.234056
56.620 12.641707
56.625 12.791849
56.630 12.067356
56.635 11.95989
56.640 11.625576
56.645 11.386946
56.650 11.10266
56.655 10.88992
56.660 10.627791
56.665 11.077525
56.670 10.841696
56.675 11.201259
56.680 11.342552
56.685 11.74187
56.690 12.103598
56.695 11.986957
56.700 11.580198
56.705 11.723765
56.710 11.523322
56.715 11.842962
56.720 11.790578
56.725 11.336921
56.730 11.515769
56.735 11.900461
56.740 11.871982
56.745 12.079051
56.750 11.980419
56.755 11.708145
56.760 11.647018
56.765 11.384239
56.770 10.994044
56.775 11.054507
56.780 11.356804
56.785 10.998916
56.790 11.055214
56.795 11.229693
56.800 11.598246
56.805 12.167354
56.810 12.217923
56.815 11.887318
56.820 11.719666
56.825 11.593595
56.830 11.60477
56.835 11.414437
56.840 11.86503
56.845 11.79878
56.850 11.714102
56.855 11.750534
56.860 11.713953
56.865 11.978988
56.870 12.209286
56.875 11.937531
56.880 11.998884
56.885 12.157134
56.890 12.483595
56.895 12.71909
56.900 12.378103
56.905 12.05436
56.910 11.737308
56.915 11.535196
56.920 11.546729
56.925 12.248074
56.930 12.430691
56.935 12.975663
56.940 13.074224
56.945 13.225765
56.950 12.891494
56.955 12.63855
56.960 12.086677
56.965 11.892491
56.970 10.915325
56.975 10.595665
56.980 10.55837
56.985 11.205961
56.990 11.582739
56.995 11.680239
57.000 11.980728
57.005 12.17102
57.010 12.439762
57.015 12.416173
57.020 12.52241
57.025 12.60084
57.030 12.381233
57.035 12.073283
57.040 11.836762
57.045 11.686892
57.050 11.869827
57.055 11.482831
57.060 11.149173
57.065 11.115072
57.070 11.260657
57.075 11.724289
57.080 11.450931
57.085 11.438947
57.090 11.422028
57.095 11.259074
57.100 11.277099
57.105 11.382058
57.110 11.778939
57.115 12.23815
57.120 12.254869
57.125 12.414698
57.130 12.756433
57.135 12.513769
57.140 12.481945
57.145 12.275341
57.150 12.606667
57.155 12.756921
57.160 12.697951
57.165 12.896662
57.170 13.48558
57.175 13.090461
57.180 12.976636
57.185 12.671835
57.190 12.843688
57.195 12.937026
57.200 12.543695
57.205 12.401969
57.210 12.718711
57.215 12.451109
57.220 12.032705
57.225 11.518971
57.230 11.476157
57.235 11.660236
57.240 11.328894
57.245 11.38308
57.250 11.708797
57.255 12.229556
57.260 12.370862
57.265 12.541745
57.270 12.712566
57.275 12.986242
57.280 12.730338
57.285 12.111426
57.290 11.815967
57.295 11.446024
57.300 11.107449
57.305 10.889467
57.310 10.674476
57.315 10.895859
57.320 11.175797
57.325 11.117996
57.330 11.302683
57.335 11.446673
57.340 11.3901
57.345 11.587619
57.350 11.743317
57.355 11.680177
57.360 12.012123
57.365 12.687248
57.370 12.850279
57.375 13.228933
57.380 13.225747
57.385 13.291016
57.390 13.578877
57.395 13.715129
57.400 13.306499
57.405 12.902015
57.410 12.741139
57.415 12.628616
57.420 12.378421
57.425 12.429571
57.430 12.064604
57.435 11.77533
57.440 11.731618
57.445 12.051282
57.450 11.7803
57.455 12.176497
57.460 11.846729
57.465 11.678365
57.470 12.025107
57.475 12.102345
57.480 12.365087
57.485 12.57016
57.490 12.488113
57.495 12.903744
57.500 13.36237
57.505 13.892871
57.510 13.77837
57.515 13.499972
57.520 14.000278
57.525 14.085667
57.530 14.106363
57.535 13.933147
57.540 13.411535
57.545 13.160373
57.550 12.88376
57.555 12.690652
57.560 12.974373
57.565 13.036489
57.570 13.149194
57.575 13.279003
57.580 13.977648
57.585 14.72421
57.590 14.535565
57.595 13.9697
57.600 13.818617
57.605 13.836424
57.610 14.21844
57.615 13.61319
57.620 12.965304
57.625 13.139817
57.630 13.189126
57.635 13.323612
57.640 12.980159
57.645 12.416266
57.650 12.771444
57.655 12.696178
57.660 12.600955
57.665 12.830552
57.670 12.627678
57.675 12.730494
57.680 12.988578
57.685 12.753284
57.690 12.939668
57.695 12.630754
57.700 12.373205
57.705 12.944344
57.710 13.903227
57.715 14.106837
57.720 13.941392
57.725 13.938176
57.730 14.124328
57.735 13.757824
57.740 12.951727
57.745 11.970492
57.750 11.962349
57.755 12.440288
57.760 12.494442
57.765 12.804298
57.770 13.373749
57.775 13.593031
57.780 13.524957
57.785 13.51178
57.790 13.087363
57.795 12.476632
57.800 12.3471
57.805 11.870296
57.810 11.811661
57.815 12.13954
57.820 12.116884
57.825 12.478168
57.830 12.559428
57.835 12.806948
57.840 13.386889
57.845 13.558663
57.850 13.02519
57.855 12.715182
57.860 12.649942
57.865 12.769786
57.870 12.698324
57.875 12.279643
57.880 11.979869
57.885 12.639881
57.890 12.706937
57.895 13.003994
57.900 13.129755
57.905 13.31292
57.910 13.913747
57.915 14.29559
57.920 14.136613
57.925 13.939844
57.930 13.865456
57.935 13.357763
57.940 13.199361
57.945 12.714307
57.950 12.748189
57.955 12.916522
57.960 12.906962
57.965 13.262048
57.970 13.172931
57.975 13.34403
57.980 13.29358
57.985 12.8592
57.990 12.929057
57.995 12.876363
58.000 12.70014
58.005 12.840762
58.010 13.065434
58.015 13.049936
58.020 12.963269
58.025 12.8908
58.030 12.838161
58.035 13.251117
58.040 13.567813
58.045 13.443673
58.050 14.261128
58.055 14.916683
58.060 15.27361
58.065 15.439552
58.070 15.386152
58.075 15.378889
58.080 15.065733
58.085 14.743007
58.090 14.068438
58.095 13.868411
58.100 13.955219
58.105 13.905915
58.110 13.712717
58.115 13.741782
58.120 13.735885
58.125 14.065361
58.130 14.183274
58.135 14.038891
58.140 14.223185
58.145 14.865028
58.150 14.924042
58.155 15.158962
58.160 15.272266
58.165 15.436453
58.170 15.782329
58.175 16.040842
58.180 15.658446
58.185 15.767063
58.190 15.9776
58.195 16.266453
58.200 15.978712
58.205 15.561177
58.210 15.465397
58.215 15.698381
58.220 15.420461
58.225 14.878096
58.230 14.143062
58.235 14.414823
58.240 14.359571
58.245 13.920554
58.250 13.871409
58.255 14.135485
58.260 14.189163
58.265 14.461281
58.270 13.974211
58.275 14.061774
58.280 14.670582
58.285 14.770501
58.290 14.570533
58.295 14.966652
58.300 15.046562
58.305 15.666611
58.310 15.307914
58.315 14.89886
58.320 15.196897
58.325 15.535859
58.330 15.324074
58.335 15.624182
58.340 15.105661
58.345 15.333655
58.350 15.56918
58.355 15.530513
58.360 15.407891
58.365 15.474813
58.370 15.599217
58.375 16.174433
58.380 16.262924
58.385 16.340893
58.390 16.050922
58.395 16.148029
58.400 16.035149
58.405 16.119345
58.410 16.026264
58.415 16.138247
58.420 16.296618
58.425 16.808542
58.430 16.695393
58.435 16.661913
58.440 16.696342
58.445 16.466463
58.450 16.558346
58.455 16.815453
58.460 17.288467
58.465 17.911209
58.470 18.257475
58.475 17.99217
58.480 18.601151
58.485 18.602962
58.490 18.989267
58.495 19.253908
58.500 19.566198
58.505 19.832293
58.510 20.223663
58.515 19.925808
58.520 19.633427
58.525 18.831682
58.530 18.370859
58.535 18.570238
58.540 18.655399
58.545 18.749783
58.550 18.81699
58.555 19.346617
58.560 19.842703
58.565 19.621529
58.570 19.148546
58.575 19.148193
58.580 19.241646
58.585 19.230492
58.590 18.619835
58.595 18.43268
