!@!!GADDS PLOTSO FILE: Chi integration type
!@!!Title/SampleName: map-53
!@!!Comment: ?
!@!!User: Bruker Instrument Administrator
!@!!Site: University of Illinois Chicago
!@!!Frame: map-53_01_000.gfrm
!@!!Wavelengths    1.54184   1.54056   1.54439
!@!!Frame angles: 2Theta: 63.000 Omega: 50.000 Phi: 0.000 Chi: 90.000
!@!!Integration range: 2Theta: 53.000 to 73.000  Gamma: -105.000 to -75.000
!@!!Integration method: bin normalized
!@!N
!@!SS
!@!M
!@!L 0.0 0.0 0.0 0.0
!@!XDegrees
!@!YCounts
53.000 7.695513
53.005 8.117546
53.010 7.983527
53.015 8.36445
53.020 8.779069
53.025 8.861646
53.030 8.677018
53.035 8.132836
53.040 7.657582
53.045 7.363682
53.050 7.102902
53.055 7.090652
53.060 7.554533
53.065 7.584759
53.070 7.531034
53.075 7.852396
53.080 8.377596
53.085 8.51879
53.090 8.207923
53.095 8.096472
53.100 8.27012
53.105 8.041092
53.110 7.676546
53.115 7.283511
53.120 7.140464
53.125 6.914783
53.130 6.542657
53.135 6.443814
53.140 6.318501
53.145 6.294054
53.150 7.066247
53.155 7.334979
53.160 7.472225
53.165 7.942719
53.170 8.182974
53.175 8.549643
53.180 8.352927
53.185 8.185077
53.190 8.27543
53.195 8.866011
53.200 8.461636
53.205 8.410282
53.210 8.476
53.215 8.70396
53.220 8.779507
53.225 8.566862
53.230 8.424814
53.235 9.004467
53.240 9.507104
53.245 9.087111
53.250 9.437659
53.255 9.664365
53.260 9.458592
53.265 9.284079
53.270 8.759588
53.275 8.851655
53.280 8.919655
53.285 8.346799
53.290 7.778615
53.295 7.791223
53.300 7.401879
53.305 7.289246
53.310 7.221958
53.315 7.328689
53.320 7.41172
53.325 8.142433
53.330 8.416241
53.335 8.887275
53.340 8.720372
53.345 8.408897
53.350 8.086432
53.355 7.646725
53.360 7.362576
53.365 7.607492
53.370 7.438392
53.375 7.745851
53.380 8.174631
53.385 8.087115
53.390 8.541346
53.395 8.73361
53.400 8.592402
53.405 8.745984
53.410 8.417786
53.415 8.342208
53.420 8.229257
53.425 8.113026
53.430 7.986497
53.435 7.840858
53.440 7.81996
53.445 8.047041
53.450 8.640103
53.455 8.685646
53.460 8.389496
53.465 8.062765
53.470 8.357429
53.475 8.193501
53.480 8.260175
53.485 8.547269
53.490 8.503325
53.495 8.602176
53.500 8.763725
53.505 8.609901
53.510 8.880339
53.515 8.569577
53.520 8.03762
53.525 8.191122
53.530 8.432261
53.535 8.551649
53.540 8.645766
53.545 8.615266
53.550 8.303188
53.555 8.815724
53.560 8.821962
53.565 9.016344
53.570 9.049064
53.575 8.819009
53.580 8.663543
53.585 9.059954
53.590 9.155397
53.595 8.874886
53.600 8.194179
53.605 8.106063
53.610 7.936607
53.615 8.386564
53.620 8.234907
53.625 8.159047
53.630 8.58092
53.635 9.294081
53.640 9.817256
53.645 9.674729
53.650 9.183068
53.655 9.380499
53.660 9.645827
53.665 9.404265
53.670 8.939618
53.675 8.653467
53.680 8.678349
53.685 8.766462
53.690 8.430683
53.695 7.97941
53.700 7.811177
53.705 7.987493
53.710 8.240954
53.715 8.441091
53.720 8.265567
53.725 8.226355
53.730 8.119638
53.735 7.88117
53.740 7.926893
53.745 8.275832
53.750 8.411476
53.755 8.325654
53.760 8.677096
53.765 8.654332
53.770 8.99855
53.775 8.971164
53.780 9.063046
53.785 9.033686
53.790 9.159081
53.795 9.637085
53.800 10.271981
53.805 10.169151
53.810 9.832339
53.815 9.430519
53.820 9.354915
53.825 8.598232
53.830 8.09976
53.835 7.388798
53.840 7.301806
53.845 7.563184
53.850 7.704978
53.855 8.030591
53.860 8.562808
53.865 8.801318
53.870 9.030406
53.875 9.060102
53.880 8.942238
53.885 9.161541
53.890 9.025979
53.895 9.171511
53.900 9.053907
53.905 9.182586
53.910 9.34591
53.915 9.258432
53.920 9.369706
53.925 9.683236
53.930 9.778274
53.935 9.864357
53.940 9.8058
53.945 9.736623
53.950 9.574117
53.955 9.229149
53.960 8.781612
53.965 8.554505
53.970 8.650996
53.975 8.576717
53.980 8.505286
53.985 8.532273
53.990 8.999104
53.995 8.719995
54.000 8.890854
54.005 9.00229
54.010 9.173607
54.015 9.386775
54.020 9.310084
54.025 9.27766
54.030 9.849082
54.035 10.114672
54.040 10.112478
54.045 10.295815
54.050 10.480001
54.055 10.284313
54.060 10.098806
54.065 9.937251
54.070 9.406857
54.075 8.976376
54.080 9.067809
54.085 9.02579
54.090 9.21323
54.095 9.447635
54.100 9.155577
54.105 9.305284
54.110 9.395225
54.115 9.346003
54.120 9.374711
54.125 9.704161
54.130 9.752038
54.135 9.894363
54.140 9.905115
54.145 9.724113
54.150 9.33428
54.155 9.354352
54.160 9.490231
54.165 9.588253
54.170 9.389874
54.175 9.449183
54.180 9.543513
54.185 9.716385
54.190 9.767815
54.195 9.672606
54.200 10.044036
54.205 9.93683
54.210 9.675025
54.215 9.351283
54.220 9.565316
54.225 9.16222
54.230 9.058151
54.235 8.911042
54.240 9.244657
54.245 9.79458
54.250 9.804789
54.255 9.833209
54.260 9.994188
54.265 9.705928
54.270 9.550463
54.275 9.690398
54.280 9.512306
54.285 9.862706
54.290 9.818363
54.295 9.76799
54.300 10.05213
54.305 10.455366
54.310 10.24046
54.315 10.199615
54.320 9.745872
54.325 10.04285
54.330 9.614217
54.335 8.971863
54.340 8.755578
54.345 8.952156
54.350 9.038406
54.355 8.598987
54.360 8.614796
54.365 9.024811
54.370 9.260731
54.375 9.715991
54.380 9.538713
54.385 9.334023
54.390 9.7267
54.395 9.541512
54.400 9.51153
54.405 9.345701
54.410 9.215444
54.415 9.46333
54.420 9.236744
54.425 9.250242
54.430 9.534451
54.435 9.703335
54.440 9.682211
54.445 9.343137
54.450 9.231736
54.455 9.448358
54.460 9.704199
54.465 9.589762
54.470 9.848782
54.475 9.808573
54.480 10.124193
54.485 10.468626
54.490 10.513665
54.495 10.132827
54.500 9.840061
54.505 9.340892
54.510 9.204486
54.515 9.041779
54.520 9.187159
54.525 8.836251
54.530 8.688568
54.535 8.924643
54.540 9.13226
54.545 9.384768
54.550 9.559269
54.555 9.431369
54.560 9.847929
54.565 9.915241
54.570 10.320018
54.575 10.629488
54.580 10.728784
54.585 10.452181
54.590 10.272721
54.595 9.965585
54.600 10.116571
54.605 10.21635
54.610 10.093406
54.615 10.138438
54.620 10.745553
54.625 11.184803
54.630 10.910581
54.635 10.825808
54.640 10.431133
54.645 10.555128
54.650 10.569227
54.655 10.000525
54.660 10.010193
54.665 10.172637
54.670 9.675731
54.675 9.397472
54.680 8.766736
54.685 8.418627
54.690 8.446991
54.695 8.348575
54.700 8.49063
54.705 8.714712
54.710 9.122758
54.715 9.33121
54.720 9.361852
54.725 9.450548
54.730 9.729676
54.735 9.705087
54.740 9.476882
54.745 9.857319
54.750 9.874177
54.755 10.014578
54.760 10.194841
54.765 10.1576
54.770 10.289776
54.775 10.232602
54.780 10.115436
54.785 10.231251
54.790 10.0055
54.795 10.221867
54.800 10.312734
54.805 10.47181
54.810 10.332284
54.815 10.303882
54.820 10.245273
54.825 10.52508
54.830 10.311469
54.835 10.097468
54.840 10.219227
54.845 10.307389
54.850 10.225658
54.855 10.451879
54.860 10.08294
54.865 9.733687
54.870 9.534817
54.875 9.784485
54.880 9.972447
54.885 9.76619
54.890 9.530633
54.895 9.503528
54.900 9.746218
54.905 10.318166
54.910 10.281712
54.915 10.194468
54.920 10.697742
54.925 10.508484
54.930 10.794059
54.935 10.526978
54.940 10.269323
54.945 10.261231
54.950 10.302994
54.955 9.99596
54.960 9.930451
54.965 9.65319
54.970 9.435893
54.975 9.673199
54.980 9.851983
54.985 9.958139
54.990 10.137932
54.995 10.512282
55.000 10.97289
55.005 10.837947
55.010 9.974926
55.015 9.962945
55.020 9.903671
55.025 10.046543
55.030 10.06704
55.035 9.842475
55.040 9.80926
55.045 9.899335
55.050 9.470936
55.055 9.209911
55.060 8.679172
55.065 8.483483
55.070 9.192918
55.075 9.435029
55.080 9.559952
55.085 9.525798
55.090 9.789086
55.095 10.108418
55.100 10.243348
55.105 9.967486
55.110 9.963086
55.115 10.247416
55.120 10.278257
55.125 10.238025
55.130 10.625505
55.135 10.646996
55.140 10.37961
55.145 10.060627
55.150 9.658007
55.155 9.732511
55.160 9.64321
55.165 9.162087
55.170 8.870441
55.175 8.854756
55.180 9.221561
55.185 9.204689
55.190 9.078955
55.195 8.591314
55.200 8.926979
55.205 9.296619
55.210 9.725836
55.215 9.97373
55.220 10.29213
55.225 10.755944
55.230 11.218673
55.235 11.067535
55.240 11.072037
55.245 10.836272
55.250 10.584425
55.255 10.426363
55.260 10.146586
55.265 10.224892
55.270 10.328271
55.275 10.032971
55.280 10.208911
55.285 10.368807
55.290 10.696546
55.295 11.211693
55.300 10.874848
55.305 10.574892
55.310 10.637708
55.315 10.465791
55.320 10.450014
55.325 10.316021
55.330 9.886941
55.335 10.183803
55.340 10.589249
55.345 10.871203
55.350 11.080008
55.355 11.30107
55.360 11.312937
55.365 11.365821
55.370 11.175611
55.375 11.003864
55.380 11.104946
55.385 10.963964
55.390 10.536042
55.395 10.951634
55.400 10.800798
55.405 11.1058
55.410 11.182451
55.415 11.098754
55.420 11.366047
55.425 11.318679
55.430 11.1255
55.435 11.115952
55.440 10.661746
55.445 10.469117
55.450 10.229591
55.455 9.973281
55.460 9.751785
55.465 10.166396
55.470 10.754858
55.475 10.998591
55.480 10.756362
55.485 10.72506
55.490 10.561252
55.495 10.577656
55.500 9.948973
55.505 9.868839
55.510 10.158945
55.515 9.931394
55.520 10.391082
55.525 10.631693
55.530 10.682987
55.535 10.823907
55.540 10.28465
55.545 10.537654
55.550 11.262362
55.555 11.335946
55.560 11.91223
55.565 11.996522
55.570 12.072405
55.575 12.520528
55.580 12.22565
55.585 11.48908
55.590 11.274483
55.595 11.169695
55.600 11.039586
55.605 10.878975
55.610 10.70123
55.615 10.951525
55.620 11.308752
55.625 11.513812
55.630 11.304051
55.635 11.55551
55.640 11.302873
55.645 11.266142
55.650 11.02667
55.655 10.777296
55.660 10.362567
55.665 10.342437
55.670 10.645074
55.675 10.558967
55.680 10.792511
55.685 11.27186
55.690 11.33541
55.695 11.493489
55.700 11.350701
55.705 10.989079
55.710 10.786144
55.715 10.63463
55.720 10.621387
55.725 10.692813
55.730 10.704266
55.735 10.668231
55.740 10.638915
55.745 11.062817
55.750 11.143591
55.755 11.238665
55.760 11.519964
55.765 11.477977
55.770 11.522879
55.775 11.799104
55.780 11.346591
55.785 10.880898
55.790 10.598514
55.795 10.479362
55.800 11.125688
55.805 11.479044
55.810 11.569462
55.815 11.649613
55.820 11.724343
55.825 11.964485
55.830 11.678241
55.835 11.880106
55.840 12.117565
55.845 12.200656
55.850 12.890168
55.855 12.879463
55.860 12.9845
55.865 13.088647
55.870 12.289371
55.875 11.66717
55.880 11.283104
55.885 10.902625
55.890 10.775536
55.895 10.620355
55.900 10.52444
55.905 10.63607
55.910 11.176404
55.915 12.053932
55.920 12.256783
55.925 12.290412
55.930 12.418616
55.935 12.79726
55.940 13.011788
55.945 12.416234
55.950 12.206088
55.955 12.08115
55.960 11.897733
55.965 11.561854
55.970 10.705776
55.975 10.597189
55.980 11.055623
55.985 10.808736
55.990 10.544653
55.995 10.507886
56.000 10.675658
56.005 11.103033
56.010 11.066072
56.015 10.724453
56.020 10.946441
56.025 11.475219
56.030 11.705891
56.035 11.708173
56.040 11.837877
56.045 11.673245
56.050 11.740295
56.055 12.399011
56.060 12.309946
56.065 12.52739
56.070 12.596546
56.075 12.569479
56.080 12.823409
56.085 12.836646
56.090 11.82006
56.095 11.875386
56.100 11.757935
56.105 11.435127
56.110 11.184062
56.115 10.576589
56.120 10.201806
56.125 10.235672
56.130 10.021502
56.135 9.961871
56.140 10.587195
56.145 11.078071
56.150 11.59707
56.155 11.728008
56.160 11.8046
56.165 12.179752
56.170 12.292699
56.175 12.152202
56.180 11.736053
56.185 11.60834
56.190 11.854998
56.195 11.840069
56.200 11.656547
56.205 11.540976
56.210 11.678079
56.215 11.804239
56.220 11.453464
56.225 11.157469
56.230 11.300241
56.235 11.39634
56.240 11.418104
56.245 11.438971
56.250 11.941833
56.255 12.642362
56.260 13.247386
56.265 12.876961
56.270 12.439771
56.275 12.228914
56.280 12.051796
56.285 11.696326
56.290 11.611171
56.295 11.235905
56.300 11.267425
56.305 11.631405
56.310 11.765041
56.315 12.252205
56.320 12.134271
56.325 11.935034
56.330 11.935938
56.335 12.117562
56.340 11.629412
56.345 11.545245
56.350 11.01634
56.355 11.077003
56.360 10.958455
56.365 10.828008
56.370 10.613633
56.375 10.963242
56.380 10.890103
56.385 10.960648
56.390 10.883532
56.395 11.385087
56.400 11.712146
56.405 11.9358
56.410 12.150832
56.415 11.953724
56.420 12.019287
56.425 12.405268
56.430 12.335421
56.435 11.965833
56.440 11.549154
56.445 11.481112
56.450 11.52335
56.455 11.898051
56.460 11.644155
56.465 11.452613
56.470 11.655767
56.475 11.627771
56.480 11.896948
56.485 11.567994
56.490 11.07004
56.495 11.024245
56.500 10.693025
56.505 10.65531
56.510 10.847477
56.515 10.755362
56.520 11.322898
56.525 11.597314
56.530 11.529448
56.535 11.724941
56.540 12.055854
56.545 11.769876
56.550 11.570446
56.555 11.836819
56.560 11.737735
56.565 12.488231
56.570 13.090821
56.575 12.635083
56.580 12.72644
56.585 12.412173
56.590 12.010095
56.595 12.077813
56.600 11.27217
56.605 10.833924
56.610 11.230288
56.615 11.09236
56.620 10.905597
56.625 10.822969
56.630 10.872717
56.635 11.415374
56.640 10.969478
56.645 10.858013
56.650 11.356662
56.655 11.794574
56.660 11.676578
56.665 11.103585
56.670 10.998
56.675 11.64653
56.680 12.290407
56.685 12.244249
56.690 12.318529
56.695 12.53351
56.700 12.735012
56.705 12.812528
56.710 12.799291
56.715 12.135597
56.720 12.428411
56.725 12.943029
56.730 13.367795
56.735 13.564856
56.740 13.430916
56.745 13.13282
56.750 13.324879
56.755 13.352407
56.760 13.082435
56.765 12.731112
56.770 13.412406
56.775 13.825625
56.780 14.031587
56.785 14.176594
56.790 13.686695
56.795 13.522673
56.800 13.446226
56.805 12.948049
56.810 12.755212
56.815 13.026187
56.820 12.976549
56.825 13.226522
56.830 13.080565
56.835 12.856957
56.840 12.666616
56.845 12.632529
56.850 11.941983
56.855 11.805062
56.860 11.484091
56.865 11.464688
56.870 11.723332
56.875 11.901602
56.880 12.215492
56.885 12.279501
56.890 12.286539
56.895 12.46564
56.900 12.432764
56.905 11.879253
56.910 11.583745
56.915 11.654139
56.920 12.029781
56.925 12.024809
56.930 12.388737
56.935 12.208888
56.940 12.510639
56.945 12.55331
56.950 12.091378
56.955 11.842444
56.960 11.89358
56.965 11.936172
56.970 12.399112
56.975 12.869858
56.980 12.947252
56.985 13.075388
56.990 13.072014
56.995 12.945428
57.000 13.457322
57.005 12.749726
57.010 12.116203
57.015 12.099005
57.020 12.215225
57.025 12.309702
57.030 11.674049
57.035 11.171072
57.040 12.134132
57.045 11.978511
57.050 12.253634
57.055 12.477819
57.060 12.428932
57.065 12.947217
57.070 13.019053
57.075 13.650704
57.080 13.483977
57.085 13.318748
57.090 13.169054
57.095 13.015094
57.100 13.193145
57.105 12.867489
57.110 12.916534
57.115 13.254544
57.120 12.880486
57.125 12.693168
57.130 13.164005
57.135 13.38067
57.140 13.205086
57.145 12.884241
57.150 12.960059
57.155 13.240628
57.160 13.070383
57.165 12.819188
57.170 12.478527
57.175 12.208408
57.180 11.952278
57.185 11.936807
57.190 12.507158
57.195 12.735002
57.200 12.781154
57.205 12.770531
57.210 13.126548
57.215 13.424594
57.220 13.784266
57.225 13.107784
57.230 13.176073
57.235 13.310232
57.240 13.499032
57.245 12.943559
57.250 12.728987
57.255 12.472545
57.260 12.311211
57.265 12.030496
57.270 11.979713
57.275 12.205312
57.280 12.400743
57.285 12.432106
57.290 12.183945
57.295 12.190405
57.300 12.512057
57.305 12.621701
57.310 12.568301
57.315 13.311831
57.320 13.598948
57.325 14.097562
57.330 14.433268
57.335 14.407597
57.340 14.536258
57.345 14.831437
57.350 14.346186
57.355 14.028984
57.360 13.843946
57.365 14.022488
57.370 14.217299
57.375 13.941792
57.380 13.444308
57.385 13.433806
57.390 13.25924
57.395 13.329944
57.400 13.089937
57.405 13.535571
57.410 13.407944
57.415 13.312858
57.420 13.095412
57.425 13.128114
57.430 12.864715
57.435 12.583707
57.440 12.317362
57.445 12.452806
57.450 12.765641
57.455 13.271667
57.460 13.599236
57.465 14.05049
57.470 14.064134
57.475 13.506963
57.480 13.740731
57.485 13.758792
57.490 13.514424
57.495 13.079695
57.500 12.815808
57.505 12.270527
57.510 12.444925
57.515 12.145061
57.520 11.905937
57.525 11.900274
57.530 12.036177
57.535 12.352276
57.540 12.895701
57.545 12.946918
57.550 13.07125
57.555 13.128232
57.560 12.87862
57.565 13.406587
57.570 13.41259
57.575 13.444813
57.580 13.8592
57.585 14.122761
57.590 14.310525
57.595 14.41053
57.600 14.040671
57.605 13.850285
57.610 13.666189
57.615 12.873138
57.620 12.708356
57.625 13.16683
57.630 13.796689
57.635 14.179051
57.640 14.482147
57.645 14.387837
57.650 14.63026
57.655 14.560159
57.660 14.180293
57.665 13.195197
57.670 12.329893
57.675 12.099469
57.680 12.227581
57.685 12.566935
57.690 12.122201
57.695 12.190672
57.700 12.745756
57.705 13.0401
57.710 12.741355
57.715 13.057878
57.720 13.049528
57.725 13.177412
57.730 13.490354
57.735 13.421436
57.740 13.705578
57.745 14.282442
57.750 14.567535
57.755 14.567457
57.760 14.93245
57.765 14.940086
57.770 15.066467
57.775 14.725119
57.780 14.28437
57.785 13.907006
57.790 13.791201
57.795 12.588113
57.800 11.911132
57.805 12.104613
57.810 12.356326
57.815 12.510109
57.820 12.552375
57.825 12.7852
57.830 13.65981
57.835 14.073925
57.840 14.405562
57.845 14.501908
57.850 14.330434
57.855 14.209389
57.860 14.056373
57.865 13.978088
57.870 14.036425
57.875 14.16247
57.880 14.138106
57.885 14.020734
57.890 14.071188
57.895 14.107374
57.900 14.226849
57.905 13.993666
57.910 13.094802
57.915 12.85826
57.920 13.373008
57.925 13.955981
57.930 14.180921
57.935 14.367389
57.940 14.259903
57.945 14.661716
57.950 14.435809
57.955 13.378972
57.960 12.819323
57.965 12.708553
57.970 11.97598
57.975 11.763611
57.980 11.849633
57.985 11.646816
57.990 12.073714
57.995 11.814944
58.000 12.1383
58.005 13.068661
58.010 13.449473
58.015 13.455044
58.020 14.200481
58.025 13.946887
58.030 13.872303
58.035 13.711712
58.040 13.609851
58.045 13.328853
58.050 13.623723
58.055 13.40083
58.060 13.119375
58.065 12.444055
58.070 12.477527
58.075 12.677483
58.080 12.847801
58.085 12.123788
58.090 12.361029
58.095 13.022441
58.100 13.591962
58.105 13.577773
58.110 13.103406
58.115 12.882338
58.120 13.185547
58.125 12.907294
58.130 12.379497
58.135 12.395262
58.140 12.325432
58.145 12.282742
58.150 12.314548
58.155 12.310287
58.160 12.577304
58.165 12.647143
58.170 12.417117
58.175 12.02965
58.180 12.249416
58.185 12.390694
58.190 12.493075
58.195 12.731895
58.200 12.873063
58.205 13.405201
58.210 13.893998
58.215 14.142031
58.220 14.428741
58.225 14.368696
58.230 14.035482
58.235 14.31696
58.240 14.410846
58.245 14.496425
58.250 14.132476
58.255 13.875312
58.260 13.900975
58.265 14.582819
58.270 14.630007
58.275 14.290495
58.280 13.537982
58.285 13.779186
58.290 14.076196
58.295 14.152478
58.300 13.804606
58.305 13.988161
58.310 14.181998
58.315 14.593277
58.320 14.492636
58.325 14.749293
58.330 14.707993
58.335 14.72438
58.340 14.788965
58.345 14.721861
58.350 14.465055
58.355 14.64035
58.360 14.368505
58.365 14.485826
58.370 14.608986
58.375 14.064457
58.380 13.988679
58.385 14.588525
58.390 14.4569
58.395 14.12288
58.400 14.030632
58.405 13.586635
58.410 13.549278
58.415 13.765948
58.420 13.366347
58.425 13.381934
58.430 13.492267
58.435 13.52664
58.440 13.842803
58.445 13.941113
58.450 13.841331
58.455 13.889109
58.460 13.973388
58.465 14.038063
58.470 14.456858
58.475 14.254232
58.480 14.074955
58.485 13.874148
58.490 13.334711
58.495 13.356675
58.500 13.248206
58.505 13.140082
58.510 13.644643
58.515 13.634003
58.520 14.069549
58.525 14.670321
58.530 14.333497
58.535 14.277242
58.540 14.169761
58.545 13.747656
