!@!!GADDS PLOTSO FILE: Chi integration type
!@!!Title/SampleName: map-27
!@!!Comment: ?
!@!!User: Bruker Instrument Administrator
!@!!Site: University of Illinois Chicago
!@!!Frame: map-27_01_000.gfrm
!@!!Wavelengths    1.54184   1.54056   1.54439
!@!!Frame angles: 2Theta: 63.000 Omega: 50.000 Phi: 0.000 Chi: 90.000
!@!!Integration range: 2Theta: 53.000 to 73.000  Gamma: -105.000 to -75.000
!@!!Integration method: bin normalized
!@!N
!@!SS
!@!M
!@!L 0.0 0.0 0.0 0.0
!@!XDegrees
!@!YCounts
53.000 7.834854
53.005 7.326771
53.010 7.41465
53.015 7.401305
53.020 7.192265
53.025 6.990098
53.030 6.923931
53.035 7.621466
53.040 8.601295
53.045 8.744968
53.050 8.328603
53.055 8.174436
53.060 7.925692
53.065 7.612645
53.070 7.081534
53.075 6.3961
53.080 6.596015
53.085 6.877503
53.090 7.072746
53.095 7.423598
53.100 7.519222
53.105 7.620277
53.110 7.660184
53.115 7.885521
53.120 8.12607
53.125 8.141617
53.130 8.22043
53.135 8.423554
53.140 8.686407
53.145 8.373962
53.150 7.832634
53.155 7.432312
53.160 7.252962
53.165 6.74798
53.170 6.382822
53.175 6.170118
53.180 6.177169
53.185 6.662179
53.190 6.857597
53.195 6.920739
53.200 7.014029
53.205 7.410306
53.210 7.97581
53.215 8.405787
53.220 8.540676
53.225 8.552145
53.230 8.733071
53.235 8.7626
53.240 8.953238
53.245 8.686467
53.250 8.169372
53.255 8.1263
53.260 8.028944
53.265 8.192199
53.270 8.161862
53.275 7.727469
53.280 7.995138
53.285 8.042724
53.290 8.25937
53.295 8.357639
53.300 8.352504
53.305 8.25351
53.310 8.264258
53.315 8.157755
53.320 8.412537
53.325 8.299843
53.330 8.542123
53.335 8.621628
53.340 8.373228
53.345 8.327871
53.350 8.472042
53.355 8.494199
53.360 8.384618
53.365 8.2277
53.370 8.356355
53.375 8.791737
53.380 8.776588
53.385 8.804566
53.390 8.980915
53.395 8.94832
53.400 9.108454
53.405 9.375585
53.410 9.652619
53.415 9.596548
53.420 8.95044
53.425 8.88082
53.430 8.695556
53.435 8.511438
53.440 7.95886
53.445 7.587008
53.450 8.340178
53.455 8.669546
53.460 8.787863
53.465 8.968242
53.470 9.197895
53.475 9.319828
53.480 9.255981
53.485 8.521352
53.490 8.47254
53.495 8.127151
53.500 7.718579
53.505 7.437645
53.510 7.552205
53.515 8.083455
53.520 8.196582
53.525 8.2533
53.530 8.394646
53.535 8.595222
53.540 8.854661
53.545 8.648883
53.550 8.143003
53.555 7.954254
53.560 8.052179
53.565 8.226162
53.570 8.152844
53.575 7.84314
53.580 7.627919
53.585 7.665719
53.590 7.628886
53.595 7.563995
53.600 7.98511
53.605 7.944092
53.610 7.986908
53.615 8.046043
53.620 8.591138
53.625 9.065182
53.630 9.270251
53.635 8.948055
53.640 9.061859
53.645 9.514151
53.650 9.651868
53.655 9.398376
53.660 9.636148
53.665 9.075321
53.670 8.643927
53.675 8.265705
53.680 7.887658
53.685 7.857227
53.690 7.507443
53.695 7.147829
53.700 7.421847
53.705 7.784663
53.710 8.001206
53.715 8.133054
53.720 8.230641
53.725 8.251682
53.730 8.374228
53.735 8.299646
53.740 8.090596
53.745 7.676935
53.750 7.971553
53.755 8.163839
53.760 8.400129
53.765 8.351473
53.770 8.785689
53.775 9.254092
53.780 9.616511
53.785 9.528678
53.790 9.11909
53.795 8.811409
53.800 8.566076
53.805 8.450646
53.810 8.619427
53.815 8.461191
53.820 8.271951
53.825 8.339847
53.830 8.843654
53.835 9.13648
53.840 8.818427
53.845 8.628688
53.850 8.889289
53.855 9.462111
53.860 10.100965
53.865 10.273868
53.870 10.390532
53.875 10.743589
53.880 10.476152
53.885 10.019909
53.890 9.459956
53.895 8.968824
53.900 8.203685
53.905 8.23801
53.910 8.94669
53.915 9.362863
53.920 9.484152
53.925 9.179468
53.930 9.373046
53.935 9.676164
53.940 9.706266
53.945 9.106695
53.950 9.029863
53.955 9.044461
53.960 9.024522
53.965 8.859445
53.970 8.357867
53.975 8.211596
53.980 8.395245
53.985 8.660489
53.990 9.038895
53.995 9.295484
54.000 9.495085
54.005 9.897536
54.010 9.645351
54.015 9.017547
54.020 8.475789
54.025 8.022791
54.030 8.211089
54.035 8.302935
54.040 8.331672
54.045 8.626447
54.050 9.121307
54.055 9.193957
54.060 9.307858
54.065 9.108687
54.070 9.205917
54.075 9.191836
54.080 9.199071
54.085 9.508986
54.090 9.709718
54.095 9.292668
54.100 8.894875
54.105 8.815564
54.110 8.980826
54.115 8.54946
54.120 8.651871
54.125 8.879885
54.130 9.175801
54.135 9.873551
54.140 9.760766
54.145 9.621663
54.150 10.207242
54.155 9.713773
54.160 9.626864
54.165 9.550591
54.170 9.293134
54.175 9.649376
54.180 9.680562
54.185 9.565915
54.190 9.990296
54.195 10.15966
54.200 10.105493
54.205 9.773717
54.210 9.564482
54.215 9.499501
54.220 9.286613
54.225 9.40732
54.230 9.799047
54.235 10.565394
54.240 11.127086
54.245 11.513262
54.250 11.484498
54.255 11.430482
54.260 10.793513
54.265 10.17798
54.270 10.097243
54.275 9.922243
54.280 9.550424
54.285 9.101022
54.290 8.936225
54.295 9.385544
54.300 9.505822
54.305 9.151886
54.310 9.113042
54.315 9.272155
54.320 9.602438
54.325 9.891297
54.330 9.811061
54.335 9.830287
54.340 9.706439
54.345 9.598955
54.350 9.62492
54.355 9.13989
54.360 9.166883
54.365 8.561795
54.370 8.017753
54.375 8.325757
54.380 8.289385
54.385 8.426386
54.390 8.720375
54.395 8.839583
54.400 9.334915
54.405 9.442877
54.410 9.585282
54.415 9.679039
54.420 9.755698
54.425 10.090571
54.430 10.141235
54.435 11.029967
54.440 11.229055
54.445 11.283158
54.450 10.889838
54.455 10.683369
54.460 10.465923
54.465 10.094916
54.470 9.384123
54.475 9.486514
54.480 9.425576
54.485 9.846311
54.490 9.710414
54.495 9.620709
54.500 9.61204
54.505 9.98696
54.510 9.659739
54.515 10.102683
54.520 10.085813
54.525 9.743032
54.530 10.189096
54.535 10.057647
54.540 9.274371
54.545 9.234879
54.550 8.951631
54.555 9.122681
54.560 9.6934
54.565 9.697372
54.570 10.081791
54.575 10.746431
54.580 10.95677
54.585 10.891083
54.590 10.972364
54.595 10.597325
54.600 10.27742
54.605 10.004643
54.610 9.949529
54.615 10.180078
54.620 10.266661
54.625 9.839093
54.630 9.83926
54.635 9.710127
54.640 9.705226
54.645 9.209339
54.650 8.84591
54.655 9.166431
54.660 9.363759
54.665 9.652169
54.670 10.055707
54.675 10.218881
54.680 10.628891
54.685 10.469434
54.690 10.122873
54.695 10.027632
54.700 9.758306
54.705 9.621999
54.710 10.054493
54.715 10.226743
54.720 10.461402
54.725 10.506233
54.730 10.194538
54.735 10.26957
54.740 10.275804
54.745 9.996754
54.750 9.746058
54.755 9.39934
54.760 9.406317
54.765 9.964625
54.770 9.670033
54.775 9.601171
54.780 9.321651
54.785 9.23955
54.790 9.450656
54.795 9.577936
54.800 9.606268
54.805 9.755647
54.810 9.683015
54.815 10.068931
54.820 10.176612
54.825 10.034769
54.830 10.135585
54.835 9.847595
54.840 9.924377
54.845 10.262053
54.850 10.258444
54.855 10.448952
54.860 10.537263
54.865 10.226641
54.870 10.391241
54.875 10.450063
54.880 9.872396
54.885 9.868208
54.890 9.803705
54.895 10.256542
54.900 10.645686
54.905 10.301895
54.910 10.189137
54.915 10.4231
54.920 10.287168
54.925 10.230515
54.930 10.007346
54.935 9.978896
54.940 9.911786
54.945 9.851985
54.950 10.117019
54.955 10.135275
54.960 10.17063
54.965 10.161755
54.970 10.585896
54.975 10.844501
54.980 10.506784
54.985 9.837418
54.990 10.084198
54.995 10.160086
55.000 10.485363
55.005 10.309236
55.010 10.572755
55.015 10.668822
55.020 10.98535
55.025 10.887361
55.030 10.686455
55.035 10.573306
55.040 10.475508
55.045 10.504886
55.050 11.35618
55.055 11.510551
55.060 11.93954
55.065 12.202695
55.070 12.132818
55.075 11.984709
55.080 11.781025
55.085 10.761659
55.090 10.696469
55.095 10.343731
55.100 10.047511
55.105 10.155082
55.110 10.053963
55.115 10.069603
55.120 10.478217
55.125 10.53082
55.130 10.564373
55.135 10.857703
55.140 10.929044
55.145 10.943424
55.150 11.111208
55.155 10.588475
55.160 10.369717
55.165 10.519066
55.170 10.347259
55.175 10.255851
55.180 10.136151
55.185 10.243549
55.190 10.673604
55.195 10.65798
55.200 10.482006
55.205 10.737327
55.210 10.872347
55.215 10.784925
55.220 10.205542
55.225 10.124822
55.230 10.391024
55.235 10.249313
55.240 10.345541
55.245 10.452875
55.250 11.18374
55.255 11.435693
55.260 12.106297
55.265 12.144772
55.270 12.098496
55.275 11.615454
55.280 11.578518
55.285 11.203471
55.290 11.238025
55.295 10.660585
55.300 10.077219
55.305 10.431062
55.310 10.964813
55.315 10.898083
55.320 10.748905
55.325 10.356131
55.330 10.42091
55.335 10.524879
55.340 10.420959
55.345 10.2108
55.350 10.156161
55.355 10.46805
55.360 10.382424
55.365 10.539876
55.370 10.703099
55.375 10.389836
55.380 10.296122
55.385 10.314233
55.390 9.964602
55.395 10.175969
55.400 10.291867
55.405 10.746297
55.410 10.812553
55.415 10.678104
55.420 10.521461
55.425 10.401299
55.430 10.383911
55.435 10.192897
55.440 9.462651
55.445 9.718005
55.450 10.117702
55.455 10.485759
55.460 10.606173
55.465 10.052794
55.470 10.05632
55.475 10.51538
55.480 10.830698
55.485 10.694805
55.490 10.68378
55.495 11.295033
55.500 11.558407
55.505 11.934377
55.510 11.8621
55.515 11.633029
55.520 11.829299
55.525 11.298177
55.530 10.714554
55.535 10.979609
55.540 10.457104
55.545 10.123331
55.550 9.758452
55.555 10.32375
55.560 11.003758
55.565 11.35771
55.570 11.096533
55.575 11.458882
55.580 11.622067
55.585 11.458964
55.590 11.444328
55.595 11.530869
55.600 12.047739
55.605 12.23726
55.610 12.343563
55.615 12.955644
55.620 13.013427
55.625 12.395334
55.630 11.866566
55.635 11.385676
55.640 10.981787
55.645 10.383582
55.650 9.81272
55.655 9.823768
55.660 9.656615
55.665 9.625927
55.670 9.777555
55.675 10.325868
55.680 10.219692
55.685 10.299191
55.690 10.425088
55.695 10.859886
55.700 11.007181
55.705 10.90603
55.710 10.431182
55.715 10.380496
55.720 10.311733
55.725 10.079363
55.730 10.023002
55.735 9.617442
55.740 9.412258
55.745 9.712066
55.750 9.611514
55.755 9.530469
55.760 9.3972
55.765 9.500784
55.770 10.589695
55.775 10.784237
55.780 11.201845
55.785 11.561402
55.790 12.114688
55.795 12.280557
55.800 12.309274
55.805 12.407542
55.810 12.407814
55.815 12.169406
55.820 12.065948
55.825 11.813801
55.830 11.699725
55.835 11.490215
55.840 11.333115
55.845 11.252862
55.850 11.523029
55.855 11.948261
55.860 11.698787
55.865 11.346812
55.870 10.825849
55.875 10.78055
55.880 11.362641
55.885 11.540881
55.890 11.523315
55.895 12.20641
55.900 12.817286
55.905 13.1926
55.910 13.658403
55.915 13.213256
55.920 12.695955
55.925 12.280262
55.930 12.012895
55.935 12.078351
55.940 11.507848
55.945 11.008078
55.950 10.970785
55.955 11.264411
55.960 11.379959
55.965 11.411653
55.970 11.249794
55.975 11.072467
55.980 10.815592
55.985 10.61103
55.990 10.214073
55.995 10.024991
56.000 9.754649
56.005 10.362851
56.010 10.828823
56.015 11.072971
56.020 11.256487
56.025 11.723971
56.030 11.996629
56.035 12.012097
56.040 11.454006
56.045 11.025097
56.050 11.164978
56.055 10.886415
56.060 10.470142
56.065 10.476051
56.070 10.225661
56.075 10.086868
56.080 10.223156
56.085 10.44566
56.090 11.151096
56.095 11.574547
56.100 11.45749
56.105 11.84045
56.110 11.776388
56.115 11.459702
56.120 10.73784
56.125 10.163735
56.130 10.334386
56.135 10.493745
56.140 10.169768
56.145 10.286936
56.150 10.325151
56.155 10.886565
56.160 11.518282
56.165 11.649064
56.170 11.693727
56.175 11.99952
56.180 12.273662
56.185 12.347055
56.190 12.041499
56.195 11.425765
56.200 10.771757
56.205 10.431973
56.210 10.366926
56.215 10.322125
56.220 10.502295
56.225 10.807718
56.230 11.237178
56.235 12.177004
56.240 12.890469
56.245 13.036738
56.250 12.97051
56.255 13.315325
56.260 13.425797
56.265 13.332146
56.270 12.784815
56.275 12.550524
56.280 12.471001
56.285 12.288732
56.290 12.151961
56.295 12.092716
56.300 11.825771
56.305 11.931378
56.310 11.977584
56.315 12.180865
56.320 12.416073
56.325 12.725516
56.330 13.047778
56.335 13.300971
56.340 13.091086
56.345 12.863988
56.350 12.850809
56.355 12.950731
56.360 12.452149
56.365 12.205003
56.370 11.743351
56.375 11.349385
56.380 11.425899
56.385 11.294163
56.390 10.890749
56.395 10.610394
56.400 10.348795
56.405 10.640453
56.410 11.224339
56.415 11.417389
56.420 12.35353
56.425 13.099434
56.430 13.558896
56.435 13.713023
56.440 14.081739
56.445 14.11644
56.450 14.295872
56.455 13.4683
56.460 13.192715
56.465 12.726585
56.470 12.584592
56.475 12.207494
56.480 11.817509
56.485 11.755832
56.490 11.937427
56.495 12.081782
56.500 12.309683
56.505 12.317912
56.510 12.143198
56.515 12.294854
56.520 12.256924
56.525 12.270166
56.530 12.200338
56.535 12.089893
56.540 12.115505
56.545 12.327677
56.550 12.319752
56.555 12.701011
56.560 12.78868
56.565 13.029713
56.570 13.135857
56.575 13.362924
56.580 13.671268
56.585 13.667446
56.590 13.034216
56.595 12.698863
56.600 12.618852
56.605 12.308122
56.610 12.014188
56.615 11.984568
56.620 12.020253
56.625 12.170547
56.630 12.603852
56.635 12.503561
56.640 12.706757
56.645 12.580965
56.650 12.18181
56.655 12.200643
56.660 12.338235
56.665 12.667472
56.670 12.752892
56.675 13.124889
56.680 13.272511
56.685 13.784875
56.690 13.93913
56.695 13.394927
56.700 13.261982
56.705 13.147277
56.710 12.926484
56.715 13.254527
56.720 12.884136
56.725 12.806048
56.730 12.909199
56.735 12.737255
56.740 12.620738
56.745 12.445261
56.750 11.973147
56.755 12.228203
56.760 13.042844
56.765 13.33131
56.770 13.404239
56.775 13.529951
56.780 13.943874
56.785 14.26954
56.790 14.095548
56.795 14.060689
56.800 14.439225
56.805 14.644647
56.810 14.774907
56.815 14.54568
56.820 14.321177
56.825 13.720819
56.830 12.952755
56.835 12.404444
56.840 12.228049
56.845 12.309126
56.850 12.089995
56.855 11.884338
56.860 12.12351
56.865 12.559894
56.870 12.930336
56.875 12.899735
56.880 12.97098
56.885 13.564042
56.890 13.814071
56.895 13.619087
56.900 13.011801
56.905 13.129523
56.910 13.065755
56.915 12.574741
56.920 12.094568
56.925 12.378238
56.930 12.433788
56.935 12.213437
56.940 11.842391
56.945 11.873396
56.950 11.987967
56.955 12.057312
56.960 12.387503
56.965 12.219797
56.970 12.510127
56.975 12.718983
56.980 12.547366
56.985 12.464261
56.990 12.66362
56.995 12.223554
57.000 12.075728
57.005 11.968783
57.010 11.862931
57.015 12.36915
57.020 12.48929
57.025 12.903708
57.030 13.078411
57.035 13.394787
57.040 13.573167
57.045 13.206992
57.050 13.119225
57.055 12.555911
57.060 11.751641
57.065 11.749128
57.070 11.767738
57.075 11.768914
57.080 11.744378
57.085 11.08513
57.090 11.371416
57.095 11.775325
57.100 12.218925
57.105 12.019832
57.110 12.173293
57.115 12.519385
57.120 13.012861
57.125 12.854934
57.130 12.7445
57.135 12.645296
57.140 12.478975
57.145 12.31127
57.150 12.290675
57.155 12.855769
57.160 12.83189
57.165 12.425258
57.170 12.485671
57.175 12.804996
57.180 12.719862
57.185 12.461601
57.190 12.674347
57.195 12.901656
57.200 13.099362
57.205 13.488744
57.210 13.583162
57.215 13.330029
57.220 13.5397
57.225 13.141093
57.230 13.301201
57.235 13.078505
57.240 12.786487
57.245 12.846678
57.250 13.401073
57.255 13.206388
57.260 12.867411
57.265 13.103604
57.270 13.502521
57.275 13.13748
57.280 13.166229
57.285 12.763542
57.290 12.942617
57.295 13.006554
57.300 12.459438
57.305 12.305532
57.310 12.656974
57.315 12.374054
57.320 12.633172
57.325 12.420166
57.330 12.491501
57.335 12.944644
57.340 12.505594
57.345 12.091335
57.350 12.689164
57.355 12.708399
57.360 13.056279
57.365 12.815414
57.370 12.772038
57.375 13.204261
57.380 13.634291
57.385 13.483838
57.390 13.695563
57.395 13.657916
57.400 13.862835
57.405 13.709066
57.410 13.852782
57.415 13.966389
57.420 14.142735
57.425 13.688318
57.430 13.263133
57.435 13.418791
57.440 13.336695
57.445 13.171423
57.450 12.694019
57.455 12.711305
57.460 13.528538
57.465 14.211895
57.470 14.01163
57.475 14.125096
57.480 14.450899
57.485 14.636428
57.490 14.262683
57.495 13.732066
57.500 13.562081
57.505 13.646449
57.510 13.542835
57.515 12.990252
57.520 13.058092
57.525 13.041224
57.530 12.563346
57.535 12.511257
57.540 12.707276
57.545 12.839918
57.550 13.097477
57.555 13.060691
57.560 13.078317
57.565 13.162446
57.570 13.396948
57.575 13.254093
57.580 13.349138
57.585 13.359775
57.590 13.264169
57.595 13.740121
57.600 13.690711
57.605 13.448647
57.610 13.071927
57.615 12.758754
57.620 12.506906
57.625 13.04247
57.630 13.269615
57.635 13.502811
57.640 14.028038
57.645 14.245777
57.650 14.815688
57.655 15.345655
57.660 15.078361
57.665 14.597212
57.670 14.701578
57.675 14.307834
57.680 14.68323
57.685 14.953482
57.690 14.887357
57.695 14.997164
57.700 15.148548
57.705 15.095065
57.710 15.384939
57.715 15.03963
57.720 14.218663
57.725 13.997573
57.730 14.590727
57.735 14.541323
57.740 14.305308
57.745 14.295267
57.750 13.996059
57.755 14.087292
57.760 13.479295
57.765 12.677485
57.770 12.691442
57.775 12.533362
57.780 11.969472
57.785 12.096131
57.790 11.762932
57.795 11.692224
57.800 11.238844
57.805 11.343487
57.810 11.195412
57.815 11.232496
57.820 11.657209
57.825 12.47688
57.830 13.3486
57.835 14.297416
57.840 14.342677
57.845 14.703125
57.850 14.993619
57.855 14.927516
57.860 14.850151
57.865 14.747518
57.870 14.707311
57.875 15.002875
57.880 15.256971
57.885 15.517776
57.890 15.370889
57.895 15.319179
57.900 14.727467
57.905 14.373487
57.910 14.207916
57.915 13.664963
57.920 13.797851
57.925 13.895028
57.930 13.502742
57.935 13.908577
57.940 13.845422
57.945 13.659688
57.950 13.536637
57.955 12.994915
57.960 13.178937
57.965 13.428226
57.970 13.105322
57.975 13.316833
57.980 13.453066
57.985 13.865434
57.990 14.005097
57.995 13.941652
58.000 13.760617
58.005 14.500378
58.010 14.650739
58.015 14.440786
58.020 14.012895
58.025 13.820067
58.030 13.621345
58.035 13.787325
58.040 13.908994
58.045 13.243401
58.050 13.309186
58.055 13.693769
58.060 13.803907
58.065 14.014942
58.070 13.661379
58.075 13.082695
58.080 13.266854
58.085 13.277561
58.090 13.139869
58.095 13.241866
58.100 13.475845
58.105 13.718062
58.110 14.098837
58.115 14.373829
58.120 14.286827
58.125 13.957833
58.130 13.982916
58.135 13.647081
58.140 13.473172
58.145 13.233226
58.150 12.805017
58.155 13.20344
58.160 13.633791
58.165 13.352093
58.170 13.41963
58.175 13.232863
58.180 13.357666
58.185 13.837491
58.190 13.628293
58.195 13.475875
58.200 13.544233
58.205 13.379379
58.210 13.722683
58.215 14.144053
58.220 14.438108
58.225 14.891758
58.230 15.096037
58.235 15.117385
58.240 15.289854
58.245 15.092869
58.250 14.356932
58.255 14.075397
58.260 13.874475
58.265 13.628254
58.270 14.109233
58.275 13.955226
58.280 14.028767
58.285 14.72242
58.290 14.896331
58.295 15.518215
58.300 15.978857
58.305 15.663266
58.310 15.846776
58.315 15.763025
58.320 15.612436
58.325 14.994998
58.330 14.156829
58.335 13.725374
58.340 13.858481
58.345 14.133419
58.350 14.784072
58.355 15.003819
58.360 15.256594
58.365 15.777807
58.370 15.909389
58.375 16.064438
58.380 15.768477
58.385 14.439118
58.390 14.00991
58.395 14.074506
58.400 14.169724
58.405 14.417507
58.410 14.198503
58.415 14.501575
58.420 15.445795
58.425 14.963357
58.430 15.065609
58.435 14.848917
58.440 14.416429
58.445 14.619157
58.450 14.602678
58.455 14.54234
58.460 14.819564
58.465 14.741693
58.470 14.703753
58.475 14.61291
58.480 14.390897
58.485 14.357997
58.490 14.223202
58.495 14.936446
58.500 14.975886
58.505 15.069059
58.510 14.929961
58.515 14.714076
58.520 14.878736
58.525 14.776247
58.530 13.763694
58.535 13.413413
