!@!!GADDS PLOTSO FILE: Chi integration type
!@!!Title/SampleName: map-a
!@!!Comment: ?
!@!!User: Bruker Instrument Administrator
!@!!Site: University of Illinois Chicago
!@!!Frame: map-a_01_000.gfrm
!@!!Wavelengths    1.54184   1.54056   1.54439
!@!!Frame angles: 2Theta: 63.000 Omega: 50.000 Phi: 0.000 Chi: 90.000
!@!!Integration range: 2Theta: 53.000 to 73.000  Gamma: -105.000 to -75.000
!@!!Integration method: bin normalized
!@!N
!@!SS
!@!M
!@!L 0.0 0.0 0.0 0.0
!@!XDegrees
!@!YCounts
53.000 7.225539
53.005 7.41846
53.010 7.245815
53.015 7.415705
53.020 7.043605
53.025 6.351017
53.030 5.732733
53.035 5.514811
53.040 5.702122
53.045 5.064624
53.050 4.902971
53.055 5.524522
53.060 6.09727
53.065 6.593406
53.070 6.833349
53.075 6.760451
53.080 6.830101
53.085 6.798332
53.090 6.481824
53.095 6.411451
53.100 6.103669
53.105 5.86404
53.110 6.310192
53.115 6.669165
53.120 6.884933
53.125 7.105806
53.130 7.099508
53.135 7.479098
53.140 7.850173
53.145 8.056612
53.150 8.243447
53.155 8.04637
53.160 7.561327
53.165 7.284081
53.170 6.649312
53.175 5.945763
53.180 5.635297
53.185 5.514604
53.190 5.714559
53.195 6.255623
53.200 6.599678
53.205 6.945266
53.210 7.419174
53.215 7.312354
53.220 7.473336
53.225 7.348054
53.230 7.236852
53.235 7.47695
53.240 7.41512
53.245 7.21606
53.250 7.04866
53.255 6.460433
53.260 6.15853
53.265 5.92025
53.270 5.973981
53.275 6.07519
53.280 6.261812
53.285 6.73269
53.290 7.512824
53.295 7.803975
53.300 7.576916
53.305 7.463592
53.310 7.416232
53.315 7.251132
53.320 7.402478
53.325 7.144731
53.330 7.03675
53.335 7.193014
53.340 7.386569
53.345 7.586939
53.350 7.351491
53.355 7.304539
53.360 7.325171
53.365 7.146271
53.370 7.092629
53.375 7.055352
53.380 7.356532
53.385 7.21838
53.390 6.809512
53.395 6.945951
53.400 7.128917
53.405 6.930758
53.410 6.721823
53.415 6.540781
53.420 6.785293
53.425 6.95565
53.430 7.007549
53.435 7.106831
53.440 7.019429
53.445 7.106373
53.450 7.27437
53.455 7.043873
53.460 6.834754
53.465 7.019011
53.470 6.916821
53.475 6.671972
53.480 6.304939
53.485 6.199087
53.490 6.579686
53.495 6.715673
53.500 6.442258
53.505 6.744829
53.510 7.093509
53.515 7.415876
53.520 7.645007
53.525 7.487859
53.530 7.45053
53.535 7.538909
53.540 7.59145
53.545 7.569894
53.550 7.256044
53.555 7.50883
53.560 7.498797
53.565 7.672991
53.570 7.596234
53.575 7.325552
53.580 7.555271
53.585 7.656596
53.590 7.60725
53.595 7.813641
53.600 7.958991
53.605 8.441586
53.610 8.284471
53.615 7.996428
53.620 7.498309
53.625 7.208415
53.630 7.128804
53.635 6.776002
53.640 6.308357
53.645 6.341812
53.650 6.479627
53.655 7.054617
53.660 7.036967
53.665 7.221266
53.670 7.309092
53.675 7.427692
53.680 7.518915
53.685 7.483353
53.690 7.238859
53.695 7.450362
53.700 7.391721
53.705 7.424412
53.710 7.550011
53.715 7.366276
53.720 7.368845
53.725 7.171331
53.730 6.732209
53.735 6.645504
53.740 6.460262
53.745 6.481283
53.750 6.745836
53.755 6.689627
53.760 7.21104
53.765 7.772745
53.770 7.738554
53.775 7.956811
53.780 8.257821
53.785 8.441522
53.790 8.420283
53.795 8.000196
53.800 7.59518
53.805 7.594162
53.810 7.619982
53.815 7.346959
53.820 7.174739
53.825 7.014689
53.830 7.12109
53.835 7.351134
53.840 7.463885
53.845 7.487648
53.850 7.711453
53.855 7.93927
53.860 8.00881
53.865 7.912772
53.870 7.820212
53.875 7.742615
53.880 7.712929
53.885 8.194951
53.890 8.464524
53.895 8.993319
53.900 9.226051
53.905 9.222358
53.910 8.955712
53.915 8.60869
53.920 7.892597
53.925 7.767334
53.930 7.598638
53.935 7.403329
53.940 7.547489
53.945 7.425655
53.950 7.581357
53.955 8.071255
53.960 7.512686
53.965 7.367096
53.970 7.761963
53.975 8.007232
53.980 8.283194
53.985 8.220145
53.990 7.694722
53.995 7.998803
54.000 8.089457
54.005 7.887761
54.010 7.90113
54.015 7.813694
54.020 7.843644
54.025 7.881958
54.030 7.550544
54.035 7.338384
54.040 6.817153
54.045 6.427936
54.050 6.282797
54.055 6.331743
54.060 6.327713
54.065 6.532938
54.070 6.611516
54.075 6.919137
54.080 7.579647
54.085 7.989655
54.090 8.380874
54.095 8.771301
54.100 8.903234
54.105 8.78113
54.110 8.711564
54.115 8.217749
54.120 7.89691
54.125 7.685161
54.130 7.839591
54.135 7.851241
54.140 8.169654
54.145 8.242354
54.150 8.375467
54.155 8.377796
54.160 8.506138
54.165 8.204363
54.170 8.243598
54.175 7.640368
54.180 7.140282
54.185 7.354101
54.190 7.272983
54.195 7.075763
54.200 7.33856
54.205 7.687048
54.210 8.606828
54.215 9.04458
54.220 8.906418
54.225 9.00811
54.230 8.808425
54.235 8.583119
54.240 8.391931
54.245 8.006439
54.250 7.724367
54.255 7.083283
54.260 7.300713
54.265 7.62096
54.270 7.720555
54.275 7.810532
54.280 7.970901
54.285 8.912411
54.290 9.400089
54.295 9.738318
54.300 9.857103
54.305 9.647933
54.310 9.540887
54.315 9.626064
54.320 9.706316
54.325 9.949226
54.330 10.017499
54.335 9.908352
54.340 10.085963
54.345 10.153144
54.350 9.562793
54.355 8.813624
54.360 8.012897
54.365 7.535618
54.370 7.258184
54.375 7.004445
54.380 7.187473
54.385 7.172823
54.390 7.071587
54.395 7.334908
54.400 7.686974
54.405 7.733047
54.410 7.975019
54.415 8.126864
54.420 8.401862
54.425 8.630931
54.430 8.742316
54.435 8.805106
54.440 8.967931
54.445 9.030194
54.450 8.749183
54.455 8.492176
54.460 8.201373
54.465 7.932327
54.470 7.768822
54.475 7.658648
54.480 7.478798
54.485 8.082127
54.490 8.302544
54.495 8.475097
54.500 8.4182
54.505 8.502513
54.510 8.586317
54.515 8.814623
54.520 8.601324
54.525 8.682731
54.530 8.826672
54.535 8.949937
54.540 9.043196
54.545 8.912309
54.550 8.401266
54.555 8.50398
54.560 8.844879
54.565 8.982022
54.570 8.912176
54.575 8.697284
54.580 8.568495
54.585 8.482252
54.590 7.880108
54.595 7.055959
54.600 6.55409
54.605 6.5978
54.610 6.637529
54.615 6.558333
54.620 7.297339
54.625 7.968843
54.630 8.77759
54.635 9.093478
54.640 9.108654
54.645 8.718537
54.650 8.811606
54.655 8.503793
54.660 8.436507
54.665 8.405988
54.670 8.626017
54.675 8.548982
54.680 9.004973
54.685 8.882912
54.690 8.719058
54.695 8.364424
54.700 7.970765
54.705 7.874545
54.710 8.174506
54.715 7.855883
54.720 7.757376
54.725 7.677336
54.730 8.197709
54.735 8.389627
54.740 8.481133
54.745 8.596963
54.750 8.817515
54.755 8.823668
54.760 8.850039
54.765 8.465565
54.770 8.41829
54.775 8.126175
54.780 7.69385
54.785 7.908421
54.790 8.241804
54.795 8.240585
54.800 8.419318
54.805 8.831418
54.810 8.872556
54.815 9.096541
54.820 9.294712
54.825 9.289094
54.830 9.182596
54.835 8.928866
54.840 9.020335
54.845 9.591922
54.850 9.786772
54.855 9.447096
54.860 9.245434
54.865 9.085908
54.870 8.823655
54.875 8.946573
54.880 9.021679
54.885 9.031364
54.890 9.438549
54.895 9.361821
54.900 9.59447
54.905 9.269876
54.910 9.084465
54.915 9.144704
54.920 8.97565
54.925 8.687291
54.930 8.620629
54.935 8.552962
54.940 9.054772
54.945 8.903708
54.950 9.285961
54.955 9.639978
54.960 9.899445
54.965 9.827435
54.970 9.639042
54.975 9.282026
54.980 8.892821
54.985 8.821976
54.990 8.79164
54.995 9.083845
55.000 9.012303
55.005 9.211325
55.010 9.103501
55.015 8.767668
55.020 8.068598
55.025 7.623528
55.030 7.717241
55.035 7.990324
55.040 7.989589
55.045 8.336902
55.050 8.82152
55.055 9.211431
55.060 9.142096
55.065 9.144976
55.070 8.960952
55.075 8.834815
55.080 9.197125
55.085 8.701012
55.090 8.386905
55.095 8.35837
55.100 8.435056
55.105 8.467355
55.110 8.666331
55.115 8.647256
55.120 8.955067
55.125 9.490068
55.130 9.571745
55.135 9.459743
55.140 9.372641
55.145 9.25383
55.150 9.096901
55.155 9.216484
55.160 8.912292
55.165 8.968806
55.170 9.193686
55.175 8.958109
55.180 8.656584
55.185 8.391393
55.190 8.702175
55.195 8.800736
55.200 8.693502
55.205 9.030972
55.210 9.788735
55.215 10.010565
55.220 9.785576
55.225 9.151683
55.230 9.010148
55.235 9.074004
55.240 8.714644
55.245 8.749535
55.250 8.606798
55.255 9.039992
55.260 9.339528
55.265 9.950471
55.270 9.986393
55.275 10.359819
55.280 10.912136
55.285 11.081697
55.290 10.570889
55.295 10.215734
55.300 9.70473
55.305 9.362806
55.310 8.560449
55.315 7.612356
55.320 7.491389
55.325 8.035696
55.330 8.42176
55.335 8.448832
55.340 8.470304
55.345 8.974402
55.350 9.612356
55.355 9.976123
55.360 9.920115
55.365 9.877371
55.370 9.923926
55.375 9.973061
55.380 9.646232
55.385 9.521382
55.390 9.629902
55.395 9.601431
55.400 9.700539
55.405 9.953747
55.410 10.063986
55.415 10.230173
55.420 9.89306
55.425 9.588645
55.430 9.548727
55.435 8.99442
55.440 8.875756
55.445 8.915367
55.450 8.744948
55.455 8.896827
55.460 8.920745
55.465 8.991917
55.470 9.304026
55.475 9.494678
55.480 9.604493
55.485 9.721832
55.490 9.785232
55.495 9.698771
55.500 9.610144
55.505 9.698314
55.510 9.342296
55.515 8.93205
55.520 8.645316
55.525 8.593645
55.530 8.766396
55.535 9.040998
55.540 9.034421
55.545 9.075727
55.550 9.430009
55.555 9.418144
55.560 9.705479
55.565 9.564474
55.570 9.219544
55.575 8.957209
55.580 9.000604
55.585 9.639701
55.590 9.793282
55.595 9.576974
55.600 9.80721
55.605 10.309699
55.610 10.375397
55.615 10.106653
55.620 9.636644
55.625 9.606131
55.630 9.767147
55.635 9.724307
55.640 9.463167
55.645 9.900456
55.650 9.63461
55.655 9.566724
55.660 9.161885
55.665 8.85487
55.670 9.093059
55.675 9.078069
55.680 8.884553
55.685 9.121552
55.690 9.608412
55.695 10.123286
55.700 9.933037
55.705 9.802238
55.710 10.305976
55.715 10.456458
55.720 10.405841
55.725 9.811009
55.730 9.601264
55.735 9.454723
55.740 9.479316
55.745 9.22508
55.750 8.794192
55.755 9.27588
55.760 9.66616
55.765 10.164549
55.770 10.739288
55.775 11.090219
55.780 11.334987
55.785 11.875798
55.790 11.429983
55.795 11.126628
55.800 11.095648
55.805 10.863496
55.810 10.63441
55.815 10.921405
55.820 10.842008
55.825 11.074038
55.830 10.895171
55.835 10.729838
55.840 10.081038
55.845 10.309761
55.850 10.25196
55.855 9.947621
55.860 9.926714
55.865 10.051598
55.870 10.023135
55.875 9.932987
55.880 9.263892
55.885 9.39316
55.890 10.088804
55.895 10.353311
55.900 10.563334
55.905 10.690928
55.910 11.363281
55.915 11.740508
55.920 11.865294
55.925 11.634801
55.930 11.42597
55.935 11.119583
55.940 10.817169
55.945 10.597589
55.950 10.567532
55.955 10.182629
55.960 10.24113
55.965 10.361768
55.970 10.535484
55.975 10.383406
55.980 10.250539
55.985 10.128878
55.990 10.040103
55.995 9.863413
56.000 10.073549
56.005 10.486513
56.010 10.664914
56.015 10.691886
56.020 10.853271
56.025 10.806076
56.030 10.582665
56.035 10.104894
56.040 9.561003
56.045 9.887032
56.050 9.931707
56.055 9.700889
56.060 10.056567
56.065 10.370755
56.070 10.721957
56.075 10.531051
56.080 10.295848
56.085 10.181342
56.090 9.961625
56.095 9.651974
56.100 9.488994
56.105 9.56609
56.110 9.710876
56.115 10.050562
56.120 10.577378
56.125 10.661916
56.130 10.537664
56.135 10.534613
56.140 10.393723
56.145 10.553563
56.150 10.141595
56.155 9.733191
56.160 9.478859
56.165 9.609812
56.170 9.579091
56.175 9.9966
56.180 9.749582
56.185 9.556937
56.190 9.912003
56.195 10.538573
56.200 10.754398
56.205 11.149422
56.210 11.214531
56.215 11.709953
56.220 11.776971
56.225 11.442789
56.230 11.097784
56.235 10.668371
56.240 10.246434
56.245 10.005549
56.250 10.030625
56.255 10.343782
56.260 10.687986
56.265 11.208873
56.270 11.458737
56.275 11.376544
56.280 11.225475
56.285 11.370028
56.290 11.03104
56.295 10.699563
56.300 10.405856
56.305 10.567925
56.310 10.8756
56.315 10.896453
56.320 10.18574
56.325 10.31192
56.330 10.759953
56.335 10.631449
56.340 10.305977
56.345 10.290806
56.350 10.417956
56.355 10.632849
56.360 10.288135
56.365 9.724479
56.370 9.920708
56.375 10.133393
56.380 10.059868
56.385 9.906841
56.390 9.704645
56.395 10.224609
56.400 10.741499
56.405 10.604529
56.410 10.917295
56.415 11.095827
56.420 11.272067
56.425 11.499415
56.430 11.36094
56.435 11.346162
56.440 11.213272
56.445 10.862913
56.450 10.419731
56.455 10.378942
56.460 10.898699
56.465 10.980349
56.470 10.6288
56.475 10.508606
56.480 10.651369
56.485 11.000354
56.490 11.243797
56.495 11.056315
56.500 10.8877
56.505 10.976862
56.510 11.241336
56.515 11.342321
56.520 11.386689
56.525 11.35222
56.530 11.290103
56.535 11.608139
56.540 11.321602
56.545 10.902677
56.550 10.672623
56.555 10.786331
56.560 10.812487
56.565 10.446617
56.570 10.330435
56.575 11.013638
56.580 11.582905
56.585 11.479415
56.590 11.026355
56.595 10.744024
56.600 10.889594
56.605 10.521823
56.610 10.148235
56.615 9.698791
56.620 9.957574
56.625 9.963417
56.630 10.501951
56.635 11.126443
56.640 11.622418
56.645 11.554507
56.650 11.70735
56.655 11.643323
56.660 11.781322
56.665 11.587459
56.670 11.250316
56.675 11.712365
56.680 12.023145
56.685 11.88266
56.690 11.70045
56.695 12.073808
56.700 12.07895
56.705 12.395935
56.710 12.236708
56.715 12.402459
56.720 12.672402
56.725 12.893365
56.730 13.025348
56.735 12.804968
56.740 12.125597
56.745 12.15101
56.750 12.230558
56.755 12.348982
56.760 12.149371
56.765 11.767282
56.770 11.981388
56.775 12.122846
56.780 11.553467
56.785 11.564797
56.790 11.959286
56.795 12.291775
56.800 12.067107
56.805 12.317273
56.810 11.919821
56.815 11.549972
56.820 11.089045
56.825 10.346916
56.830 10.510956
56.835 10.669363
56.840 10.883151
56.845 11.393247
56.850 12.105625
56.855 12.18231
56.860 12.249953
56.865 11.670167
56.870 11.808736
56.875 12.000156
56.880 12.235767
56.885 12.404236
56.890 13.168475
56.895 13.198752
56.900 13.764743
56.905 13.731434
56.910 13.169759
56.915 12.936235
56.920 12.790774
56.925 12.744544
56.930 12.963438
56.935 12.340684
56.940 12.206188
56.945 12.566805
56.950 12.891788
56.955 12.645361
56.960 12.623477
56.965 13.02991
56.970 13.225378
56.975 13.76866
56.980 13.540824
56.985 13.397818
56.990 13.640131
56.995 13.479246
57.000 13.738269
57.005 13.774316
57.010 13.219651
57.015 13.441634
57.020 13.259015
57.025 12.696855
57.030 12.149411
57.035 11.543516
57.040 11.285398
57.045 10.650499
57.050 10.304245
57.055 10.02751
57.060 9.700291
57.065 9.787089
57.070 9.878805
57.075 10.427763
57.080 11.251946
57.085 11.496934
57.090 11.733797
57.095 12.024882
57.100 11.859856
57.105 11.821227
57.110 11.314391
57.115 10.920089
57.120 10.917971
57.125 11.322184
57.130 11.960149
57.135 12.201764
57.140 12.220308
57.145 12.120042
57.150 12.516782
57.155 12.18233
57.160 11.697431
57.165 11.883685
57.170 12.185642
57.175 12.74783
57.180 12.467313
57.185 12.267962
57.190 12.386487
57.195 12.336757
57.200 12.032973
57.205 11.649708
57.210 11.653651
57.215 11.762871
57.220 11.805949
57.225 11.820104
57.230 12.011266
57.235 11.353271
57.240 11.108576
57.245 10.963139
57.250 10.98897
57.255 11.059158
57.260 10.92848
57.265 11.031118
57.270 11.573917
57.275 11.213346
57.280 10.904803
57.285 11.203608
57.290 11.192125
57.295 11.032719
57.300 10.709059
57.305 10.912176
57.310 11.323802
57.315 11.546417
57.320 11.792025
57.325 11.705848
57.330 12.441399
57.335 12.414824
57.340 12.020607
57.345 12.067892
57.350 11.572903
57.355 11.235769
57.360 11.120092
57.365 10.649176
57.370 11.01481
57.375 11.252454
57.380 11.11971
57.385 11.527934
57.390 11.6174
57.395 11.950213
57.400 12.149468
57.405 11.994162
57.410 11.897417
57.415 12.517368
57.420 13.241986
57.425 13.539439
57.430 13.946306
57.435 13.591153
57.440 13.872227
57.445 14.052018
57.450 13.507986
57.455 12.88933
57.460 12.510124
57.465 12.181589
57.470 12.134357
57.475 12.207353
57.480 12.266912
57.485 12.606044
57.490 12.681568
57.495 12.756954
57.500 12.853823
57.505 12.868921
57.510 13.061126
57.515 13.193622
57.520 13.324006
57.525 12.987383
57.530 13.082037
57.535 13.240226
57.540 13.432655
57.545 12.789334
57.550 12.326543
57.555 12.306307
57.560 12.481189
57.565 11.985947
57.570 11.779169
57.575 12.121942
57.580 12.759613
57.585 12.948239
57.590 12.297801
57.595 11.924979
57.600 12.770564
57.605 12.810642
57.610 12.156294
57.615 11.745385
57.620 11.877277
57.625 12.392171
57.630 12.542634
57.635 12.315766
57.640 12.115105
57.645 12.247078
57.650 11.897502
57.655 12.050392
57.660 12.095468
57.665 12.513402
57.670 12.030035
57.675 12.442592
57.680 12.357022
57.685 12.775123
57.690 12.728118
57.695 13.096076
57.700 12.660167
57.705 12.741795
57.710 12.364415
57.715 12.649012
57.720 12.25713
57.725 12.201634
57.730 11.956675
57.735 12.527254
57.740 12.403452
57.745 12.478082
57.750 12.711624
57.755 13.184389
57.760 13.288462
57.765 12.974056
57.770 12.718278
57.775 12.788889
57.780 12.601679
57.785 12.5278
57.790 12.175709
57.795 11.933647
57.800 11.811749
57.805 11.842631
57.810 12.259548
57.815 12.624202
57.820 12.683483
57.825 12.766265
57.830 12.700284
57.835 13.160268
57.840 13.348387
57.845 13.400498
57.850 13.525899
57.855 13.164678
57.860 12.929396
57.865 12.758786
57.870 12.291802
57.875 12.121265
57.880 11.757609
57.885 11.295128
57.890 11.255589
57.895 11.856566
57.900 12.536977
57.905 13.02223
57.910 13.001074
57.915 13.575352
57.920 13.800535
57.925 13.643713
57.930 13.318928
57.935 13.230024
57.940 13.391183
57.945 13.284925
57.950 13.406058
57.955 13.774775
57.960 13.555241
57.965 13.680134
57.970 13.430509
57.975 13.327921
57.980 13.032631
57.985 12.864949
57.990 12.67488
57.995 13.075096
58.000 13.342103
58.005 13.121337
58.010 13.278793
58.015 13.69289
58.020 13.639873
58.025 14.413169
58.030 14.943042
58.035 14.987333
58.040 15.258292
58.045 15.219308
58.050 15.156249
58.055 14.827877
58.060 14.12727
58.065 13.560036
58.070 13.16346
58.075 12.737573
58.080 12.503957
58.085 12.534072
58.090 12.43437
58.095 12.513896
58.100 12.787147
58.105 12.857194
58.110 13.125208
58.115 13.102862
58.120 12.949499
58.125 12.883434
58.130 12.784273
58.135 12.953453
58.140 13.550845
58.145 13.455165
58.150 13.306503
58.155 13.127832
58.160 12.96839
58.165 12.553195
58.170 12.307482
58.175 11.990955
58.180 12.232194
58.185 12.489049
58.190 13.30257
58.195 13.530982
58.200 13.615841
58.205 13.510162
58.210 13.349136
58.215 13.297506
58.220 13.574281
58.225 13.547457
58.230 13.725822
58.235 14.012612
58.240 14.550628
58.245 14.351872
58.250 13.755677
58.255 13.088605
58.260 13.013976
58.265 13.180912
58.270 12.779255
58.275 11.921046
58.280 11.939914
58.285 12.50535
58.290 12.557031
58.295 12.053608
58.300 12.026488
58.305 12.012634
58.310 12.180418
58.315 12.374975
58.320 12.402035
58.325 12.29049
58.330 12.815139
58.335 12.574854
58.340 12.491812
58.345 12.804093
58.350 12.595697
58.355 12.470569
58.360 12.762001
58.365 12.39468
58.370 12.692854
58.375 12.963947
58.380 13.108407
58.385 13.225285
58.390 13.231956
58.395 13.345635
58.400 13.41414
58.405 12.892326
58.410 13.053733
58.415 12.803524
58.420 12.777109
58.425 12.509269
58.430 12.094004
58.435 12.308113
58.440 13.132554
58.445 13.107084
58.450 13.435455
58.455 13.427974
58.460 14.343529
58.465 14.937143
58.470 14.831563
58.475 14.397312
58.480 14.311806
58.485 14.242704
58.490 14.827031
58.495 14.764303
58.500 15.232692
58.505 15.243814
58.510 14.949716
58.515 14.594837
58.520 14.24877
58.525 13.839498
58.530 14.104397
58.535 13.405159
58.540 13.475719
58.545 14.140245
58.550 14.599601
58.555 15.293504
58.560 15.833612
58.565 15.077306
58.570 15.741501
58.575 16.069284
58.580 15.996115
58.585 15.609897
58.590 14.626687
58.595 14.130943
