!@!!GADDS PLOTSO FILE: Chi integration type
!@!!Title/SampleName: map-105
!@!!Comment: ?
!@!!User: Bruker Instrument Administrator
!@!!Site: University of Illinois Chicago
!@!!Frame: map-105_01_000.gfrm
!@!!Wavelengths    1.54184   1.54056   1.54439
!@!!Frame angles: 2Theta: 63.000 Omega: 50.000 Phi: 0.000 Chi: 90.000
!@!!Integration range: 2Theta: 53.000 to 73.000  Gamma: -105.000 to -75.000
!@!!Integration method: bin normalized
!@!N
!@!SS
!@!M
!@!L 0.0 0.0 0.0 0.0
!@!XDegrees
!@!YCounts
53.000 9.466438
53.005 9.400918
53.010 9.98481
53.015 10.592135
53.020 10.60063
53.025 10.960046
53.030 10.939914
53.035 10.945296
53.040 10.718459
53.045 10.520111
53.050 10.09129
53.055 9.852266
53.060 9.692125
53.065 10.014734
53.070 9.799681
53.075 9.734755
53.080 9.460309
53.085 10.068503
53.090 10.296255
53.095 10.421462
53.100 10.345536
53.105 10.552854
53.110 10.528155
53.115 10.399562
53.120 9.665102
53.125 9.69191
53.130 9.802096
53.135 9.786847
53.140 9.526292
53.145 9.336502
53.150 9.601239
53.155 10.054222
53.160 9.595003
53.165 9.712088
53.170 10.02538
53.175 10.971786
53.180 11.267475
53.185 10.616918
53.190 10.690017
53.195 10.795714
53.200 10.876037
53.205 10.788763
53.210 10.452012
53.215 10.841001
53.220 10.878099
53.225 10.542356
53.230 10.783635
53.235 10.360834
53.240 9.983498
53.245 9.905474
53.250 10.038867
53.255 10.740649
53.260 10.826082
53.265 10.696971
53.270 11.168641
53.275 11.274078
53.280 11.117546
53.285 10.6995
53.290 10.288857
53.295 10.316626
53.300 10.149964
53.305 10.317913
53.310 10.536051
53.315 11.120026
53.320 11.510953
53.325 11.467418
53.330 11.611751
53.335 11.659598
53.340 11.411238
53.345 11.256498
53.350 10.779695
53.355 10.894341
53.360 10.852842
53.365 10.347055
53.370 10.00871
53.375 9.50013
53.380 9.275887
53.385 9.068058
53.390 9.166041
53.395 9.278229
53.400 9.434928
53.405 9.276408
53.410 9.598095
53.415 10.114747
53.420 10.50472
53.425 10.754185
53.430 10.980919
53.435 11.039661
53.440 11.509318
53.445 11.50342
53.450 11.114463
53.455 11.025907
53.460 11.440834
53.465 11.447834
53.470 11.693223
53.475 11.646708
53.480 11.698928
53.485 12.020118
53.490 11.466252
53.495 10.760076
53.500 10.51258
53.505 10.290606
53.510 10.519045
53.515 10.648149
53.520 10.710826
53.525 11.341509
53.530 11.831615
53.535 11.860016
53.540 11.725715
53.545 11.119503
53.550 11.230731
53.555 11.190848
53.560 10.787539
53.565 10.552032
53.570 10.451741
53.575 10.342174
53.580 10.206774
53.585 9.950141
53.590 9.881353
53.595 10.158388
53.600 10.683678
53.605 10.775962
53.610 11.238004
53.615 11.299519
53.620 11.185136
53.625 11.182718
53.630 11.064045
53.635 10.871757
53.640 10.788815
53.645 10.771061
53.650 10.834622
53.655 11.020684
53.660 10.912342
53.665 10.739812
53.670 10.774755
53.675 11.395486
53.680 11.257921
53.685 11.076141
53.690 10.885224
53.695 11.35195
53.700 11.653306
53.705 11.431374
53.710 11.032924
53.715 11.092546
53.720 11.630188
53.725 11.668429
53.730 11.462278
53.735 11.398438
53.740 11.091874
53.745 11.114721
53.750 11.132578
53.755 10.564128
53.760 10.50798
53.765 10.291389
53.770 10.66704
53.775 11.312301
53.780 11.463594
53.785 11.57549
53.790 11.330533
53.795 11.332013
53.800 11.451886
53.805 11.132191
53.810 10.735549
53.815 10.207127
53.820 9.83133
53.825 9.671071
53.830 9.480455
53.835 9.660019
53.840 9.575182
53.845 9.807378
53.850 10.084488
53.855 10.671203
53.860 11.427754
53.865 11.254633
53.870 11.175767
53.875 10.875032
53.880 11.031102
53.885 11.155666
53.890 11.533476
53.895 11.828186
53.900 11.950606
53.905 11.858356
53.910 12.239026
53.915 12.362028
53.920 12.047392
53.925 11.381304
53.930 11.840669
53.935 12.277159
53.940 12.73398
53.945 12.199179
53.950 12.404495
53.955 12.754157
53.960 13.074114
53.965 12.853537
53.970 12.797097
53.975 13.24557
53.980 13.348967
53.985 13.247811
53.990 13.219298
53.995 12.582039
54.000 12.191329
54.005 11.819805
54.010 11.86788
54.015 11.753209
54.020 11.437267
54.025 11.666296
54.030 11.805257
54.035 11.702383
54.040 11.477416
54.045 11.015503
54.050 11.351795
54.055 11.509641
54.060 11.352058
54.065 11.587887
54.070 12.088029
54.075 12.419888
54.080 13.108107
54.085 12.755464
54.090 12.735486
54.095 13.00858
54.100 13.014834
54.105 12.951017
54.110 13.088232
54.115 12.847471
54.120 13.076371
54.125 12.670155
54.130 12.108379
54.135 12.369278
54.140 12.041015
54.145 11.738475
54.150 11.616255
54.155 11.103294
54.160 10.942016
54.165 10.727991
54.170 10.161448
54.175 10.441248
54.180 10.743125
54.185 11.000674
54.190 11.389656
54.195 11.544171
54.200 11.668068
54.205 11.983015
54.210 11.604669
54.215 10.987408
54.220 10.86492
54.225 11.168926
54.230 11.557023
54.235 12.064569
54.240 12.337855
54.245 12.56356
54.250 12.517741
54.255 12.822018
54.260 13.343544
54.265 13.244609
54.270 12.993365
54.275 12.812765
54.280 12.701319
54.285 12.780248
54.290 12.956775
54.295 12.513693
54.300 12.163199
54.305 12.413709
54.310 12.710043
54.315 13.288795
54.320 13.253257
54.325 12.963797
54.330 12.811742
54.335 13.106274
54.340 13.069972
54.345 12.458776
54.350 12.11549
54.355 12.040327
54.360 11.817862
54.365 12.279725
54.370 11.956203
54.375 12.216966
54.380 12.332999
54.385 12.220751
54.390 12.180481
54.395 11.900342
54.400 11.90018
54.405 12.003102
54.410 11.684886
54.415 12.013702
54.420 11.901412
54.425 11.950163
54.430 11.956002
54.435 11.305722
54.440 11.572353
54.445 11.21523
54.450 10.7998
54.455 10.996456
54.460 10.965838
54.465 10.81911
54.470 10.75932
54.475 10.544678
54.480 10.802263
54.485 11.120456
54.490 11.018667
54.495 11.35385
54.500 12.05141
54.505 12.788807
54.510 13.383831
54.515 13.475234
54.520 13.748297
54.525 14.234946
54.530 13.797381
54.535 13.327039
54.540 13.039191
54.545 13.073016
54.550 13.129469
54.555 12.667247
54.560 12.003754
54.565 12.644023
54.570 12.842831
54.575 12.667164
54.580 12.168333
54.585 12.396847
54.590 12.725151
54.595 12.876168
54.600 12.273662
54.605 11.936931
54.610 11.723422
54.615 12.225833
54.620 12.386641
54.625 12.622447
54.630 12.402474
54.635 12.385465
54.640 12.938714
54.645 12.902406
54.650 12.226666
54.655 11.580602
54.660 11.417109
54.665 11.572251
54.670 11.680593
54.675 11.41036
54.680 11.478189
54.685 11.861886
54.690 12.660294
54.695 12.953961
54.700 13.258636
54.705 13.049514
54.710 13.40996
54.715 13.421917
54.720 13.357973
54.725 12.633905
54.730 12.493998
54.735 12.620966
54.740 12.692463
54.745 12.458081
54.750 12.386282
54.755 12.413761
54.760 12.157738
54.765 11.867412
54.770 11.919003
54.775 11.688787
54.780 11.423287
54.785 11.099053
54.790 10.888453
54.795 10.567071
54.800 10.331823
54.805 10.077333
54.810 10.077052
54.815 10.156047
54.820 10.228136
54.825 10.937367
54.830 11.706237
54.835 11.996315
54.840 12.005507
54.845 12.80713
54.850 13.62929
54.855 14.056322
54.860 13.776238
54.865 13.512796
54.870 13.424079
54.875 13.415356
54.880 13.016268
54.885 12.732908
54.890 12.39854
54.895 12.765064
54.900 12.934058
54.905 13.136341
54.910 13.152594
54.915 13.496702
54.920 13.586304
54.925 13.527782
54.930 13.249104
54.935 13.131599
54.940 13.271295
54.945 13.614087
54.950 13.491187
54.955 13.389453
54.960 13.856381
54.965 13.944298
54.970 14.197751
54.975 13.974198
54.980 14.096407
54.985 14.487239
54.990 14.870908
54.995 14.61042
55.000 14.602216
55.005 14.391973
55.010 13.907518
55.015 13.090533
55.020 12.354652
55.025 11.670836
55.030 11.498642
55.035 11.294424
55.040 11.19478
55.045 11.429461
55.050 11.549007
55.055 11.870296
55.060 12.363753
55.065 13.032775
55.070 13.517093
55.075 14.31196
55.080 14.501688
55.085 14.705434
55.090 14.727858
55.095 14.764576
55.100 14.586161
55.105 14.060822
55.110 13.332925
55.115 13.30453
55.120 13.263092
55.125 12.715912
55.130 12.920958
55.135 13.292599
55.140 13.340137
55.145 13.530591
55.150 13.502215
55.155 13.802736
55.160 14.369493
55.165 13.692935
55.170 13.48865
55.175 13.600501
55.180 13.352231
55.185 13.416602
55.190 13.372949
55.195 13.145326
55.200 13.130985
55.205 12.74747
55.210 12.699876
55.215 12.818389
55.220 12.151467
55.225 11.452639
55.230 11.130538
55.235 11.167793
55.240 11.454143
55.245 11.342955
55.250 11.417396
55.255 11.785821
55.260 12.080699
55.265 12.445098
55.270 12.613781
55.275 12.22597
55.280 12.367995
55.285 12.816042
55.290 12.75695
55.295 12.826342
55.300 12.396637
55.305 12.377975
55.310 12.932497
55.315 12.513993
55.320 12.210073
55.325 12.621086
55.330 12.660719
55.335 12.913434
55.340 13.016022
55.345 13.075935
55.350 13.509105
55.355 13.477646
55.360 13.043092
55.365 13.524262
55.370 13.194106
55.375 12.830105
55.380 12.729223
55.385 12.868756
55.390 13.217363
55.395 13.564472
55.400 13.521666
55.405 14.150727
55.410 13.961545
55.415 13.41081
55.420 13.054624
55.425 12.879723
55.430 12.735503
55.435 12.301631
55.440 12.383342
55.445 12.643982
55.450 12.777361
55.455 12.784525
55.460 12.531908
55.465 12.617935
55.470 12.880604
55.475 12.263512
55.480 12.252416
55.485 12.450149
55.490 13.066754
55.495 13.033166
55.500 12.907727
55.505 12.831516
55.510 13.026704
55.515 12.980259
55.520 13.247947
55.525 12.885983
55.530 13.327724
55.535 13.427719
55.540 13.176368
55.545 13.23414
55.550 13.450243
55.555 13.51874
55.560 13.747633
55.565 13.698253
55.570 13.86092
55.575 14.415639
55.580 14.447767
55.585 14.218024
55.590 13.615361
55.595 13.21711
55.600 12.707022
55.605 12.623921
55.610 12.452565
55.615 12.397768
55.620 12.964157
55.625 13.584753
55.630 13.565272
55.635 13.756696
55.640 13.651772
55.645 13.665332
55.650 13.689723
55.655 13.042025
55.660 12.796007
55.665 12.813359
55.670 12.786283
55.675 13.116953
55.680 12.637486
55.685 12.397951
55.690 12.43921
55.695 12.272823
55.700 12.691276
55.705 12.290403
55.710 12.179716
55.715 12.39161
55.720 12.610802
55.725 12.40222
55.730 12.315982
55.735 12.328549
55.740 12.390681
55.745 12.67384
55.750 13.445881
55.755 13.861971
55.760 14.184895
55.765 14.609688
55.770 14.48769
55.775 14.61173
55.780 14.153584
55.785 13.896564
55.790 13.797266
55.795 13.800025
55.800 13.650364
55.805 13.986067
55.810 13.747615
55.815 13.885634
55.820 13.387733
55.825 13.348602
55.830 13.582505
55.835 14.129615
55.840 14.432296
55.845 14.676436
55.850 14.347746
55.855 14.103333
55.860 13.864198
55.865 13.543014
55.870 12.641526
55.875 12.490549
55.880 12.790774
55.885 13.486341
55.890 13.918836
55.895 14.136238
55.900 13.922771
55.905 14.032273
55.910 13.898512
55.915 13.720917
55.920 13.707479
55.925 13.429218
55.930 13.483249
55.935 13.715941
55.940 14.183986
55.945 14.550297
55.950 14.008862
55.955 13.995563
55.960 14.099872
55.965 14.065623
55.970 13.815583
55.975 13.039305
55.980 13.446331
55.985 13.689875
55.990 13.34551
55.995 12.821792
56.000 12.494491
56.005 12.619137
56.010 13.085974
56.015 12.293933
56.020 12.10125
56.025 12.229203
56.030 12.986908
56.035 13.528526
56.040 13.256848
56.045 13.152211
56.050 13.340944
56.055 13.627883
56.060 13.845016
56.065 13.430291
56.070 13.246953
56.075 13.069581
56.080 12.812282
56.085 12.809362
56.090 12.704118
56.095 12.556492
56.100 12.909756
56.105 13.57029
56.110 13.981511
56.115 14.126945
56.120 14.314269
56.125 14.498916
56.130 14.032506
56.135 13.515293
56.140 13.09797
56.145 12.8069
56.150 12.923841
56.155 12.820816
56.160 13.454923
56.165 13.870256
56.170 13.870719
56.175 14.069189
56.180 14.08058
56.185 14.037331
56.190 14.130758
56.195 13.856536
56.200 13.615879
56.205 13.292914
56.210 13.007456
56.215 12.56603
56.220 12.264503
56.225 12.521324
56.230 12.623536
56.235 12.919508
56.240 13.315378
56.245 14.011485
56.250 14.860044
56.255 15.025388
56.260 14.506729
56.265 14.476643
56.270 14.6045
56.275 14.255067
56.280 13.673761
56.285 13.454813
56.290 13.512853
56.295 13.703527
56.300 13.23461
56.305 13.090182
56.310 13.571301
56.315 14.256523
56.320 14.723892
56.325 14.44412
56.330 14.525314
56.335 14.535524
56.340 14.465492
56.345 14.531917
56.350 14.058116
56.355 13.692041
56.360 13.677332
56.365 13.733619
56.370 14.220464
56.375 14.356904
56.380 13.972219
56.385 14.103335
56.390 13.819561
56.395 14.017884
56.400 14.557892
56.405 14.771212
56.410 15.108898
56.415 14.858549
56.420 14.425195
56.425 13.949904
56.430 13.528779
56.435 12.718839
56.440 12.161148
56.445 12.003963
56.450 12.52227
56.455 12.98365
56.460 13.420207
56.465 13.16558
56.470 13.370818
56.475 13.51546
56.480 12.968187
56.485 12.950555
56.490 13.774064
56.495 14.480878
56.500 14.870281
56.505 15.030015
56.510 15.059943
56.515 15.295663
56.520 15.36375
56.525 14.841004
56.530 14.817564
56.535 14.871507
56.540 14.85079
56.545 15.063435
56.550 15.139139
56.555 14.765294
56.560 15.136875
56.565 14.779848
56.570 14.547789
56.575 14.691861
56.580 15.120647
56.585 14.934297
56.590 14.655128
56.595 14.443539
56.600 14.472782
56.605 14.762302
56.610 14.861604
56.615 15.102139
56.620 15.316145
56.625 15.039618
56.630 14.536142
56.635 14.426866
56.640 14.168514
56.645 13.702095
56.650 13.520925
56.655 13.682565
56.660 14.180603
56.665 14.487177
56.670 14.730045
56.675 14.633323
56.680 14.506916
56.685 14.553159
56.690 14.816857
56.695 15.648267
56.700 15.717002
56.705 15.750727
56.710 16.068188
56.715 16.355621
56.720 16.522232
56.725 16.457964
56.730 16.020834
56.735 16.287754
56.740 16.252497
56.745 16.36985
56.750 16.460588
56.755 16.327631
56.760 16.452276
56.765 16.208031
56.770 16.391563
56.775 16.110708
56.780 15.968684
56.785 15.728456
56.790 15.52769
56.795 14.962064
56.800 14.659852
56.805 13.929995
56.810 14.263887
56.815 14.485115
56.820 14.941334
56.825 14.885992
56.830 15.064854
56.835 14.706923
56.840 15.056077
56.845 15.238989
56.850 14.71526
56.855 14.157394
56.860 14.042511
56.865 14.078022
56.870 15.14688
56.875 14.943851
56.880 14.773523
56.885 14.763101
56.890 14.423564
56.895 14.002661
56.900 14.156427
56.905 13.727434
56.910 13.791477
56.915 13.446302
56.920 13.633726
56.925 14.470172
56.930 14.717022
56.935 14.32081
56.940 14.210354
56.945 14.581304
56.950 14.793536
56.955 14.44381
56.960 14.562587
56.965 15.037349
56.970 15.241952
56.975 15.113765
56.980 14.513348
56.985 14.621327
56.990 14.880965
56.995 14.462056
57.000 14.464213
57.005 14.705029
57.010 14.673009
57.015 15.290134
57.020 15.640971
57.025 15.463016
57.030 15.650639
57.035 15.62317
57.040 15.39884
57.045 15.757318
57.050 15.298206
57.055 14.732404
57.060 14.581979
57.065 14.78891
57.070 14.704659
57.075 14.936762
57.080 15.00202
57.085 15.053678
57.090 15.29953
57.095 15.319344
57.100 14.501641
57.105 14.167357
57.110 14.321621
57.115 14.400231
57.120 13.999605
57.125 13.789821
57.130 14.001853
57.135 14.880764
57.140 15.085553
57.145 14.651609
57.150 14.461098
57.155 14.717701
57.160 15.065953
57.165 15.09717
57.170 14.788649
57.175 15.118122
57.180 15.30785
57.185 15.327019
57.190 15.551622
57.195 15.475174
57.200 15.177093
57.205 15.169134
57.210 15.100935
57.215 15.366243
57.220 15.413534
57.225 15.447808
57.230 15.370116
57.235 15.591297
57.240 14.93099
57.245 14.776883
57.250 14.768974
57.255 14.761415
57.260 14.545291
57.265 14.720263
57.270 14.747943
57.275 15.417141
57.280 15.650234
57.285 15.606292
57.290 15.686388
57.295 15.944583
57.300 15.419431
57.305 15.108233
57.310 14.782947
57.315 14.609289
57.320 14.698234
57.325 14.956845
57.330 15.101866
57.335 16.040283
57.340 16.344709
57.345 16.305782
57.350 15.840985
57.355 15.402323
57.360 15.143205
57.365 14.975657
57.370 14.307775
57.375 14.308103
57.380 14.506096
57.385 14.595865
57.390 15.053318
57.395 15.472948
57.400 15.29113
57.405 15.537068
57.410 15.523794
57.415 15.18961
57.420 15.347815
57.425 14.802459
57.430 14.243387
57.435 14.65081
57.440 14.43664
57.445 14.365925
57.450 14.744675
57.455 14.643791
57.460 15.024721
57.465 15.286115
57.470 14.886385
57.475 14.998528
57.480 14.905257
57.485 15.103062
57.490 15.450982
57.495 15.338802
57.500 15.019163
57.505 14.967085
57.510 14.950448
57.515 15.489389
57.520 15.15014
57.525 14.724456
57.530 14.261239
57.535 14.789693
57.540 15.228876
57.545 15.306607
57.550 15.336794
57.555 15.326779
57.560 16.11467
57.565 16.401768
57.570 16.207022
57.575 16.094288
57.580 16.124414
57.585 16.438976
57.590 16.861231
57.595 17.022476
57.600 16.880411
57.605 16.544842
57.610 16.012753
57.615 15.265001
57.620 14.798618
57.625 13.923295
57.630 12.9522
57.635 12.853038
57.640 13.043399
57.645 13.198104
57.650 13.168685
57.655 13.483904
57.660 13.773089
57.665 14.215386
57.670 13.835562
57.675 14.109329
57.680 14.549435
57.685 14.534183
57.690 14.658088
57.695 15.316438
57.700 15.251627
57.705 15.832239
57.710 16.305582
57.715 16.453329
57.720 16.617802
57.725 16.476614
57.730 16.305378
57.735 17.347303
57.740 17.600065
57.745 17.210423
57.750 17.256695
57.755 17.209997
57.760 17.28026
57.765 17.686094
57.770 16.923958
57.775 16.492388
57.780 16.53985
57.785 16.374369
57.790 16.438629
57.795 16.172853
57.800 16.216696
57.805 16.297222
57.810 16.583708
57.815 16.778114
57.820 16.953455
57.825 17.085554
57.830 16.925842
57.835 16.418337
57.840 16.120857
57.845 15.151197
57.850 14.724904
57.855 14.306498
57.860 14.007105
57.865 14.042478
57.870 14.063994
57.875 14.583587
57.880 14.783127
57.885 15.009561
57.890 15.078142
57.895 15.088863
57.900 14.480543
57.905 14.124391
57.910 14.111587
57.915 14.3935
57.920 14.018538
57.925 14.026361
57.930 14.082402
57.935 14.299589
57.940 14.623555
57.945 14.540455
57.950 14.49692
57.955 14.37628
57.960 14.345391
57.965 14.863478
57.970 15.151343
57.975 14.695501
57.980 14.378206
57.985 14.472841
57.990 15.067949
57.995 15.423426
58.000 15.093125
58.005 15.481913
58.010 15.946618
58.015 16.48851
58.020 16.629749
58.025 16.561907
58.030 16.425304
58.035 16.876616
58.040 17.456963
58.045 17.695568
58.050 17.142565
58.055 16.825298
58.060 16.99877
58.065 16.996731
58.070 16.64677
58.075 16.147083
58.080 16.391573
58.085 16.627872
58.090 16.617985
58.095 16.096565
58.100 15.777208
58.105 15.66087
58.110 15.163026
58.115 14.540093
58.120 14.94435
58.125 15.333148
58.130 15.297163
58.135 15.632848
58.140 15.817544
58.145 16.831736
58.150 17.415243
58.155 17.38431
58.160 17.398037
58.165 17.836035
58.170 17.390705
58.175 17.5403
58.180 16.873615
58.185 16.162104
58.190 15.770234
58.195 15.865003
58.200 16.011816
58.205 16.323719
58.210 16.078968
58.215 15.686387
58.220 15.970188
58.225 15.883906
58.230 15.327785
58.235 14.7077
58.240 14.556906
58.245 14.596646
58.250 14.744395
58.255 14.997732
58.260 14.926352
58.265 14.649761
58.270 14.798599
58.275 14.582211
58.280 15.012301
58.285 15.077847
58.290 15.069784
58.295 15.482629
58.300 16.508097
58.305 17.293129
58.310 17.183014
58.315 16.802868
58.320 16.895748
58.325 17.067478
58.330 16.819695
58.335 16.413748
58.340 16.334396
58.345 16.321918
58.350 16.233303
58.355 15.886081
58.360 15.233384
58.365 15.354662
58.370 15.317933
58.375 15.00086
58.380 14.892708
58.385 14.853811
58.390 14.815933
58.395 14.808513
58.400 14.792183
58.405 14.865016
58.410 15.055064
58.415 15.394629
58.420 16.102324
58.425 16.429005
58.430 17.239775
58.435 17.511536
58.440 17.220602
58.445 17.185434
