!@!!GADDS PLOTSO FILE: Chi integration type
!@!!Title/SampleName: map-38
!@!!Comment: ?
!@!!User: Bruker Instrument Administrator
!@!!Site: University of Illinois Chicago
!@!!Frame: map-38_01_000.gfrm
!@!!Wavelengths    1.54184   1.54056   1.54439
!@!!Frame angles: 2Theta: 63.000 Omega: 50.000 Phi: 0.000 Chi: 90.000
!@!!Integration range: 2Theta: 53.000 to 73.000  Gamma: -105.000 to -75.000
!@!!Integration method: bin normalized
!@!N
!@!SS
!@!M
!@!L 0.0 0.0 0.0 0.0
!@!XDegrees
!@!YCounts
53.000 9.223474
53.005 9.460362
53.010 9.4194
53.015 9.378913
53.020 9.497414
53.025 10.007429
53.030 10.047654
53.035 10.082836
53.040 10.234592
53.045 10.783267
53.050 10.489437
53.055 10.553889
53.060 10.404408
53.065 10.437344
53.070 9.937969
53.075 9.547536
53.080 9.257215
53.085 9.187656
53.090 8.569242
53.095 8.92555
53.100 9.450864
53.105 9.339689
53.110 8.958183
53.115 9.364258
53.120 9.963313
53.125 10.477008
53.130 10.159613
53.135 9.936843
53.140 10.369263
53.145 10.765593
53.150 10.161128
53.155 10.022965
53.160 9.626795
53.165 9.282723
53.170 9.122348
53.175 8.772366
53.180 8.537856
53.185 8.733408
53.190 8.407901
53.195 8.704291
53.200 8.909081
53.205 8.975185
53.210 9.209051
53.215 9.01778
53.220 8.98534
53.225 9.298362
53.230 9.502413
53.235 9.626353
53.240 9.620232
53.245 9.626079
53.250 9.925769
53.255 10.227446
53.260 9.966212
53.265 9.839087
53.270 9.726017
53.275 9.636762
53.280 9.280727
53.285 9.117734
53.290 8.689656
53.295 8.917914
53.300 8.672526
53.305 8.410215
53.310 8.695696
53.315 8.702351
53.320 8.745392
53.325 8.615175
53.330 8.358915
53.335 8.398737
53.340 8.444737
53.345 8.424082
53.350 8.685591
53.355 9.646799
53.360 10.638028
53.365 11.061348
53.370 11.431921
53.375 11.511569
53.380 11.601261
53.385 11.436638
53.390 10.815625
53.395 10.588638
53.400 10.487714
53.405 10.336621
53.410 10.53325
53.415 10.365565
53.420 9.758921
53.425 9.143007
53.430 8.733311
53.435 8.941486
53.440 8.940958
53.445 8.952015
53.450 9.046228
53.455 9.497953
53.460 9.936273
53.465 10.03724
53.470 9.769527
53.475 9.682739
53.480 9.433857
53.485 9.168379
53.490 9.071258
53.495 8.680949
53.500 8.313459
53.505 8.361491
53.510 8.955029
53.515 9.349874
53.520 9.839415
53.525 9.949679
53.530 10.556808
53.535 11.119335
53.540 11.078139
53.545 10.602742
53.550 10.010332
53.555 9.269621
53.560 9.408918
53.565 9.259085
53.570 9.603342
53.575 9.689649
53.580 10.579443
53.585 11.30549
53.590 12.297819
53.595 12.543689
53.600 12.642638
53.605 12.624
53.610 12.213219
53.615 11.662234
53.620 12.003095
53.625 11.645548
53.630 11.482335
53.635 11.274343
53.640 10.874022
53.645 10.812199
53.650 10.434943
53.655 9.962005
53.660 9.71878
53.665 9.56743
53.670 9.678073
53.675 10.111306
53.680 10.108471
53.685 10.404959
53.690 10.49979
53.695 11.071964
53.700 10.891129
53.705 10.381294
53.710 10.516103
53.715 10.647684
53.720 10.541789
53.725 10.519942
53.730 10.392682
53.735 10.922508
53.740 11.605831
53.745 11.805276
53.750 11.907301
53.755 11.853971
53.760 11.812402
53.765 11.809978
53.770 11.763329
53.775 11.541713
53.780 11.229693
53.785 11.214691
53.790 11.823895
53.795 12.376369
53.800 12.379979
53.805 12.298838
53.810 12.142754
53.815 12.072018
53.820 12.229795
53.825 11.297726
53.830 11.17261
53.835 11.073819
53.840 10.664595
53.845 10.324789
53.850 10.016842
53.855 9.989857
53.860 10.241593
53.865 9.600671
53.870 9.552436
53.875 10.224169
53.880 10.835839
53.885 11.02674
53.890 10.931964
53.895 10.78988
53.900 10.751326
53.905 10.54734
53.910 10.471575
53.915 10.423115
53.920 10.519349
53.925 10.297777
53.930 10.299125
53.935 10.578398
53.940 10.673855
53.945 10.291329
53.950 9.966177
53.955 9.73173
53.960 10.099505
53.965 11.018827
53.970 11.423189
53.975 12.081609
53.980 12.345558
53.985 12.548518
53.990 12.459447
53.995 11.390036
54.000 10.674324
54.005 10.833013
54.010 10.542878
54.015 10.606289
54.020 10.391363
54.025 10.687002
54.030 11.225881
54.035 10.999098
54.040 10.512532
54.045 10.429634
54.050 10.497908
54.055 10.567327
54.060 10.615224
54.065 10.897248
54.070 10.894062
54.075 10.795687
54.080 10.737278
54.085 10.686321
54.090 10.474936
54.095 10.307874
54.100 10.047415
54.105 9.877991
54.110 10.156661
54.115 10.147767
54.120 10.07163
54.125 10.285509
54.130 10.394039
54.135 10.42211
54.140 10.596192
54.145 10.894264
54.150 11.150325
54.155 11.39717
54.160 11.452216
54.165 11.340379
54.170 10.925319
54.175 10.424102
54.180 9.796378
54.185 9.461035
54.190 9.595801
54.195 9.745802
54.200 9.61052
54.205 10.131432
54.210 11.179732
54.215 11.372882
54.220 11.166368
54.225 10.461809
54.230 10.226079
54.235 10.750213
54.240 10.378308
54.245 9.197862
54.250 9.084836
54.255 9.397915
54.260 9.743949
54.265 9.546966
54.270 8.933073
54.275 8.793011
54.280 9.510949
54.285 9.981487
54.290 9.951874
54.295 10.114672
54.300 10.453662
54.305 10.614607
54.310 10.629308
54.315 10.16142
54.320 10.200765
54.325 10.595842
54.330 10.843885
54.335 11.069111
54.340 11.494236
54.345 11.538152
54.350 11.695147
54.355 11.442888
54.360 11.388991
54.365 11.224697
54.370 11.204199
54.375 11.369285
54.380 11.980279
54.385 12.177496
54.390 12.232512
54.395 11.966728
54.400 11.703315
54.405 11.54871
54.410 11.580076
54.415 10.924845
54.420 10.896696
54.425 11.426457
54.430 11.685329
54.435 11.520576
54.440 11.424147
54.445 11.772103
54.450 12.183401
54.455 11.866399
54.460 11.646205
54.465 11.988873
54.470 12.135046
54.475 11.840251
54.480 11.479779
54.485 11.13862
54.490 11.189307
54.495 10.790822
54.500 10.43417
54.505 10.600392
54.510 10.319657
54.515 9.906643
54.520 10.178925
54.525 10.133952
54.530 10.857669
54.535 10.637536
54.540 10.514068
54.545 10.745516
54.550 10.807729
54.555 10.818507
54.560 10.823133
54.565 10.100841
54.570 10.316691
54.575 10.584587
54.580 11.013418
54.585 11.175959
54.590 11.648042
54.595 11.791098
54.600 11.988988
54.605 12.278941
54.610 12.255886
54.615 11.876947
54.620 11.272864
54.625 10.795246
54.630 10.882266
54.635 11.034665
54.640 11.201983
54.645 11.270857
54.650 11.326941
54.655 11.48868
54.660 11.80193
54.665 11.881987
54.670 11.63023
54.675 11.352396
54.680 11.145048
54.685 11.433304
54.690 11.605572
54.695 11.583843
54.700 11.235261
54.705 11.29797
54.710 11.560178
54.715 12.273719
54.720 12.050418
54.725 11.742082
54.730 11.722237
54.735 11.872233
54.740 12.211402
54.745 12.291596
54.750 11.78479
54.755 11.953491
54.760 12.246161
54.765 12.615242
54.770 12.678726
54.775 12.213184
54.780 12.377957
54.785 12.581843
54.790 12.337511
54.795 12.031835
54.800 11.523914
54.805 11.632348
54.810 11.935996
54.815 11.764647
54.820 11.769813
54.825 11.664109
54.830 11.894926
54.835 12.104521
54.840 11.386837
54.845 11.296129
54.850 11.524844
54.855 11.699181
54.860 12.139739
54.865 11.923649
54.870 12.477103
54.875 13.054992
54.880 13.049958
54.885 12.489885
54.890 12.265647
54.895 12.393393
54.900 12.394596
54.905 11.652238
54.910 11.705207
54.915 11.694431
54.920 11.736774
54.925 11.274545
54.930 11.3307
54.935 11.332651
54.940 11.378392
54.945 11.051228
54.950 11.413924
54.955 11.738583
54.960 12.117532
54.965 11.689811
54.970 12.022699
54.975 12.125257
54.980 11.927445
54.985 12.062708
54.990 11.973588
54.995 11.585814
55.000 11.866122
55.005 11.827617
55.010 12.134433
55.015 12.503038
55.020 12.335256
55.025 12.412575
55.030 12.296526
55.035 11.60507
55.040 11.840639
55.045 11.421488
55.050 10.868617
55.055 10.726316
55.060 10.756243
55.065 10.736702
55.070 10.422896
55.075 9.786731
55.080 10.028001
55.085 10.189941
55.090 10.596457
55.095 10.611383
55.100 11.18222
55.105 12.141237
55.110 12.839314
55.115 13.173963
55.120 13.489173
55.125 13.419782
55.130 13.332509
55.135 13.079985
55.140 12.841306
55.145 12.470034
55.150 11.756458
55.155 11.366293
55.160 11.38827
55.165 11.391415
55.170 12.048381
55.175 11.865993
55.180 12.0308
55.185 12.260055
55.190 12.266365
55.195 12.739544
55.200 12.280252
55.205 11.800697
55.210 11.882107
55.215 11.784128
55.220 11.805923
55.225 11.9619
55.230 11.888729
55.235 12.161289
55.240 11.86686
55.245 11.962837
55.250 11.917421
55.255 12.02994
55.260 11.835794
55.265 11.833499
55.270 11.836589
55.275 11.718548
55.280 11.527191
55.285 11.407136
55.290 11.128748
55.295 11.157327
55.300 10.798189
55.305 11.1489
55.310 11.605421
55.315 11.925284
55.320 11.93722
55.325 11.997046
55.330 11.793797
55.335 12.025408
55.340 11.602075
55.345 11.032185
55.350 10.837213
55.355 11.429414
55.360 11.480071
55.365 11.383264
55.370 10.966853
55.375 10.806342
55.380 11.181881
55.385 11.252566
55.390 11.226081
55.395 11.535964
55.400 11.300694
55.405 11.592721
55.410 11.776237
55.415 11.829189
55.420 11.598675
55.425 11.274588
55.430 11.399453
55.435 11.772607
55.440 11.878865
55.445 11.725308
55.450 11.788246
55.455 12.021469
55.460 12.573274
55.465 12.684925
55.470 13.349093
55.475 13.984459
55.480 14.057879
55.485 13.800463
55.490 13.739216
55.495 13.386817
55.500 13.534917
55.505 13.22108
55.510 12.683235
55.515 13.139482
55.520 13.433134
55.525 13.032757
55.530 12.376264
55.535 11.755535
55.540 11.887834
55.545 12.36359
55.550 12.332012
55.555 12.212678
55.560 12.551346
55.565 13.108311
55.570 13.005561
55.575 12.695368
55.580 11.978308
55.585 11.931385
55.590 12.081828
55.595 12.112377
55.600 12.13833
55.605 12.296228
55.610 12.766374
55.615 13.276643
55.620 13.140368
55.625 13.084785
55.630 12.713672
55.635 12.961775
55.640 12.887511
55.645 12.521222
55.650 11.947035
55.655 11.479206
55.660 11.275187
55.665 11.134598
55.670 10.292498
55.675 9.856417
55.680 9.572315
55.685 9.755908
55.690 9.889596
55.695 10.282974
55.700 11.058839
55.705 12.097687
55.710 12.438419
55.715 13.215809
55.720 13.899579
55.725 14.380897
55.730 14.327256
55.735 13.88948
55.740 13.513385
55.745 13.543337
55.750 13.613465
55.755 13.227662
55.760 13.058526
55.765 12.530567
55.770 12.820592
55.775 12.659245
55.780 12.367477
55.785 12.030339
55.790 11.9571
55.795 11.991084
55.800 12.828255
55.805 12.592388
55.810 12.273429
55.815 12.266806
55.820 12.434773
55.825 12.766733
55.830 13.213245
55.835 13.335864
55.840 13.332364
55.845 14.17307
55.850 14.5366
55.855 14.616535
55.860 14.288656
55.865 13.460961
55.870 12.465126
55.875 12.772685
55.880 12.489948
55.885 12.344267
55.890 12.422391
55.895 12.353705
55.900 12.945646
55.905 13.575651
55.910 13.404261
55.915 13.238422
55.920 13.074786
55.925 13.142138
55.930 13.480855
55.935 13.421124
55.940 13.744957
55.945 14.335254
55.950 14.542213
55.955 14.175822
55.960 14.194959
55.965 14.01957
55.970 13.760995
55.975 12.846956
55.980 12.196107
55.985 12.384992
55.990 13.018664
55.995 12.704232
56.000 12.857058
56.005 12.974035
56.010 12.793683
56.015 13.119681
56.020 13.032023
56.025 12.415384
56.030 12.092066
56.035 12.297533
56.040 12.72233
56.045 14.17623
56.050 13.830536
56.055 13.328529
56.060 13.451687
56.065 13.940137
56.070 13.548648
56.075 13.366459
56.080 12.765528
56.085 13.179661
56.090 13.556664
56.095 14.011517
56.100 14.325084
56.105 14.193618
56.110 13.726162
56.115 13.811874
56.120 13.731821
56.125 13.706612
56.130 13.196836
56.135 12.868504
56.140 13.190127
56.145 13.344696
56.150 12.700808
56.155 12.589386
56.160 12.675946
56.165 12.63821
56.170 12.768272
56.175 12.443321
56.180 13.321618
56.185 13.471036
56.190 13.545182
56.195 13.560118
56.200 13.606283
56.205 13.415854
56.210 13.182337
56.215 12.753287
56.220 13.463652
56.225 13.472
56.230 14.01099
56.235 14.227812
56.240 14.689472
56.245 14.889485
56.250 14.52209
56.255 13.964717
56.260 13.979904
56.265 13.576408
56.270 13.355854
56.275 12.993832
56.280 13.060573
56.285 13.027511
56.290 13.310538
56.295 13.124378
56.300 13.011462
56.305 13.212394
56.310 13.657039
56.315 13.810895
56.320 13.886875
56.325 13.878074
56.330 13.829682
56.335 13.916463
56.340 13.79209
56.345 13.82156
56.350 13.953468
56.355 14.065522
56.360 13.612576
56.365 13.864272
56.370 14.027278
56.375 14.501922
56.380 14.132874
56.385 13.695641
56.390 13.620716
56.395 13.645059
56.400 13.843176
56.405 14.094485
56.410 13.570437
56.415 13.713446
56.420 13.418784
56.425 13.288065
56.430 14.337096
56.435 14.385553
56.440 14.122281
56.445 14.526734
56.450 14.867826
56.455 14.877469
56.460 14.848118
56.465 13.979693
56.470 14.153742
56.475 13.901502
56.480 13.323088
56.485 13.216776
56.490 13.811933
56.495 13.950659
56.500 13.625898
56.505 13.034888
56.510 12.867835
56.515 13.314487
56.520 13.819433
56.525 13.882129
56.530 13.810353
56.535 13.89959
56.540 13.896364
56.545 13.782407
56.550 13.531712
56.555 13.457611
56.560 13.325461
56.565 13.299205
56.570 13.618711
56.575 13.735748
56.580 13.982835
56.585 14.002033
56.590 13.688032
56.595 13.480782
56.600 13.377055
56.605 13.615788
56.610 13.630851
56.615 13.316596
56.620 12.883293
56.625 12.756392
56.630 13.378387
56.635 13.461093
56.640 13.733578
56.645 14.131445
56.650 14.407657
56.655 14.956387
56.660 14.657942
56.665 14.117183
56.670 14.106045
56.675 13.623552
56.680 13.096652
56.685 13.129424
56.690 13.029518
56.695 13.540718
56.700 13.620627
56.705 13.910739
56.710 14.674854
56.715 15.345208
56.720 15.420912
56.725 14.751319
56.730 14.453127
56.735 14.565612
56.740 14.103251
56.745 13.907756
56.750 13.840181
56.755 14.344786
56.760 14.966047
56.765 14.964034
56.770 14.511418
56.775 14.479406
56.780 14.109495
56.785 13.819121
56.790 13.454492
56.795 13.350399
56.800 13.720644
56.805 14.507595
56.810 14.504054
56.815 14.230924
56.820 14.260783
56.825 14.72309
56.830 14.721361
56.835 14.740849
56.840 15.044615
56.845 14.921148
56.850 15.098161
56.855 14.890797
56.860 14.908386
56.865 15.329357
56.870 14.823501
56.875 14.182384
56.880 14.46246
56.885 14.608521
56.890 14.559567
56.895 14.33737
56.900 13.847888
56.905 14.160537
56.910 14.408671
56.915 14.919097
56.920 15.24615
56.925 15.470586
56.930 15.683283
56.935 16.36986
56.940 16.403538
56.945 16.025787
56.950 15.19602
56.955 14.462336
56.960 13.985699
56.965 13.60904
56.970 13.256079
56.975 13.122156
56.980 13.653876
56.985 14.229703
56.990 14.801742
56.995 15.679435
57.000 15.951714
57.005 15.774079
57.010 15.228968
57.015 14.276289
57.020 13.989939
57.025 13.76333
57.030 12.918139
57.035 13.052486
57.040 13.444218
57.045 14.025078
57.050 14.825716
57.055 15.310699
57.060 15.325987
57.065 15.554596
57.070 15.221887
57.075 15.616252
57.080 15.744482
57.085 15.564663
57.090 15.249026
57.095 14.798726
57.100 14.649115
57.105 14.183955
57.110 13.863544
57.115 13.419938
57.120 13.357139
57.125 13.500679
57.130 13.954253
57.135 14.298004
57.140 14.928909
57.145 15.201445
57.150 15.563764
57.155 15.315891
57.160 14.935321
57.165 14.700799
57.170 14.353866
57.175 14.289091
57.180 14.405962
57.185 14.16061
57.190 14.331573
57.195 14.877106
57.200 15.074608
57.205 14.960581
57.210 14.219378
57.215 13.839469
57.220 13.978052
57.225 13.848126
57.230 13.515548
57.235 13.629158
57.240 13.618725
57.245 13.499162
57.250 13.389023
57.255 13.823798
57.260 13.849206
57.265 13.698217
57.270 13.285634
57.275 13.233887
57.280 13.358497
57.285 13.448489
57.290 13.373827
57.295 13.860421
57.300 14.139224
57.305 14.418612
57.310 14.962358
57.315 14.591195
57.320 14.411271
57.325 14.354129
57.330 13.842854
57.335 13.992674
57.340 14.23105
57.345 14.325717
57.350 15.464576
57.355 15.764533
57.360 16.19326
57.365 16.503679
57.370 16.534412
57.375 16.109222
57.380 16.190742
57.385 15.765597
57.390 15.237923
57.395 14.638395
57.400 14.557209
57.405 14.264491
57.410 14.242326
57.415 13.955538
57.420 13.985333
57.425 13.798969
57.430 13.779325
57.435 13.645015
57.440 13.353381
57.445 13.28
57.450 13.053306
57.455 13.602713
57.460 14.701016
57.465 15.194779
57.470 15.888754
57.475 16.004112
57.480 16.184515
57.485 16.558516
57.490 15.685402
57.495 14.999133
57.500 14.381005
57.505 14.108207
57.510 14.544624
57.515 14.51591
57.520 14.314389
57.525 14.510001
57.530 14.367919
57.535 14.494245
57.540 13.830505
57.545 13.673127
57.550 13.951732
57.555 14.334161
57.560 14.358205
57.565 14.503074
57.570 14.316684
57.575 14.929482
57.580 15.158997
57.585 14.822362
57.590 15.154026
57.595 15.387615
57.600 16.10009
57.605 16.497095
57.610 16.20899
57.615 16.460869
57.620 16.532423
57.625 16.514074
57.630 16.889771
57.635 16.65275
57.640 16.944323
57.645 17.105431
57.650 16.427248
57.655 15.854861
57.660 14.43413
57.665 13.421893
57.670 12.714272
57.675 12.596261
57.680 12.503979
57.685 13.046144
57.690 13.958438
57.695 14.791093
57.700 15.163034
57.705 15.555336
57.710 15.399056
57.715 15.261175
57.720 15.273834
57.725 15.240854
57.730 15.160415
57.735 15.403803
57.740 15.246497
57.745 15.392486
57.750 15.697742
57.755 14.982785
57.760 14.503876
57.765 14.904561
57.770 14.668825
57.775 14.721275
57.780 14.395302
57.785 14.001058
57.790 14.611332
57.795 15.006707
57.800 14.444909
57.805 14.04893
57.810 13.798404
57.815 13.717215
57.820 13.971133
57.825 14.139019
57.830 13.612198
57.835 13.232237
57.840 13.517447
57.845 13.531762
57.850 13.761454
57.855 13.650456
57.860 13.345541
57.865 13.644287
57.870 14.368684
57.875 14.285981
57.880 14.239968
57.885 14.291182
57.890 14.249564
57.895 14.425391
57.900 15.023339
57.905 15.39946
57.910 15.61677
57.915 15.476955
57.920 15.346747
57.925 15.657783
57.930 15.962658
57.935 15.500708
57.940 15.159657
57.945 15.581256
57.950 15.819821
57.955 15.656013
57.960 15.045612
57.965 14.613326
57.970 14.531525
57.975 14.06724
57.980 13.708434
57.985 13.558397
57.990 14.202217
57.995 14.895339
58.000 15.273293
58.005 15.71144
58.010 16.246107
58.015 16.586796
58.020 16.776619
58.025 15.758189
58.030 15.466825
58.035 15.401955
58.040 15.633967
58.045 15.703589
58.050 16.256458
58.055 16.559181
58.060 17.140123
58.065 16.858648
58.070 16.450289
58.075 16.47451
58.080 16.010567
58.085 15.364655
58.090 14.876469
58.095 14.644116
58.100 14.932772
58.105 15.20123
58.110 15.472776
58.115 15.652342
58.120 15.855455
58.125 16.36042
58.130 16.477684
58.135 16.864426
58.140 16.866182
58.145 16.527344
58.150 16.324661
58.155 16.935118
58.160 17.036873
58.165 17.082426
58.170 16.809166
58.175 16.538317
58.180 16.387503
58.185 16.557449
58.190 16.294771
58.195 16.228466
58.200 15.95155
58.205 15.761355
58.210 15.953755
58.215 16.47789
58.220 16.275486
58.225 15.585252
58.230 15.579679
58.235 15.441732
58.240 15.620937
58.245 15.871273
58.250 15.022012
58.255 15.223569
58.260 15.791356
58.265 15.71084
58.270 15.866178
58.275 15.319525
58.280 14.748864
58.285 14.976217
58.290 14.785414
58.295 14.683003
58.300 14.92811
58.305 15.455164
58.310 16.081923
58.315 15.997298
58.320 16.529007
58.325 16.613165
58.330 16.270239
58.335 15.892546
58.340 15.082486
58.345 14.611038
58.350 15.021111
58.355 15.080964
58.360 14.849123
58.365 14.891579
58.370 15.101175
58.375 15.462127
58.380 15.969959
58.385 16.205015
58.390 15.902501
58.395 15.775517
58.400 15.556771
58.405 15.494417
58.410 14.745931
58.415 14.429874
58.420 14.167075
58.425 14.082479
58.430 14.812787
58.435 15.37118
58.440 15.372034
58.445 16.060337
58.450 16.003012
58.455 15.240884
58.460 15.142644
58.465 15.263675
