!@!!GADDS PLOTSO FILE: Chi integration type
!@!!Title/SampleName: map-189
!@!!Comment: ?
!@!!User: Bruker Instrument Administrator
!@!!Site: University of Illinois Chicago
!@!!Frame: map-189_01_000.gfrm
!@!!Wavelengths    1.54184   1.54056   1.54439
!@!!Frame angles: 2Theta: 63.000 Omega: 50.000 Phi: 0.000 Chi: 90.000
!@!!Integration range: 2Theta: 53.000 to 73.000  Gamma: -105.000 to -75.000
!@!!Integration method: bin normalized
!@!N
!@!SS
!@!M
!@!L 0.0 0.0 0.0 0.0
!@!XDegrees
!@!YCounts
53.000 8.961075
53.005 9.551251
53.010 9.644943
53.015 9.925442
53.020 10.175238
53.025 10.186383
53.030 10.582169
53.035 10.62819
53.040 10.204589
53.045 9.707516
53.050 9.135441
53.055 9.043
53.060 9.052989
53.065 9.046697
53.070 8.589192
53.075 8.699987
53.080 9.088196
53.085 9.532849
53.090 9.595566
53.095 9.341569
53.100 9.460763
53.105 9.688485
53.110 9.820333
53.115 9.749074
53.120 9.489255
53.125 9.419205
53.130 9.484129
53.135 9.416413
53.140 9.307846
53.145 8.994951
53.150 8.936584
53.155 9.024471
53.160 8.856537
53.165 8.930153
53.170 8.786755
53.175 8.683059
53.180 8.96622
53.185 9.102598
53.190 9.029769
53.195 8.818296
53.200 9.111609
53.205 9.60242
53.210 9.713175
53.215 8.801221
53.220 9.051467
53.225 9.147264
53.230 9.250304
53.235 9.017243
53.240 8.704175
53.245 9.100924
53.250 9.357343
53.255 8.912821
53.260 9.081099
53.265 9.126579
53.270 9.087602
53.275 8.796995
53.280 8.667305
53.285 9.154188
53.290 9.540314
53.295 9.485191
53.300 9.643753
53.305 9.700608
53.310 9.937478
53.315 9.625495
53.320 9.15505
53.325 8.879798
53.330 8.682056
53.335 8.539228
53.340 8.446845
53.345 8.616793
53.350 9.314745
53.355 9.684074
53.360 9.634474
53.365 9.649016
53.370 9.857327
53.375 9.90946
53.380 9.876911
53.385 9.732585
53.390 9.907011
53.395 9.853174
53.400 9.507921
53.405 9.821278
53.410 10.237279
53.415 10.463931
53.420 9.972318
53.425 10.075443
53.430 10.67206
53.435 10.860246
53.440 10.677847
53.445 10.754281
53.450 10.713605
53.455 10.710875
53.460 10.663554
53.465 10.146031
53.470 9.642685
53.475 9.523259
53.480 9.081641
53.485 8.899315
53.490 9.163291
53.495 9.253847
53.500 10.148664
53.505 10.370785
53.510 10.50514
53.515 10.639432
53.520 10.562911
53.525 10.253785
53.530 10.090142
53.535 10.39378
53.540 9.951765
53.545 9.594894
53.550 9.612401
53.555 9.776053
53.560 9.647003
53.565 9.529389
53.570 9.307116
53.575 9.59803
53.580 9.761416
53.585 9.61315
53.590 9.612803
53.595 10.017179
53.600 10.037202
53.605 9.796629
53.610 9.6066
53.615 9.485523
53.620 9.227685
53.625 9.195385
53.630 9.007374
53.635 8.903481
53.640 8.709696
53.645 8.568501
53.650 8.374187
53.655 8.727479
53.660 8.922437
53.665 8.951779
53.670 8.97535
53.675 9.29083
53.680 9.741791
53.685 10.015002
53.690 9.955819
53.695 10.082365
53.700 10.524399
53.705 10.771778
53.710 10.96228
53.715 10.859002
53.720 10.617931
53.725 10.261671
53.730 10.28284
53.735 10.640727
53.740 11.146
53.745 11.168839
53.750 11.115442
53.755 10.885218
53.760 10.860502
53.765 10.278864
53.770 9.549484
53.775 9.413821
53.780 9.97241
53.785 10.498902
53.790 11.362423
53.795 11.642238
53.800 12.309361
53.805 12.052786
53.810 11.577485
53.815 11.528021
53.820 11.360766
53.825 10.847361
53.830 10.719355
53.835 10.256126
53.840 10.718536
53.845 10.397525
53.850 9.933008
53.855 9.515835
53.860 9.247396
53.865 9.187219
53.870 9.104177
53.875 8.751859
53.880 9.01969
53.885 9.434143
53.890 9.844739
53.895 10.539834
53.900 10.265903
53.905 10.169285
53.910 10.375981
53.915 9.894869
53.920 9.457674
53.925 9.147254
53.930 8.64407
53.935 9.180515
53.940 9.405697
53.945 9.118941
53.950 9.593843
53.955 9.882968
53.960 9.783256
53.965 9.561828
53.970 9.2564
53.975 8.883988
53.980 9.243524
53.985 9.176635
53.990 9.322428
53.995 9.899677
54.000 10.338181
54.005 10.437558
54.010 10.532887
54.015 10.377976
54.020 10.426484
54.025 10.248542
54.030 10.150575
54.035 9.723737
54.040 10.438323
54.045 10.828877
54.050 10.296195
54.055 10.179148
54.060 9.924912
54.065 9.744353
54.070 9.6647
54.075 8.905159
54.080 9.123382
54.085 9.48634
54.090 9.361229
54.095 9.577955
54.100 9.930377
54.105 10.430573
54.110 10.337936
54.115 9.953845
54.120 9.763445
54.125 9.60875
54.130 9.366326
54.135 8.85431
54.140 8.665304
54.145 8.9187
54.150 9.395102
54.155 9.955103
54.160 10.406301
54.165 10.581882
54.170 10.409025
54.175 9.860792
54.180 9.730306
54.185 9.55488
54.190 9.374331
54.195 9.292242
54.200 10.050313
54.205 10.595747
54.210 10.954067
54.215 10.835278
54.220 10.589512
54.225 10.489934
54.230 10.256854
54.235 10.339088
54.240 10.046394
54.245 9.898082
54.250 9.781482
54.255 10.200255
54.260 10.399666
54.265 10.31471
54.270 10.029605
54.275 10.003803
54.280 10.301689
54.285 10.555214
54.290 10.432894
54.295 10.244431
54.300 10.407905
54.305 10.640476
54.310 10.868518
54.315 10.642183
54.320 10.341084
54.325 9.850327
54.330 10.600518
54.335 10.467135
54.340 10.299157
54.345 10.888462
54.350 10.803713
54.355 11.11384
54.360 11.105769
54.365 10.632395
54.370 10.838855
54.375 10.62483
54.380 10.409944
54.385 10.517216
54.390 10.330761
54.395 10.506123
54.400 10.525385
54.405 10.24227
54.410 10.406628
54.415 10.651397
54.420 10.671326
54.425 10.486212
54.430 10.174589
54.435 10.383974
54.440 10.464033
54.445 9.793492
54.450 9.357621
54.455 9.174558
54.460 9.432564
54.465 9.552843
54.470 9.566712
54.475 9.183599
54.480 9.476609
54.485 9.721212
54.490 10.229095
54.495 10.435925
54.500 10.139882
54.505 9.970777
54.510 10.464494
54.515 10.161267
54.520 9.724481
54.525 9.273726
54.530 8.96108
54.535 8.922446
54.540 8.73842
54.545 8.997401
54.550 9.445886
54.555 9.724247
54.560 9.978504
54.565 10.578255
54.570 10.957354
54.575 11.139397
54.580 10.596968
54.585 10.652592
54.590 10.685808
54.595 10.692446
54.600 10.419592
54.605 10.353047
54.610 10.150441
54.615 10.240117
54.620 10.461355
54.625 10.480607
54.630 10.878361
54.635 10.593239
54.640 10.618504
54.645 11.154412
54.650 11.241347
54.655 10.933219
54.660 10.734569
54.665 10.593501
54.670 10.706558
54.675 11.402061
54.680 11.382538
54.685 11.548002
54.690 12.181862
54.695 12.059453
54.700 11.600765
54.705 11.644587
54.710 11.059977
54.715 11.082321
54.720 10.507162
54.725 10.055282
54.730 9.98546
54.735 10.262666
54.740 10.345763
54.745 10.146853
54.750 10.094168
54.755 10.28863
54.760 10.535257
54.765 10.689307
54.770 10.305975
54.775 10.078864
54.780 10.07326
54.785 10.022115
54.790 10.312998
54.795 10.837478
54.800 11.415241
54.805 11.637386
54.810 11.626177
54.815 11.920461
54.820 12.082273
54.825 11.909706
54.830 11.500959
54.835 10.714939
54.840 10.670536
54.845 10.878154
54.850 11.4208
54.855 11.65542
54.860 11.20779
54.865 11.332796
54.870 11.931533
54.875 12.093812
54.880 11.828924
54.885 11.19868
54.890 11.279954
54.895 11.868431
54.900 11.877004
54.905 11.527213
54.910 11.391736
54.915 11.583822
54.920 11.421663
54.925 11.430047
54.930 11.12274
54.935 11.200152
54.940 11.44938
54.945 11.934875
54.950 12.357441
54.955 12.220098
54.960 12.083758
54.965 12.180587
54.970 12.49919
54.975 12.76317
54.980 12.475421
54.985 12.363768
54.990 12.510715
54.995 12.46699
55.000 12.086393
55.005 11.832073
55.010 11.522721
55.015 11.166467
55.020 10.975911
55.025 10.999584
55.030 10.911129
55.035 10.889235
55.040 10.515842
55.045 10.538485
55.050 10.760536
55.055 10.872902
55.060 10.51679
55.065 10.060488
55.070 9.974533
55.075 10.223681
55.080 10.131897
55.085 9.719133
55.090 9.837111
55.095 10.259845
55.100 10.673837
55.105 11.053481
55.110 10.593902
55.115 10.773253
55.120 11.264269
55.125 11.497349
55.130 11.834138
55.135 12.177762
55.140 11.942672
55.145 12.438828
55.150 12.105167
55.155 11.54427
55.160 11.346715
55.165 11.21324
55.170 10.687217
55.175 10.443449
55.180 10.382038
55.185 10.942234
55.190 11.294569
55.195 10.885887
55.200 11.04163
55.205 11.201189
55.210 11.409575
55.215 11.566448
55.220 11.138277
55.225 11.055067
55.230 11.17364
55.235 10.864528
55.240 10.758874
55.245 11.004978
55.250 11.218469
55.255 11.469994
55.260 12.119411
55.265 12.380624
55.270 12.58155
55.275 12.605494
55.280 11.97251
55.285 11.758837
55.290 11.763994
55.295 11.480558
55.300 11.498904
55.305 11.280989
55.310 11.200279
55.315 11.197028
55.320 11.201902
55.325 11.233984
55.330 11.158888
55.335 11.073011
55.340 11.044232
55.345 10.949062
55.350 10.950955
55.355 10.803257
55.360 10.578569
55.365 10.364287
55.370 10.230646
55.375 10.442449
55.380 10.509077
55.385 10.547257
55.390 10.132738
55.395 9.990111
55.400 10.020578
55.405 10.12575
55.410 10.321015
55.415 10.253447
55.420 10.600989
55.425 10.5888
55.430 10.571905
55.435 10.643903
55.440 10.470247
55.445 10.091147
55.450 10.279651
55.455 9.92132
55.460 9.630404
55.465 9.696283
55.470 9.40888
55.475 9.548886
55.480 9.782095
55.485 9.630831
55.490 9.931883
55.495 10.195001
55.500 10.464396
55.505 11.117822
55.510 11.194084
55.515 10.965859
55.520 10.971172
55.525 10.991761
55.530 10.655641
55.535 10.271575
55.540 9.902618
55.545 10.351871
55.550 10.514051
55.555 10.452013
55.560 10.333109
55.565 10.655267
55.570 10.778963
55.575 10.560083
55.580 10.175284
55.585 10.31552
55.590 10.324673
55.595 10.574425
55.600 10.514793
55.605 10.50288
55.610 10.873372
55.615 11.097056
55.620 11.517608
55.625 11.875249
55.630 12.284374
55.635 12.143728
55.640 11.785028
55.645 11.450949
55.650 11.087718
55.655 11.006868
55.660 10.550874
55.665 10.869814
55.670 11.476795
55.675 11.490176
55.680 11.499384
55.685 11.324944
55.690 11.50021
55.695 11.816369
55.700 11.546598
55.705 11.506641
55.710 11.568604
55.715 11.916399
55.720 12.24159
55.725 11.914905
55.730 11.614243
55.735 11.263168
55.740 11.099074
55.745 10.649899
55.750 10.345161
55.755 10.465296
55.760 10.121245
55.765 9.788218
55.770 9.986548
55.775 10.481164
55.780 11.030178
55.785 10.479337
55.790 9.897068
55.795 10.278115
55.800 10.106186
55.805 9.388601
55.810 9.106537
55.815 9.125903
55.820 9.875286
55.825 10.321827
55.830 10.447716
55.835 10.738346
55.840 11.019297
55.845 11.105766
55.850 11.486597
55.855 11.874959
55.860 11.625583
55.865 11.363899
55.870 11.254844
55.875 11.532751
55.880 11.258698
55.885 10.519238
55.890 9.913565
55.895 9.895981
55.900 10.100555
55.905 10.223961
55.910 10.619133
55.915 10.950934
55.920 11.291718
55.925 11.499737
55.930 11.561458
55.935 12.309621
55.940 12.502984
55.945 12.135711
55.950 11.747887
55.955 11.709422
55.960 12.058575
55.965 12.267984
55.970 11.615376
55.975 11.263188
55.980 11.137342
55.985 11.31479
55.990 11.225651
55.995 10.438319
56.000 10.045712
56.005 10.222749
56.010 10.477683
56.015 10.760404
56.020 10.617727
56.025 10.443961
56.030 10.802301
56.035 11.161634
56.040 11.159542
56.045 11.316274
56.050 10.915854
56.055 10.793584
56.060 10.659875
56.065 10.649806
56.070 10.565296
56.075 10.504011
56.080 10.326436
56.085 10.374546
56.090 10.308445
56.095 10.576501
56.100 10.788942
56.105 10.80101
56.110 10.734433
56.115 10.777989
56.120 10.791865
56.125 11.244993
56.130 10.882792
56.135 10.537777
56.140 10.63201
56.145 10.51654
56.150 10.434773
56.155 10.851037
56.160 10.657279
56.165 11.00796
56.170 11.079033
56.175 11.436771
56.180 11.65099
56.185 11.909011
56.190 12.231068
56.195 12.609858
56.200 12.577468
56.205 12.371846
56.210 11.965232
56.215 12.547061
56.220 12.10643
56.225 12.082641
56.230 12.221741
56.235 12.449383
56.240 12.572192
56.245 12.446736
56.250 11.908107
56.255 12.190104
56.260 11.992548
56.265 11.761927
56.270 11.425978
56.275 11.378369
56.280 11.904145
56.285 12.056343
56.290 12.202474
56.295 12.099975
56.300 11.872243
56.305 12.301116
56.310 12.189197
56.315 11.7193
56.320 11.381661
56.325 11.381636
56.330 11.595769
56.335 12.070603
56.340 11.862415
56.345 11.619026
56.350 11.530118
56.355 11.474288
56.360 11.105637
56.365 10.728557
56.370 10.738235
56.375 10.71358
56.380 10.662879
56.385 11.039344
56.390 10.777859
56.395 10.792862
56.400 10.993885
56.405 10.642389
56.410 10.764669
56.415 11.162801
56.420 11.061181
56.425 11.920208
56.430 12.225912
56.435 12.52555
56.440 12.989966
56.445 13.259256
56.450 13.608186
56.455 14.557846
56.460 14.435368
56.465 14.506275
56.470 14.346216
56.475 13.930646
56.480 13.705424
56.485 13.272331
56.490 13.081894
56.495 13.316922
56.500 13.134964
56.505 13.577661
56.510 13.893066
56.515 13.720652
56.520 13.568807
56.525 13.010492
56.530 12.662815
56.535 12.848211
56.540 12.352966
56.545 12.423732
56.550 12.524858
56.555 12.838933
56.560 12.939284
56.565 12.843287
56.570 12.535025
56.575 12.428702
56.580 12.51166
56.585 12.279755
56.590 11.49024
56.595 11.216024
56.600 11.433638
56.605 11.431207
56.610 11.162306
56.615 11.286054
56.620 11.517073
56.625 12.180593
56.630 12.142683
56.635 11.965544
56.640 12.056598
56.645 11.548818
56.650 11.516552
56.655 11.641876
56.660 11.721551
56.665 12.285343
56.670 12.039117
56.675 12.593089
56.680 12.95857
56.685 12.963134
56.690 13.109378
56.695 12.741767
56.700 12.358227
56.705 12.512375
56.710 12.257324
56.715 12.565767
56.720 12.414978
56.725 12.396276
56.730 12.485622
56.735 12.383346
56.740 12.497595
56.745 12.534297
56.750 12.699641
56.755 12.686145
56.760 12.443003
56.765 12.058813
56.770 12.175614
56.775 12.05534
56.780 11.837218
56.785 11.216244
56.790 10.979439
56.795 11.167587
56.800 11.545862
56.805 11.304733
56.810 11.132688
56.815 11.551024
56.820 11.975286
56.825 12.147889
56.830 11.542475
56.835 11.359469
56.840 11.618028
56.845 12.045296
56.850 11.920579
56.855 11.820495
56.860 11.922809
56.865 12.554022
56.870 12.737783
56.875 12.672931
56.880 12.168674
56.885 11.974812
56.890 11.553568
56.895 11.495591
56.900 11.727566
56.905 11.610231
56.910 11.918826
56.915 11.708752
56.920 11.66383
56.925 11.831391
56.930 11.759056
56.935 11.555837
56.940 11.699418
56.945 11.882406
56.950 11.947119
56.955 12.095704
56.960 12.641138
56.965 12.709847
56.970 12.715945
56.975 12.896551
56.980 12.226654
56.985 12.407599
56.990 12.220364
56.995 12.020503
57.000 12.208483
57.005 12.537035
57.010 12.215128
57.015 12.992252
57.020 13.399558
57.025 13.319411
57.030 13.047105
57.035 12.427255
57.040 11.708366
57.045 11.392201
57.050 10.801434
57.055 10.521062
57.060 10.098682
57.065 10.216469
57.070 10.590484
57.075 10.650384
57.080 11.021825
57.085 10.669671
57.090 10.576451
57.095 11.470634
57.100 11.957758
57.105 12.339643
57.110 12.45521
57.115 12.323638
57.120 12.678221
57.125 12.516439
57.130 11.939471
57.135 11.210897
57.140 10.810014
57.145 10.76954
57.150 10.734729
57.155 10.353949
57.160 10.445539
57.165 10.215226
57.170 10.510798
57.175 10.78594
57.180 11.039342
57.185 11.385135
57.190 11.502297
57.195 11.432412
57.200 11.452508
57.205 11.293487
57.210 10.95867
57.215 11.082672
57.220 11.208868
57.225 11.465136
57.230 11.953127
57.235 11.867428
57.240 11.91533
57.245 12.022274
57.250 11.521975
57.255 11.18546
57.260 11.194169
57.265 11.332359
57.270 12.123242
57.275 12.60295
57.280 12.441586
57.285 12.52428
57.290 12.851771
57.295 12.474096
57.300 11.953267
57.305 11.233094
57.310 10.704858
57.315 10.430756
57.320 10.782571
57.325 10.574098
57.330 10.952089
57.335 11.398059
57.340 11.768695
57.345 12.338994
57.350 12.604301
57.355 11.918041
57.360 11.651881
57.365 11.551572
57.370 11.440134
57.375 11.180088
57.380 11.205894
57.385 10.907667
57.390 11.253872
57.395 11.57785
57.400 11.513439
57.405 11.159531
57.410 10.954865
57.415 10.777497
57.420 11.015524
57.425 10.846833
57.430 10.831856
57.435 10.843494
57.440 11.241169
57.445 11.230403
57.450 10.846872
57.455 11.039835
57.460 11.123274
57.465 10.985438
57.470 11.050057
57.475 10.570704
57.480 10.92827
57.485 11.406207
57.490 11.375857
57.495 11.037806
57.500 10.851953
57.505 11.052737
57.510 11.527273
57.515 11.990878
57.520 11.793393
57.525 11.755992
57.530 12.074855
57.535 12.177732
57.540 12.143891
57.545 12.158344
57.550 11.576118
57.555 12.096295
57.560 11.835966
57.565 11.954062
57.570 12.24769
57.575 11.622872
57.580 11.036126
57.585 10.741785
57.590 10.312766
57.595 10.115091
57.600 10.0419
57.605 10.082665
57.610 10.555495
57.615 10.637979
57.620 10.812842
57.625 10.951197
57.630 11.338649
57.635 10.955518
57.640 10.83522
57.645 11.19851
57.650 11.241144
57.655 11.246557
57.660 11.08203
57.665 11.261343
57.670 11.808308
57.675 11.702478
57.680 11.795378
57.685 11.96446
57.690 12.225122
57.695 12.515131
57.700 12.532207
57.705 12.037671
57.710 11.492023
57.715 11.084009
57.720 10.895058
57.725 10.449399
57.730 10.667927
57.735 10.854641
57.740 11.180481
57.745 11.336267
57.750 11.70653
57.755 11.787762
57.760 11.852153
57.765 11.461151
57.770 10.957696
57.775 10.998301
57.780 11.124867
57.785 11.262151
57.790 11.54521
57.795 11.810393
57.800 11.940804
57.805 12.286154
57.810 12.267631
57.815 12.447516
57.820 12.464326
57.825 12.442581
57.830 12.434014
57.835 12.393286
57.840 12.651039
57.845 12.603502
57.850 12.212985
57.855 11.971856
57.860 11.613185
57.865 11.458138
57.870 11.865074
57.875 11.718187
57.880 12.042154
57.885 12.012414
57.890 11.786908
57.895 11.913065
57.900 11.907404
57.905 10.979641
57.910 10.476015
57.915 10.40788
57.920 10.968437
57.925 11.36615
57.930 11.521062
57.935 11.552681
57.940 11.850609
57.945 11.906076
57.950 11.530853
57.955 11.220895
57.960 10.791774
57.965 10.667959
57.970 10.436307
57.975 10.623202
57.980 10.423514
57.985 10.030158
57.990 9.708562
57.995 10.013299
58.000 10.42566
58.005 11.045769
58.010 11.172014
58.015 11.598303
58.020 12.038852
58.025 12.46878
58.030 12.477373
58.035 12.327239
58.040 12.06398
58.045 12.087217
58.050 12.424323
58.055 12.854231
58.060 12.71543
58.065 13.083187
58.070 13.126622
58.075 12.750113
58.080 13.031898
58.085 13.095134
58.090 12.691389
58.095 12.041693
58.100 11.496988
58.105 11.389466
58.110 11.134973
58.115 10.69905
58.120 10.535541
58.125 10.903773
58.130 11.384555
58.135 11.428613
58.140 11.658229
58.145 12.354939
58.150 11.949059
58.155 11.666712
58.160 11.375995
58.165 11.906365
58.170 12.337097
58.175 12.469227
58.180 12.071848
58.185 12.457205
58.190 12.662807
58.195 12.611552
58.200 12.544097
58.205 12.210705
58.210 11.856099
58.215 12.085639
58.220 12.315013
58.225 12.085135
58.230 11.725958
58.235 11.344087
58.240 11.130533
58.245 11.343195
58.250 11.051079
58.255 10.458633
58.260 10.736998
58.265 11.33385
58.270 11.202785
58.275 11.968032
58.280 12.369395
58.285 12.159425
58.290 12.10788
58.295 12.420753
58.300 12.638663
58.305 12.523341
58.310 12.521125
58.315 12.819412
58.320 13.70524
58.325 14.019688
58.330 13.142795
58.335 12.916348
58.340 13.112103
58.345 12.878915
58.350 12.49294
58.355 12.252569
58.360 12.335876
58.365 12.868961
58.370 13.088471
58.375 13.394217
58.380 13.407075
58.385 13.254521
58.390 13.034895
58.395 13.052906
58.400 13.049969
58.405 12.987041
58.410 12.73938
58.415 12.523946
58.420 12.422763
58.425 13.103865
58.430 13.584329
58.435 13.516649
58.440 13.699106
58.445 13.881272
58.450 14.022641
58.455 14.698596
58.460 14.626384
58.465 14.767111
58.470 14.738194
58.475 14.435881
58.480 14.643188
58.485 14.928203
58.490 14.684319
58.495 14.121131
58.500 13.25011
