!@!!GADDS PLOTSO FILE: Chi integration type
!@!!Title/SampleName: map-131
!@!!Comment: ?
!@!!User: Bruker Instrument Administrator
!@!!Site: University of Illinois Chicago
!@!!Frame: map-131_01_000.gfrm
!@!!Wavelengths    1.54184   1.54056   1.54439
!@!!Frame angles: 2Theta: 63.000 Omega: 50.000 Phi: 0.000 Chi: 90.000
!@!!Integration range: 2Theta: 53.000 to 73.000  Gamma: -105.000 to -75.000
!@!!Integration method: bin normalized
!@!N
!@!SS
!@!M
!@!L 0.0 0.0 0.0 0.0
!@!XDegrees
!@!YCounts
53.000 4.11382
53.005 4.149312
53.010 3.985763
53.015 3.74608
53.020 3.486317
53.025 3.06728
53.030 2.899629
53.035 2.844171
53.040 3.023659
53.045 3.408804
53.050 3.491096
53.055 3.88817
53.060 4.179286
53.065 4.517108
53.070 4.924843
53.075 4.935397
53.080 4.887375
53.085 5.06784
53.090 4.857868
53.095 4.887085
53.100 4.737994
53.105 4.493116
53.110 4.23303
53.115 4.081399
53.120 4.200866
53.125 4.394108
53.130 4.033995
53.135 4.071458
53.140 4.213646
53.145 4.333322
53.150 4.152778
53.155 3.774404
53.160 3.895195
53.165 4.081785
53.170 4.13656
53.175 4.039307
53.180 4.204895
53.185 4.546415
53.190 4.604164
53.195 4.64178
53.200 4.66149
53.205 4.446771
53.210 4.65432
53.215 4.450085
53.220 4.367714
53.225 4.450471
53.230 4.4855
53.235 4.334697
53.240 4.407595
53.245 4.159687
53.250 4.296839
53.255 4.287228
53.260 4.166677
53.265 3.848641
53.270 4.075117
53.275 4.466693
53.280 4.689714
53.285 4.529897
53.290 4.538929
53.295 4.556977
53.300 4.489111
53.305 4.099368
53.310 3.863777
53.315 3.888873
53.320 4.05933
53.325 4.156848
53.330 4.221799
53.335 4.468006
53.340 4.524295
53.345 4.047567
53.350 4.007278
53.355 3.840469
53.360 3.583173
53.365 3.678857
53.370 3.832939
53.375 3.95815
53.380 4.293871
53.385 4.960227
53.390 5.376275
53.395 5.653036
53.400 5.431654
53.405 5.457129
53.410 5.489846
53.415 5.262722
53.420 4.728116
53.425 4.766957
53.430 4.837603
53.435 4.639217
53.440 4.521998
53.445 4.525326
53.450 4.588342
53.455 4.275605
53.460 4.193222
53.465 4.115973
53.470 4.311309
53.475 4.594266
53.480 4.79155
53.485 4.733832
53.490 4.831171
53.495 4.899867
53.500 5.211339
53.505 5.213516
53.510 4.877211
53.515 4.627145
53.520 4.586116
53.525 4.476792
53.530 4.640013
53.535 4.575823
53.540 4.367841
53.545 4.484769
53.550 4.695653
53.555 4.627707
53.560 4.493255
53.565 4.00644
53.570 3.814804
53.575 3.704411
53.580 3.637197
53.585 3.84938
53.590 4.014598
53.595 4.192571
53.600 4.538797
53.605 4.797266
53.610 5.035937
53.615 4.984333
53.620 4.590416
53.625 5.032957
53.630 4.929157
53.635 5.159904
53.640 5.357471
53.645 5.53585
53.650 5.62629
53.655 5.838252
53.660 5.809129
53.665 5.809227
53.670 5.43735
53.675 5.63043
53.680 5.768467
53.685 5.686215
53.690 5.544023
53.695 5.266476
53.700 5.384476
53.705 5.851514
53.710 5.606656
53.715 5.393095
53.720 5.404071
53.725 5.556021
53.730 5.620917
53.735 5.495724
53.740 5.112128
53.745 4.816053
53.750 4.987982
53.755 4.704151
53.760 4.384819
53.765 4.423427
53.770 4.318913
53.775 4.613574
53.780 4.815554
53.785 4.775868
53.790 4.899796
53.795 5.225242
53.800 4.991967
53.805 4.990491
53.810 4.503603
53.815 4.312458
53.820 4.442345
53.825 4.689858
53.830 4.498879
53.835 4.753109
53.840 4.854802
53.845 5.106766
53.850 5.26931
53.855 5.215116
53.860 5.419392
53.865 5.664747
53.870 5.302819
53.875 5.261139
53.880 5.404925
53.885 5.592062
53.890 5.749869
53.895 5.726434
53.900 5.446774
53.905 5.566758
53.910 5.703309
53.915 5.467164
53.920 5.112422
53.925 4.678684
53.930 4.124811
53.935 4.097686
53.940 4.052256
53.945 3.830759
53.950 3.952699
53.955 4.275679
53.960 4.380823
53.965 4.671929
53.970 4.840436
53.975 4.922519
53.980 5.344573
53.985 5.080216
53.990 4.919914
53.995 5.176703
54.000 5.589262
54.005 5.572013
54.010 5.844055
54.015 5.849596
54.020 6.156323
54.025 6.140909
54.030 5.783977
54.035 5.638774
54.040 5.598944
54.045 5.254544
54.050 5.002897
54.055 4.805562
54.060 5.006814
54.065 5.203227
54.070 5.124458
54.075 4.910889
54.080 5.072743
54.085 5.035448
54.090 4.988259
54.095 4.792033
54.100 4.43579
54.105 4.802887
54.110 5.152652
54.115 4.942184
54.120 4.98743
54.125 5.152335
54.130 5.251051
54.135 5.412066
54.140 5.283643
54.145 5.412864
54.150 5.412547
54.155 5.353994
54.160 4.965998
54.165 4.934582
54.170 4.914625
54.175 4.295824
54.180 4.22547
54.185 4.207065
54.190 4.590603
54.195 5.049191
54.200 5.007875
54.205 5.221762
54.210 5.511591
54.215 5.880742
54.220 6.067563
54.225 5.960949
54.230 5.590402
54.235 5.482201
54.240 5.399107
54.245 5.190154
54.250 4.867497
54.255 4.849648
54.260 4.877151
54.265 5.42993
54.270 5.576149
54.275 5.469339
54.280 5.460747
54.285 5.5365
54.290 5.719157
54.295 6.079254
54.300 5.882803
54.305 5.953811
54.310 5.90726
54.315 5.907432
54.320 5.863981
54.325 5.647158
54.330 5.086257
54.335 4.988376
54.340 4.827699
54.345 5.110425
54.350 5.14229
54.355 5.281638
54.360 5.382592
54.365 5.391736
54.370 5.413489
54.375 5.529527
54.380 5.582273
54.385 5.704775
54.390 5.679758
54.395 5.40374
54.400 5.328165
54.405 5.278966
54.410 5.213725
54.415 5.043326
54.420 4.862576
54.425 4.820329
54.430 4.924353
54.435 5.077535
54.440 4.939478
54.445 5.225768
54.450 5.2839
54.455 5.253041
54.460 5.322462
54.465 5.29411
54.470 5.161357
54.475 5.181802
54.480 4.755778
54.485 4.932904
54.490 5.002973
54.495 4.814362
54.500 4.605147
54.505 4.849264
54.510 5.061986
54.515 4.787854
54.520 4.667161
54.525 4.737496
54.530 5.160336
54.535 5.471575
54.540 5.477977
54.545 5.629004
54.550 6.010486
54.555 5.902306
54.560 5.666153
54.565 5.232356
54.570 4.993349
54.575 4.778103
54.580 4.353968
54.585 4.642855
54.590 4.50104
54.595 4.404577
54.600 4.418083
54.605 4.536513
54.610 4.53496
54.615 4.490677
54.620 4.152571
54.625 4.352
54.630 4.610284
54.635 4.749665
54.640 5.088506
54.645 5.523731
54.650 5.472341
54.655 5.364979
54.660 5.531
54.665 5.413662
54.670 5.533782
54.675 5.650741
54.680 5.65686
54.685 6.013206
54.690 6.421903
54.695 6.208718
54.700 6.06035
54.705 5.916475
54.710 5.482879
54.715 5.257823
54.720 5.000094
54.725 4.824329
54.730 4.802116
54.735 4.882287
54.740 4.862084
54.745 4.89985
54.750 5.314709
54.755 5.284255
54.760 5.635211
54.765 6.131776
54.770 6.278961
54.775 6.379436
54.780 6.58629
54.785 6.503827
54.790 6.660439
54.795 6.413205
54.800 6.113658
54.805 6.00487
54.810 6.134173
54.815 5.826568
54.820 5.938592
54.825 5.879797
54.830 6.007963
54.835 6.29046
54.840 6.498735
54.845 6.57357
54.850 6.420936
54.855 6.408267
54.860 6.380562
54.865 6.052727
54.870 5.714111
54.875 5.652571
54.880 5.327018
54.885 5.363333
54.890 5.540045
54.895 5.739151
54.900 5.866783
54.905 5.620532
54.910 5.462362
54.915 5.586493
54.920 5.319605
54.925 4.852268
54.930 4.749048
54.935 4.846165
54.940 5.237233
54.945 5.535037
54.950 5.819488
54.955 6.15637
54.960 6.389125
54.965 6.221183
54.970 6.045693
54.975 5.82568
54.980 5.44954
54.985 5.171077
54.990 4.740071
54.995 4.626468
55.000 4.996238
55.005 5.278694
55.010 5.472007
55.015 5.504523
55.020 5.655394
55.025 5.985705
55.030 5.855565
55.035 5.53754
55.040 5.564492
55.045 5.630235
55.050 5.650119
55.055 5.619749
55.060 5.642394
55.065 5.754195
55.070 5.687608
55.075 5.528657
55.080 5.523217
55.085 5.651
55.090 5.791235
55.095 5.870462
55.100 5.686016
55.105 5.624011
55.110 5.955727
55.115 5.912669
55.120 6.045531
55.125 6.016711
55.130 6.119271
55.135 6.50056
55.140 6.540108
55.145 6.102267
55.150 5.775825
55.155 5.579308
55.160 5.365365
55.165 5.261889
55.170 5.1175
55.175 5.42047
55.180 5.673721
55.185 5.676112
55.190 5.599669
55.195 5.330183
55.200 5.289924
55.205 5.183057
55.210 4.924214
55.215 4.904777
55.220 5.30564
55.225 5.358615
55.230 5.75931
55.235 6.048736
55.240 6.042342
55.245 6.04644
55.250 5.906017
55.255 5.911568
55.260 6.232815
55.265 6.137845
55.270 6.072679
55.275 6.421351
55.280 6.596239
55.285 6.666013
55.290 6.232886
55.295 6.339694
55.300 6.221279
55.305 6.256133
55.310 5.754335
55.315 5.653665
55.320 5.747764
55.325 5.75112
55.330 5.121687
55.335 5.003818
55.340 4.588403
55.345 4.758715
55.350 4.713234
55.355 4.765711
55.360 4.814856
55.365 5.356364
55.370 5.43795
55.375 5.651095
55.380 5.906197
55.385 5.969938
55.390 5.950071
55.395 6.116305
55.400 5.921027
55.405 6.486091
55.410 6.540158
55.415 6.286123
55.420 6.283195
55.425 6.751539
55.430 6.949986
55.435 7.169938
55.440 7.147343
55.445 7.61577
55.450 7.913032
55.455 8.034299
55.460 7.314294
55.465 7.0013
55.470 6.912117
55.475 6.410849
55.480 5.86162
55.485 5.55515
55.490 5.429201
55.495 5.874949
55.500 5.714808
55.505 5.776834
55.510 6.080645
55.515 6.462643
55.520 6.82058
55.525 6.971666
55.530 6.723072
55.535 6.774005
55.540 6.848737
55.545 6.43947
55.550 6.179583
55.555 6.383314
55.560 6.304052
55.565 6.30141
55.570 6.18356
55.575 6.143041
55.580 6.281878
55.585 6.345396
55.590 5.871874
55.595 6.054593
55.600 6.62982
55.605 6.530529
55.610 6.55933
55.615 6.340325
55.620 6.246417
55.625 6.541653
55.630 5.970263
55.635 5.292485
55.640 5.209831
55.645 5.493261
55.650 5.779881
55.655 5.734172
55.660 5.601124
55.665 6.147825
55.670 6.681126
55.675 6.571454
55.680 6.244801
55.685 6.227184
55.690 6.298185
55.695 6.219591
55.700 6.288473
55.705 6.365208
55.710 6.823642
55.715 6.905663
55.720 6.680658
55.725 6.697978
55.730 6.65858
55.735 6.847595
55.740 6.499023
55.745 6.256113
55.750 6.341495
55.755 6.925808
55.760 7.304452
55.765 7.753917
55.770 7.745471
55.775 7.839812
55.780 7.657827
55.785 7.392705
55.790 6.916472
55.795 6.750423
55.800 6.257205
55.805 6.104451
55.810 6.284661
55.815 6.458936
55.820 6.495096
55.825 6.342449
55.830 6.065869
55.835 5.97758
55.840 6.093877
55.845 6.073794
55.850 6.335921
55.855 6.755278
55.860 6.924579
55.865 7.153309
55.870 7.458377
55.875 7.222062
55.880 7.109062
55.885 6.65715
55.890 6.593028
55.895 6.674009
55.900 6.480167
55.905 6.387946
55.910 6.408949
55.915 6.527767
55.920 6.748886
55.925 6.468482
55.930 6.721712
55.935 7.213624
55.940 7.459057
55.945 7.779513
55.950 7.911103
55.955 7.811219
55.960 7.850124
55.965 7.558695
55.970 7.335593
55.975 7.10125
55.980 6.638383
55.985 6.694909
55.990 7.124382
55.995 7.48959
56.000 7.623763
56.005 7.280075
56.010 7.183942
56.015 7.133994
56.020 6.596361
56.025 6.442022
56.030 6.099748
56.035 6.131133
56.040 6.450675
56.045 6.689984
56.050 7.019702
56.055 7.466358
56.060 7.59477
56.065 7.719161
56.070 7.537296
56.075 6.986133
56.080 7.020382
56.085 7.030458
56.090 7.424169
56.095 7.457835
56.100 7.214102
56.105 7.371006
56.110 8.055786
56.115 7.82137
56.120 7.147058
56.125 6.22431
56.130 6.379673
56.135 6.483274
56.140 6.406679
56.145 6.037217
56.150 6.682793
56.155 7.168957
56.160 7.300889
56.165 7.322278
56.170 7.492582
56.175 7.772221
56.180 8.357095
56.185 7.952495
56.190 8.320886
56.195 8.133113
56.200 7.821497
56.205 7.772611
56.210 7.396675
56.215 7.202741
56.220 6.967061
56.225 7.057838
56.230 7.282059
56.235 7.164789
56.240 7.091165
56.245 6.695455
56.250 6.361559
56.255 6.374013
56.260 6.164823
56.265 6.325967
56.270 6.446147
56.275 6.368943
56.280 6.607734
56.285 6.569547
56.290 6.481743
56.295 6.649176
56.300 7.064892
56.305 7.231037
56.310 7.470659
56.315 7.978183
56.320 8.03246
56.325 7.942978
56.330 7.611422
56.335 7.281218
56.340 7.164957
56.345 6.979401
56.350 6.40344
56.355 6.440028
56.360 6.126002
56.365 5.619989
56.370 5.224694
56.375 5.247
56.380 5.361958
56.385 5.419313
56.390 5.399683
56.395 5.800064
56.400 6.080753
56.405 6.308074
56.410 6.420455
56.415 6.678569
56.420 7.251897
56.425 7.376862
56.430 7.417191
56.435 7.387902
56.440 7.247391
56.445 7.268801
56.450 7.002128
56.455 7.15066
56.460 7.072263
56.465 6.710496
56.470 6.907784
56.475 7.117097
56.480 7.025813
56.485 6.963616
56.490 6.708236
56.495 7.212759
56.500 7.445502
56.505 7.475479
56.510 7.396657
56.515 7.410411
56.520 7.652462
56.525 7.046094
56.530 6.928575
56.535 6.759946
56.540 6.795095
56.545 6.800318
56.550 6.957503
56.555 7.139448
56.560 7.62147
56.565 8.056527
56.570 8.378888
56.575 7.866138
56.580 8.032018
56.585 8.020463
56.590 7.579888
56.595 7.537753
56.600 7.164189
56.605 7.338647
56.610 7.775186
56.615 7.367463
56.620 7.086047
56.625 7.524798
56.630 8.047813
56.635 8.125181
56.640 7.810794
56.645 7.409273
56.650 7.438889
56.655 7.594729
56.660 6.874004
56.665 6.339447
56.670 6.345969
56.675 6.467824
56.680 6.872198
56.685 6.884759
56.690 6.940706
56.695 7.225863
56.700 6.887548
56.705 6.944443
56.710 6.981133
56.715 6.895567
56.720 7.102518
56.725 7.164703
56.730 7.089388
56.735 7.537191
56.740 7.458481
56.745 7.60352
56.750 7.612339
56.755 8.055364
56.760 8.225175
56.765 8.417179
56.770 7.996426
56.775 8.074361
56.780 7.943141
56.785 8.022174
56.790 7.967471
56.795 8.019091
56.800 8.001313
56.805 8.249979
56.810 8.158696
56.815 8.169855
56.820 7.67319
56.825 7.676542
56.830 7.576499
56.835 7.648542
56.840 7.580907
56.845 7.789626
56.850 8.046052
56.855 8.546301
56.860 8.267067
56.865 7.871935
56.870 7.716087
56.875 7.82337
56.880 7.798367
56.885 7.584159
56.890 7.308589
56.895 7.309315
56.900 7.481614
56.905 7.395165
56.910 7.399826
56.915 7.446128
56.920 7.540119
56.925 7.492264
56.930 7.710033
56.935 8.005404
56.940 7.725694
56.945 7.503452
56.950 7.187029
56.955 7.196586
56.960 6.978267
56.965 6.839495
56.970 6.518746
56.975 6.731098
56.980 6.928953
56.985 7.257235
56.990 7.440685
56.995 7.571029
57.000 7.422721
57.005 7.427958
57.010 7.149779
57.015 7.06929
57.020 6.905005
57.025 7.078614
57.030 7.161731
57.035 7.085498
57.040 7.123179
57.045 7.501366
57.050 7.717746
57.055 7.547273
57.060 7.474513
57.065 7.61963
57.070 7.827568
57.075 7.866458
57.080 7.812256
57.085 7.526139
57.090 7.527021
57.095 7.552696
57.100 7.868819
57.105 7.981594
57.110 8.084784
57.115 8.300576
57.120 8.207291
57.125 8.467463
57.130 8.233697
57.135 8.048598
57.140 8.268155
57.145 8.144417
57.150 7.935675
57.155 8.258206
57.160 8.112394
57.165 8.290641
57.170 8.433655
57.175 8.235376
57.180 8.366637
57.185 8.50687
57.190 8.279848
57.195 8.310621
57.200 7.937903
57.205 7.614273
57.210 7.320424
57.215 7.313852
57.220 7.347644
57.225 7.430266
57.230 7.309947
57.235 7.225429
57.240 7.463959
57.245 7.645437
57.250 7.672987
57.255 7.280609
57.260 7.26141
57.265 7.566229
57.270 7.654019
57.275 7.605449
57.280 7.353065
57.285 7.476294
57.290 7.86605
57.295 7.795473
57.300 7.651641
57.305 7.683838
57.310 7.787944
57.315 7.634416
57.320 7.06289
57.325 7.075325
57.330 7.385661
57.335 7.269444
57.340 7.16095
57.345 7.2203
57.350 7.865152
57.355 8.311194
57.360 8.244147
57.365 8.19538
57.370 8.498662
57.375 9.165977
57.380 9.29639
57.385 9.196001
57.390 9.07355
57.395 9.083973
57.400 8.905289
57.405 8.792694
57.410 8.10568
57.415 8.072985
57.420 8.144318
57.425 8.131345
57.430 7.943133
57.435 7.777386
57.440 7.801823
57.445 7.759434
57.450 7.747121
57.455 8.079589
57.460 8.428571
57.465 8.592784
57.470 8.721192
57.475 8.61302
57.480 8.668007
57.485 8.680211
57.490 8.420203
57.495 8.250969
57.500 8.43624
57.505 8.499058
57.510 8.717525
57.515 8.633768
57.520 8.092397
57.525 7.950486
57.530 8.004059
57.535 7.985835
57.540 8.282638
57.545 8.168317
57.550 8.313617
57.555 8.751638
57.560 9.248936
57.565 8.96175
57.570 8.505162
57.575 8.17644
57.580 8.34034
57.585 8.524455
57.590 8.493643
57.595 8.165734
57.600 8.656602
57.605 8.987548
57.610 9.585802
57.615 9.399301
57.620 9.248581
57.625 8.759118
57.630 8.355969
57.635 7.865029
57.640 7.774463
57.645 7.245119
57.650 7.174614
57.655 7.523005
57.660 7.801386
57.665 8.147742
57.670 8.553322
57.675 8.786278
57.680 9.08815
57.685 9.021904
57.690 8.766436
57.695 9.09478
57.700 9.154635
57.705 8.713455
57.710 8.375077
57.715 8.423479
57.720 8.397776
57.725 8.544365
57.730 8.36712
57.735 8.500242
57.740 8.954403
57.745 8.522907
57.750 8.724483
57.755 8.95442
57.760 8.703135
57.765 8.511851
57.770 8.410402
57.775 8.706305
57.780 9.511174
57.785 9.495461
57.790 9.540545
57.795 9.515506
57.800 9.575584
57.805 9.63817
57.810 9.215748
57.815 9.158175
57.820 9.192016
57.825 9.05277
57.830 8.973472
57.835 9.103733
57.840 9.206753
57.845 8.940307
57.850 8.675867
57.855 8.582898
57.860 8.584618
57.865 8.815123
57.870 8.659683
57.875 8.415892
57.880 8.709445
57.885 8.85254
57.890 8.96513
57.895 8.955745
57.900 8.915096
57.905 9.613424
57.910 9.849611
57.915 9.855864
57.920 9.546494
57.925 9.524082
57.930 9.716649
57.935 9.907424
57.940 9.148952
57.945 8.919064
57.950 8.681632
57.955 8.957598
57.960 8.769562
57.965 8.379466
57.970 8.376673
57.975 8.740667
57.980 8.867709
57.985 9.315376
57.990 9.710717
57.995 10.001858
58.000 10.421209
58.005 10.528628
58.010 10.209508
58.015 10.33942
58.020 9.753233
58.025 9.561163
58.030 9.564308
58.035 9.588049
58.040 9.128143
58.045 9.262162
58.050 9.002456
58.055 9.05434
58.060 8.986833
58.065 8.644996
58.070 8.582735
58.075 8.957335
58.080 9.170767
58.085 9.476892
58.090 9.368815
58.095 9.29331
58.100 9.82736
58.105 9.889537
58.110 9.882255
58.115 9.474016
58.120 9.376465
58.125 9.370258
58.130 9.598932
58.135 9.650331
58.140 9.58802
58.145 9.431044
58.150 9.802409
58.155 9.573183
58.160 9.684528
58.165 9.457071
58.170 9.487207
58.175 9.676474
58.180 9.831981
58.185 9.906127
58.190 10.303623
58.195 10.046086
58.200 9.907273
58.205 9.836664
58.210 9.861975
58.215 9.906204
58.220 9.859385
58.225 9.892274
58.230 10.271069
58.235 10.503455
58.240 10.24033
58.245 10.142147
58.250 10.24147
58.255 10.46879
58.260 10.300797
58.265 10.086305
58.270 9.989314
58.275 9.699103
58.280 9.754128
58.285 10.063681
58.290 9.531126
58.295 9.408851
58.300 9.477172
58.305 9.34761
58.310 10.315872
58.315 10.731355
58.320 10.51829
58.325 10.839645
58.330 10.963346
58.335 10.950734
58.340 11.042121
58.345 10.124143
58.350 9.96095
58.355 10.372123
58.360 10.364187
58.365 10.457693
58.370 11.225836
58.375 11.692873
58.380 11.795601
58.385 11.240857
58.390 11.316278
58.395 12.072214
58.400 12.026214
58.405 11.757321
58.410 11.451351
58.415 11.677341
58.420 11.831817
58.425 11.630278
58.430 11.451742
58.435 11.200933
58.440 11.111364
58.445 11.439392
58.450 11.200588
58.455 11.223828
58.460 11.12221
58.465 11.346689
58.470 11.856754
58.475 12.006249
58.480 12.135103
58.485 12.951118
58.490 13.714922
58.495 14.491371
58.500 14.551664
58.505 14.478616
58.510 14.595613
58.515 14.7731
58.520 14.906519
58.525 15.511407
58.530 14.895658
58.535 15.282639
58.540 15.84192
58.545 15.788408
58.550 15.808991
58.555 15.644126
58.560 15.073867
58.565 15.862688
58.570 16.591677
58.575 16.934137
58.580 17.495518
58.585 17.79491
58.590 18.378927
58.595 19.241064
58.600 19.576214
58.605 19.432219
58.610 19.512754
58.615 19.775755
58.620 20.067099
58.625 19.720612
58.630 19.513292
58.635 19.37019
58.640 18.750298
58.645 18.960884
58.650 18.550304
58.655 18.757057
58.660 18.980995
58.665 18.906353
58.670 19.052662
58.675 19.147545
58.680 19.093786
58.685 19.052969
58.690 18.780046
58.695 19.19083
58.700 19.264833
58.705 19.094746
58.710 19.823921
58.715 19.403097
58.720 19.509876
58.725 19.51889
58.730 19.06572
58.735 18.987486
