!@!!GADDS PLOTSO FILE: Chi integration type
!@!!Title/SampleName: map-f1
!@!!Comment: ?
!@!!User: Bruker Instrument Administrator
!@!!Site: University of Illinois Chicago
!@!!Frame: map-f1_01_000.gfrm
!@!!Wavelengths    1.54184   1.54056   1.54439
!@!!Frame angles: 2Theta: 63.000 Omega: 50.000 Phi: 0.000 Chi: 90.000
!@!!Integration range: 2Theta: 53.000 to 73.000  Gamma: -105.000 to -75.000
!@!!Integration method: bin normalized
!@!N
!@!SS
!@!M
!@!L 0.0 0.0 0.0 0.0
!@!XDegrees
!@!YCounts
53.000 6.761776
53.005 6.509374
53.010 5.990515
53.015 6.403015
53.020 6.663652
53.025 6.366765
53.030 6.532761
53.035 6.873449
53.040 7.16456
53.045 7.33056
53.050 7.23814
53.055 7.332821
53.060 7.545816
53.065 7.218263
53.070 7.106396
53.075 7.18634
53.080 7.191031
53.085 7.439162
53.090 7.607181
53.095 7.466902
53.100 7.478048
53.105 7.482277
53.110 7.380842
53.115 7.250416
53.120 7.108869
53.125 7.231069
53.130 7.472507
53.135 7.544646
53.140 7.770968
53.145 7.93569
53.150 7.746953
53.155 7.957872
53.160 7.835103
53.165 7.639682
53.170 7.469827
53.175 7.259896
53.180 7.364306
53.185 7.595852
53.190 7.400872
53.195 7.263859
53.200 7.442461
53.205 7.693981
53.210 7.72188
53.215 7.331165
53.220 7.372141
53.225 7.039697
53.230 6.918402
53.235 6.793797
53.240 7.072423
53.245 6.766245
53.250 6.513261
53.255 6.048155
53.260 5.939275
53.265 6.077349
53.270 5.549626
53.275 5.357055
53.280 5.620139
53.285 5.645416
53.290 6.104758
53.295 6.042175
53.300 6.219044
53.305 6.466996
53.310 6.383283
53.315 6.55918
53.320 7.023183
53.325 7.110344
53.330 7.565312
53.335 7.853499
53.340 8.090656
53.345 8.700671
53.350 8.726552
53.355 8.965049
53.360 9.252285
53.365 9.33083
53.370 9.021028
53.375 8.697543
53.380 8.307159
53.385 8.056476
53.390 7.868687
53.395 7.42292
53.400 7.082682
53.405 6.951343
53.410 7.315315
53.415 7.628537
53.420 7.581076
53.425 7.798275
53.430 7.541378
53.435 7.490599
53.440 7.469464
53.445 7.4241
53.450 7.348117
53.455 7.664778
53.460 7.683685
53.465 7.56289
53.470 7.64518
53.475 7.901353
53.480 7.765839
53.485 7.732698
53.490 7.232923
53.495 7.159626
53.500 7.517207
53.505 7.482045
53.510 7.058291
53.515 6.856099
53.520 7.37954
53.525 7.32644
53.530 7.215676
53.535 6.884427
53.540 6.941782
53.545 6.932077
53.550 6.821728
53.555 6.4512
53.560 6.338041
53.565 6.315948
53.570 6.194977
53.575 6.274677
53.580 6.392325
53.585 6.503857
53.590 6.584363
53.595 6.948359
53.600 7.345515
53.605 7.696191
53.610 7.749377
53.615 8.11054
53.620 8.234
53.625 8.490637
53.630 8.731497
53.635 8.807672
53.640 8.724328
53.645 8.630486
53.650 8.612657
53.655 8.767159
53.660 8.660572
53.665 8.221086
53.670 8.344742
53.675 8.934219
53.680 8.998836
53.685 8.547965
53.690 8.204863
53.695 8.243994
53.700 8.314795
53.705 8.017305
53.710 7.645458
53.715 7.651045
53.720 7.628244
53.725 7.470893
53.730 7.258773
53.735 7.272247
53.740 7.411267
53.745 7.130227
53.750 7.254095
53.755 7.72697
53.760 7.740658
53.765 7.736306
53.770 7.461388
53.775 7.000846
53.780 6.933839
53.785 6.797709
53.790 6.89569
53.795 6.873878
53.800 6.851727
53.805 6.680025
53.810 7.381515
53.815 7.970569
53.820 8.344438
53.825 8.664831
53.830 9.134169
53.835 9.465023
53.840 9.798631
53.845 9.365449
53.850 9.100593
53.855 8.467403
53.860 8.496215
53.865 8.339572
53.870 8.346185
53.875 8.349538
53.880 8.02253
53.885 8.109088
53.890 8.271851
53.895 7.643755
53.900 7.703721
53.905 7.67269
53.910 7.814127
53.915 7.715374
53.920 7.584392
53.925 7.520044
53.930 7.918334
53.935 7.897114
53.940 7.861116
53.945 8.366393
53.950 9.002788
53.955 8.837649
53.960 8.869866
53.965 8.664913
53.970 8.89571
53.975 8.982046
53.980 8.617236
53.985 8.135452
53.990 8.344956
53.995 8.705827
54.000 8.341365
54.005 8.261367
54.010 8.115247
54.015 8.12901
54.020 8.167942
54.025 7.995194
54.030 7.840159
54.035 8.552368
54.040 8.630035
54.045 8.785249
54.050 8.956523
54.055 8.852553
54.060 8.798077
54.065 9.134959
54.070 8.817046
54.075 8.961371
54.080 9.085322
54.085 9.074177
54.090 8.992065
54.095 9.232552
54.100 8.984757
54.105 8.882618
54.110 9.061419
54.115 8.911395
54.120 9.086858
54.125 9.06425
54.130 8.6381
54.135 8.701416
54.140 8.494192
54.145 8.086331
54.150 7.641535
54.155 7.524855
54.160 7.780941
54.165 8.181927
54.170 7.969532
54.175 7.804318
54.180 8.057608
54.185 8.34382
54.190 8.309954
54.195 8.07823
54.200 7.763
54.205 7.521171
54.210 7.339389
54.215 7.33376
54.220 7.705005
54.225 7.84752
54.230 7.960483
54.235 8.027006
54.240 8.486219
54.245 8.204829
54.250 7.739339
54.255 7.605298
54.260 7.821408
54.265 7.707162
54.270 8.02889
54.275 8.544966
54.280 9.118708
54.285 9.468291
54.290 9.341229
54.295 9.143049
54.300 8.954738
54.305 8.509114
54.310 8.298246
54.315 7.937434
54.320 8.021646
54.325 7.651297
54.330 7.483819
54.335 7.467445
54.340 7.922184
54.345 8.190748
54.350 7.997616
54.355 7.972916
54.360 8.037547
54.365 8.149993
54.370 9.001616
54.375 8.57636
54.380 8.488513
54.385 8.415956
54.390 8.55708
54.395 9.002527
54.400 9.034588
54.405 8.556107
54.410 8.125217
54.415 8.290248
54.420 8.659846
54.425 8.667367
54.430 8.626796
54.435 8.79061
54.440 8.985525
54.445 8.819789
54.450 8.473132
54.455 7.982334
54.460 7.883493
54.465 8.097163
54.470 7.546009
54.475 7.256985
54.480 7.522282
54.485 7.664021
54.490 7.66933
54.495 7.332531
54.500 7.275823
54.505 7.314548
54.510 7.394261
54.515 7.899283
54.520 8.024459
54.525 8.244383
54.530 7.838562
54.535 7.640902
54.540 7.802895
54.545 7.577445
54.550 7.331331
54.555 7.345235
54.560 7.34881
54.565 7.58184
54.570 7.799051
54.575 7.992828
54.580 7.95773
54.585 7.962288
54.590 7.975124
54.595 8.014256
54.600 8.106112
54.605 8.128636
54.610 8.399144
54.615 8.54968
54.620 8.613328
54.625 9.030489
54.630 9.30235
54.635 9.514855
54.640 9.622767
54.645 9.580628
54.650 9.934639
54.655 10.039614
54.660 9.71401
54.665 9.40941
54.670 8.926538
54.675 9.187258
54.680 9.031665
54.685 8.672686
54.690 8.932179
54.695 9.399426
54.700 9.846651
54.705 9.696531
54.710 9.220962
54.715 9.273623
54.720 9.560942
54.725 9.426697
54.730 9.265809
54.735 9.522983
54.740 9.756536
54.745 9.828084
54.750 10.084864
54.755 9.663961
54.760 9.263453
54.765 9.100642
54.770 8.748828
54.775 8.722033
54.780 8.933648
54.785 8.708523
54.790 8.971507
54.795 8.960351
54.800 9.228405
54.805 9.362058
54.810 9.346102
54.815 8.864166
54.820 9.098828
54.825 9.148771
54.830 9.34252
54.835 9.267083
54.840 9.482487
54.845 9.262738
54.850 9.303428
54.855 9.032484
54.860 9.510166
54.865 9.539173
54.870 9.606045
54.875 9.675102
54.880 9.935501
54.885 10.289486
54.890 10.110353
54.895 9.522131
54.900 9.513853
54.905 9.276026
54.910 9.306264
54.915 9.400757
54.920 9.369383
54.925 9.597974
54.930 9.907943
54.935 9.917007
54.940 10.157896
54.945 10.120102
54.950 9.70505
54.955 9.542465
54.960 9.456244
54.965 8.945045
54.970 8.77894
54.975 8.640713
54.980 8.795939
54.985 8.912093
54.990 8.853065
54.995 8.600338
55.000 8.980232
55.005 8.952765
55.010 8.902514
55.015 8.964008
55.020 9.161147
55.025 9.397738
55.030 9.371768
55.035 8.847747
55.040 9.015034
55.045 9.351143
55.050 9.670267
55.055 9.747541
55.060 9.732818
55.065 9.918552
55.070 10.267817
55.075 10.115602
55.080 9.80864
55.085 9.368058
55.090 9.084656
55.095 9.402862
55.100 10.148657
55.105 10.361866
55.110 9.886394
55.115 9.45225
55.120 9.88804
55.125 9.591058
55.130 8.96864
55.135 8.277716
55.140 8.289796
55.145 8.865893
55.150 8.874683
55.155 8.580379
55.160 8.775908
55.165 8.984202
55.170 9.278893
55.175 8.701648
55.180 8.596873
55.185 8.738064
55.190 8.685465
55.195 8.804701
55.200 8.198294
55.205 7.878376
55.210 8.05372
55.215 7.848
55.220 8.230433
55.225 8.376559
55.230 8.119312
55.235 8.856237
55.240 9.146242
55.245 9.36584
55.250 9.665379
55.255 9.248858
55.260 9.425777
55.265 9.913787
55.270 9.916386
55.275 10.180527
55.280 10.036208
55.285 9.94189
55.290 9.750372
55.295 9.002439
55.300 8.492601
55.305 8.454271
55.310 8.357255
55.315 8.020846
55.320 7.982466
55.325 8.753209
55.330 9.339036
55.335 9.148479
55.340 9.478653
55.345 9.914772
55.350 10.046474
55.355 10.054698
55.360 9.649624
55.365 9.611105
55.370 9.763018
55.375 9.080609
55.380 9.096626
55.385 9.309966
55.390 9.067999
55.395 8.942605
55.400 8.668639
55.405 8.710982
55.410 8.677928
55.415 8.651093
55.420 8.63763
55.425 9.303877
55.430 9.674253
55.435 10.070934
55.440 10.290503
55.445 10.498083
55.450 10.203109
55.455 10.383475
55.460 9.695837
55.465 9.771411
55.470 9.704896
55.475 9.655556
55.480 10.004412
55.485 10.074221
55.490 9.831773
55.495 9.683482
55.500 10.24193
55.505 10.27767
55.510 9.742271
55.515 9.524144
55.520 9.539682
55.525 10.103904
55.530 9.774185
55.535 8.71276
55.540 8.867111
55.545 9.215451
55.550 9.361468
55.555 9.349103
55.560 9.114844
55.565 9.597845
55.570 9.740819
55.575 9.195476
55.580 9.014209
55.585 8.69398
55.590 8.652506
55.595 8.739497
55.600 8.625159
55.605 8.953969
55.610 8.99681
55.615 8.935465
55.620 9.180179
55.625 9.296936
55.630 9.298389
55.635 9.573582
55.640 9.116036
55.645 9.06345
55.650 8.937524
55.655 8.62648
55.660 8.116325
55.665 8.092484
55.670 8.157255
55.675 8.633435
55.680 9.127234
55.685 9.334159
55.690 9.705027
55.695 9.81656
55.700 9.528419
55.705 9.723337
55.710 9.797838
55.715 9.588249
55.720 9.494004
55.725 9.22009
55.730 9.110312
55.735 8.963993
55.740 8.744586
55.745 8.752315
55.750 9.046696
55.755 9.308303
55.760 9.468397
55.765 9.340114
55.770 9.308962
55.775 9.606968
55.780 9.644629
55.785 9.215123
55.790 8.586411
55.795 8.592331
55.800 9.042114
55.805 8.93851
55.810 8.452341
55.815 8.508309
55.820 8.738654
55.825 8.858582
55.830 8.893007
55.835 8.586349
55.840 8.624084
55.845 8.471785
55.850 8.841106
55.855 8.940075
55.860 8.730568
55.865 9.021292
55.870 9.444039
55.875 10.158007
55.880 10.672624
55.885 10.322986
55.890 10.214815
55.895 10.711266
55.900 10.81231
55.905 10.535779
55.910 10.327159
55.915 9.809037
55.920 9.939991
55.925 10.220336
55.930 10.384645
55.935 10.53047
55.940 10.282032
55.945 10.560933
55.950 10.752416
55.955 10.729432
55.960 10.394387
55.965 9.663756
55.970 9.603134
55.975 9.586642
55.980 9.105569
55.985 8.96161
55.990 8.991858
55.995 9.239459
56.000 9.433015
56.005 9.530895
56.010 10.119629
56.015 9.981872
56.020 9.803068
56.025 9.622811
56.030 10.211891
56.035 10.156712
56.040 10.167294
56.045 9.332002
56.050 9.209785
56.055 9.206717
56.060 8.932497
56.065 8.81263
56.070 8.964347
56.075 8.861987
56.080 9.554754
56.085 9.770262
56.090 10.001474
56.095 10.359433
56.100 10.135313
56.105 9.962307
56.110 9.66645
56.115 9.190661
56.120 9.109551
56.125 9.320957
56.130 9.508411
56.135 9.575871
56.140 9.675874
56.145 9.942751
56.150 10.295017
56.155 10.713748
56.160 10.496137
56.165 10.026652
56.170 9.710242
56.175 9.69343
56.180 9.975728
56.185 10.076964
56.190 9.458552
56.195 9.351952
56.200 9.653511
56.205 9.90108
56.210 10.081821
56.215 9.985365
56.220 9.565156
56.225 10.158405
56.230 10.366279
56.235 10.513759
56.240 10.470437
56.245 10.325094
56.250 10.125253
56.255 10.274538
56.260 9.764625
56.265 9.431459
56.270 9.154452
56.275 9.364684
56.280 9.36592
56.285 9.672517
56.290 9.445733
56.295 9.664783
56.300 9.690257
56.305 9.335196
56.310 9.07736
56.315 8.923669
56.320 9.10156
56.325 9.611757
56.330 9.868551
56.335 10.581488
56.340 11.019854
56.345 11.258524
56.350 11.534472
56.355 11.692101
56.360 11.361191
56.365 10.501067
56.370 9.950195
56.375 9.62951
56.380 9.361386
56.385 8.78344
56.390 8.289773
56.395 8.856724
56.400 9.246967
56.405 9.50461
56.410 9.773674
56.415 10.162423
56.420 10.611557
56.425 10.971969
56.430 10.821518
56.435 10.567894
56.440 10.367225
56.445 10.544545
56.450 10.558348
56.455 10.049029
56.460 10.079605
56.465 9.967598
56.470 9.901919
56.475 9.857557
56.480 9.53977
56.485 9.311921
56.490 9.806759
56.495 9.416346
56.500 9.527053
56.505 9.951701
56.510 9.737056
56.515 9.491667
56.520 9.360579
56.525 9.250624
56.530 9.584608
56.535 9.800232
56.540 9.798153
56.545 10.123649
56.550 10.406899
56.555 10.743979
56.560 10.271796
56.565 9.861705
56.570 9.847899
56.575 9.638663
56.580 9.541162
56.585 9.638516
56.590 9.590667
56.595 9.701623
56.600 9.885948
56.605 9.604207
56.610 9.785663
56.615 10.228833
56.620 10.283164
56.625 10.691268
56.630 10.719661
56.635 10.738462
56.640 11.010288
56.645 11.148312
56.650 10.956688
56.655 10.665326
56.660 10.184443
56.665 10.695442
56.670 10.954182
56.675 11.307715
56.680 11.016883
56.685 11.105977
56.690 11.631326
56.695 11.715891
56.700 11.547724
56.705 11.595441
56.710 11.10551
56.715 11.084326
56.720 10.940792
56.725 10.69943
56.730 11.036744
56.735 11.076351
56.740 10.965087
56.745 11.040277
56.750 10.956852
56.755 10.996916
56.760 11.050908
56.765 10.50478
56.770 9.938034
56.775 9.767243
56.780 9.755231
56.785 10.152822
56.790 10.414652
56.795 10.752709
56.800 11.2409
56.805 12.041183
56.810 12.316129
56.815 12.333857
56.820 11.96914
56.825 11.952537
56.830 11.862409
56.835 11.566003
56.840 10.908061
56.845 10.783754
56.850 11.034738
56.855 11.045429
56.860 10.797064
56.865 10.885468
56.870 11.09269
56.875 11.078364
56.880 11.239097
56.885 11.248282
56.890 11.190021
56.895 11.217661
56.900 11.237404
56.905 11.232655
56.910 11.105462
56.915 11.205067
56.920 11.198137
56.925 11.302636
56.930 11.243024
56.935 11.235964
56.940 11.625342
56.945 11.688652
56.950 11.488565
56.955 11.439495
56.960 11.197568
56.965 11.085923
56.970 10.694305
56.975 10.761851
56.980 11.121367
56.985 11.460331
56.990 11.572617
56.995 12.245504
57.000 12.667933
57.005 12.967107
57.010 12.875206
57.015 12.844978
57.020 12.720926
57.025 12.532703
57.030 11.743564
57.035 11.68203
57.040 11.216449
57.045 10.843853
57.050 11.048757
57.055 10.999476
57.060 10.994098
57.065 11.401286
57.070 11.272313
57.075 11.658286
57.080 11.631341
57.085 10.99974
57.090 10.579578
57.095 10.728004
57.100 10.942569
57.105 10.91106
57.110 10.391478
57.115 10.086958
57.120 10.274406
57.125 10.432175
57.130 10.21069
57.135 9.893806
57.140 10.335394
57.145 10.848547
57.150 11.463027
57.155 11.886619
57.160 11.721156
57.165 11.312453
57.170 11.328352
57.175 10.663846
57.180 10.349327
57.185 10.064996
57.190 9.83567
57.195 10.082942
57.200 10.163658
57.205 10.038507
57.210 10.243385
57.215 10.432081
57.220 10.380821
57.225 10.289163
57.230 10.151857
57.235 10.536533
57.240 10.479725
57.245 10.462046
57.250 10.548068
57.255 10.63954
57.260 11.234824
57.265 11.482333
57.270 11.511477
57.275 11.72643
57.280 11.604249
57.285 11.350243
57.290 11.352519
57.295 11.03548
57.300 10.821923
57.305 10.424551
57.310 10.361254
57.315 10.476126
57.320 10.755381
57.325 10.627301
57.330 10.359483
57.335 10.541115
57.340 10.699953
57.345 11.076668
57.350 11.491838
57.355 11.535963
57.360 12.11278
57.365 12.163267
57.370 12.176356
57.375 12.576376
57.380 12.569379
57.385 12.230886
57.390 11.648239
57.395 11.33486
57.400 11.635918
57.405 11.565397
57.410 11.352171
57.415 11.378827
57.420 11.627684
57.425 11.973462
57.430 11.858364
57.435 12.177171
57.440 12.334625
57.445 12.294969
57.450 12.128118
57.455 11.989962
57.460 12.315352
57.465 12.255099
57.470 11.85445
57.475 11.676857
57.480 11.599289
57.485 11.53399
57.490 11.458455
57.495 11.379833
57.500 11.627929
57.505 11.698233
57.510 11.884731
57.515 12.079854
57.520 12.290658
57.525 12.145551
57.530 12.015162
57.535 11.984704
57.540 11.924235
57.545 11.789396
57.550 12.274683
57.555 12.052124
57.560 12.434331
57.565 12.260344
57.570 12.346177
57.575 12.732681
57.580 12.728385
57.585 11.871504
57.590 11.895778
57.595 11.789832
57.600 12.108253
57.605 11.963907
57.610 11.834466
57.615 11.922934
57.620 12.09047
57.625 12.363305
57.630 12.362663
57.635 11.753942
57.640 11.865469
57.645 11.642006
57.650 11.604452
57.655 11.63322
57.660 11.750582
57.665 11.418002
57.670 11.326306
57.675 11.068996
57.680 11.241978
57.685 11.520687
57.690 11.659522
57.695 11.492385
57.700 11.845396
57.705 12.098837
57.710 12.298794
57.715 12.266901
57.720 12.079111
57.725 12.151298
57.730 12.530735
57.735 12.584158
57.740 12.356196
57.745 12.126081
57.750 11.652031
57.755 11.12952
57.760 10.935781
57.765 10.505336
57.770 10.232364
57.775 10.482573
57.780 10.374622
57.785 10.702222
57.790 10.934525
57.795 11.124102
57.800 10.956989
57.805 11.518441
57.810 11.778274
57.815 12.019741
57.820 12.259024
57.825 12.427934
57.830 12.213405
57.835 12.229492
57.840 11.726493
57.845 11.770627
57.850 11.99809
57.855 11.830639
57.860 11.632367
57.865 12.051767
57.870 12.861233
57.875 12.730032
57.880 12.083851
57.885 11.789655
57.890 11.867089
57.895 11.839505
57.900 11.39441
57.905 10.917504
57.910 11.595791
57.915 11.930175
57.920 12.237019
57.925 12.230547
57.930 12.389515
57.935 12.691977
57.940 12.581058
57.945 12.118016
57.950 12.288735
57.955 12.497573
57.960 12.699207
57.965 12.516282
57.970 12.490069
57.975 12.665754
57.980 13.015656
57.985 13.054134
57.990 12.741898
57.995 12.52091
58.000 12.663958
58.005 12.796257
58.010 12.947642
58.015 12.485623
58.020 12.087445
58.025 12.11709
58.030 12.143154
58.035 11.890991
58.040 11.598214
58.045 11.497624
58.050 12.033128
58.055 12.301341
58.060 12.556761
58.065 12.718928
58.070 13.482483
58.075 13.876046
58.080 14.328818
58.085 14.223155
58.090 14.185843
58.095 14.047496
58.100 14.114416
58.105 13.801364
58.110 13.092339
58.115 12.513308
58.120 12.65628
58.125 12.925884
58.130 13.001101
58.135 12.87993
58.140 13.006674
58.145 13.47994
58.150 13.689751
58.155 13.574976
58.160 13.192331
58.165 13.032143
58.170 12.494855
58.175 12.611251
58.180 12.897613
58.185 12.853691
58.190 12.815197
58.195 12.973476
58.200 13.374739
58.205 13.845572
58.210 13.49251
58.215 13.191549
58.220 13.127787
58.225 13.262681
58.230 12.837108
58.235 12.354559
58.240 12.100039
58.245 12.145404
58.250 11.43856
58.255 11.765455
58.260 11.947421
58.265 12.991411
58.270 13.777352
58.275 14.10189
58.280 14.839126
58.285 15.660017
58.290 15.363952
58.295 15.22609
58.300 15.409833
58.305 15.553559
58.310 15.75269
58.315 15.268704
58.320 15.539273
58.325 15.632358
58.330 15.804725
58.335 15.298299
58.340 15.260488
58.345 15.408587
58.350 16.242126
58.355 16.153114
58.360 16.65572
58.365 16.490009
58.370 16.552395
58.375 16.615961
58.380 15.847847
58.385 15.101834
58.390 15.56187
58.395 15.508738
58.400 15.622873
58.405 15.991261
58.410 16.44128
58.415 16.695211
58.420 17.504482
58.425 17.417248
58.430 17.546156
58.435 17.667246
58.440 17.097486
58.445 16.693798
58.450 16.877493
58.455 16.574907
58.460 16.666542
58.465 17.295044
58.470 17.705015
58.475 18.167198
58.480 19.085468
58.485 19.792429
58.490 20.854202
58.495 20.840124
58.500 20.525366
58.505 20.929914
58.510 20.826504
58.515 20.420057
58.520 20.216009
58.525 19.986868
58.530 20.538074
58.535 20.553549
58.540 20.633101
58.545 21.122028
58.550 21.41308
58.555 21.360394
58.560 21.92807
58.565 22.714409
58.570 23.295475
58.575 24.159342
58.580 24.409931
58.585 25.050936
58.590 25.958065
58.595 26.904932
58.600 26.747545
58.605 27.21841
58.610 27.218203
58.615 28.062899
58.620 28.456345
