!@!!GADDS PLOTSO FILE: Chi integration type
!@!!Title/SampleName: map-c1
!@!!Comment: ?
!@!!User: Bruker Instrument Administrator
!@!!Site: University of Illinois Chicago
!@!!Frame: map-c1_01_000.gfrm
!@!!Wavelengths    1.54184   1.54056   1.54439
!@!!Frame angles: 2Theta: 63.000 Omega: 50.000 Phi: 0.000 Chi: 90.000
!@!!Integration range: 2Theta: 53.000 to 73.000  Gamma: -105.000 to -75.000
!@!!Integration method: bin normalized
!@!N
!@!SS
!@!M
!@!L 0.0 0.0 0.0 0.0
!@!XDegrees
!@!YCounts
53.000 6.219635
53.005 5.926714
53.010 5.877837
53.015 6.178949
53.020 6.213424
53.025 5.895585
53.030 5.739286
53.035 5.769039
53.040 5.91275
53.045 6.078857
53.050 5.945841
53.055 5.849514
53.060 6.042562
53.065 6.17088
53.070 5.994105
53.075 6.102254
53.080 6.071659
53.085 6.120698
53.090 6.079076
53.095 6.219023
53.100 6.614577
53.105 7.019912
53.110 6.976743
53.115 6.776346
53.120 6.932365
53.125 6.83313
53.130 6.920765
53.135 6.66266
53.140 6.522961
53.145 6.535305
53.150 6.853471
53.155 6.675359
53.160 6.718677
53.165 6.341163
53.170 6.055126
53.175 5.902755
53.180 5.428938
53.185 5.313132
53.190 5.624389
53.195 6.016273
53.200 6.293237
53.205 6.541518
53.210 6.618472
53.215 6.516951
53.220 6.477901
53.225 6.70899
53.230 6.394882
53.235 6.419931
53.240 6.464582
53.245 6.854091
53.250 7.041878
53.255 7.013438
53.260 6.732614
53.265 6.484552
53.270 6.376535
53.275 6.456092
53.280 6.630446
53.285 6.838241
53.290 6.396297
53.295 6.493965
53.300 6.737803
53.305 6.544842
53.310 6.327403
53.315 6.240272
53.320 6.264913
53.325 6.157492
53.330 5.821002
53.335 5.806884
53.340 6.136231
53.345 5.589776
53.350 5.552749
53.355 5.609076
53.360 5.91979
53.365 6.317577
53.370 6.294442
53.375 6.257974
53.380 6.688156
53.385 6.6988
53.390 6.761937
53.395 7.038898
53.400 6.893193
53.405 6.944793
53.410 6.962365
53.415 6.843097
53.420 7.056229
53.425 6.968033
53.430 7.057229
53.435 7.401293
53.440 7.467211
53.445 7.61224
53.450 7.536944
53.455 7.242787
53.460 6.94558
53.465 6.763464
53.470 6.661556
53.475 6.677854
53.480 6.309212
53.485 6.140475
53.490 5.988926
53.495 6.034114
53.500 5.804085
53.505 5.716302
53.510 5.898874
53.515 6.006734
53.520 6.183852
53.525 6.409938
53.530 6.348272
53.535 6.350295
53.540 6.071392
53.545 5.823615
53.550 5.541363
53.555 5.376641
53.560 5.205668
53.565 5.20936
53.570 5.146413
53.575 5.190872
53.580 5.359328
53.585 5.844736
53.590 6.020484
53.595 6.412319
53.600 6.322081
53.605 6.659151
53.610 7.049396
53.615 7.305719
53.620 7.264231
53.625 7.346064
53.630 7.570707
53.635 7.913709
53.640 7.767864
53.645 7.807951
53.650 7.944602
53.655 7.939264
53.660 7.81243
53.665 8.126411
53.670 8.3186
53.675 8.01417
53.680 7.657902
53.685 7.910758
53.690 8.107048
53.695 7.911414
53.700 7.749998
53.705 7.761549
53.710 7.980139
53.715 7.936824
53.720 7.37591
53.725 7.133272
53.730 6.847221
53.735 6.3934
53.740 6.576953
53.745 6.856316
53.750 6.666028
53.755 6.775139
53.760 6.904192
53.765 7.113472
53.770 7.000962
53.775 6.699198
53.780 6.831854
53.785 6.989268
53.790 6.977468
53.795 6.992344
53.800 7.119298
53.805 7.081462
53.810 6.763177
53.815 6.691072
53.820 6.875295
53.825 7.35082
53.830 7.307152
53.835 7.099663
53.840 7.365401
53.845 7.427494
53.850 7.600556
53.855 7.595841
53.860 7.518926
53.865 7.583679
53.870 7.828379
53.875 8.049847
53.880 7.988695
53.885 7.442316
53.890 7.481741
53.895 7.650326
53.900 7.399904
53.905 7.226307
53.910 6.900371
53.915 7.060021
53.920 7.382233
53.925 7.244387
53.930 6.899008
53.935 6.724005
53.940 6.664732
53.945 6.947535
53.950 6.987387
53.955 6.7215
53.960 6.674304
53.965 7.247432
53.970 7.47666
53.975 7.440029
53.980 7.426887
53.985 7.365644
53.990 7.3752
53.995 7.120514
54.000 7.19008
54.005 7.61573
54.010 7.920881
54.015 7.952813
54.020 8.01443
54.025 7.856908
54.030 8.077045
54.035 7.692215
54.040 7.366411
54.045 7.140296
54.050 6.949521
54.055 7.271716
54.060 7.833974
54.065 7.910697
54.070 8.183581
54.075 8.178683
54.080 8.188087
54.085 8.131945
54.090 7.979091
54.095 7.18862
54.100 6.798512
54.105 6.576458
54.110 6.943638
54.115 7.070179
54.120 6.960014
54.125 7.29525
54.130 7.818657
54.135 8.24228
54.140 8.020079
54.145 7.916815
54.150 7.852526
54.155 8.095779
54.160 7.94875
54.165 7.73772
54.170 7.559916
54.175 7.62584
54.180 7.682664
54.185 7.382741
54.190 7.276996
54.195 7.296212
54.200 7.110784
54.205 7.449106
54.210 7.439295
54.215 7.896029
54.220 7.887733
54.225 7.89248
54.230 8.096643
54.235 8.495879
54.240 8.456616
54.245 8.133415
54.250 7.916486
54.255 8.105125
54.260 7.955406
54.265 8.662079
54.270 8.576575
54.275 8.915302
54.280 9.15941
54.285 9.695424
54.290 9.999476
54.295 9.611883
54.300 8.775389
54.305 8.502745
54.310 8.338913
54.315 8.490138
54.320 8.21646
54.325 8.381548
54.330 8.686108
54.335 8.611813
54.340 8.782277
54.345 8.71532
54.350 8.796771
54.355 8.588638
54.360 8.302805
54.365 8.282031
54.370 8.521837
54.375 8.678795
54.380 8.726577
54.385 8.44194
54.390 8.460966
54.395 8.589541
54.400 8.744156
54.405 8.649487
54.410 8.675426
54.415 8.564137
54.420 8.715488
54.425 8.701793
54.430 8.559003
54.435 8.439981
54.440 8.501325
54.445 8.364984
54.450 8.359988
54.455 8.188676
54.460 8.559462
54.465 8.933418
54.470 8.436854
54.475 8.176654
54.480 7.860457
54.485 7.701068
54.490 7.199884
54.495 6.571461
54.500 6.670736
54.505 6.812438
54.510 6.941775
54.515 6.785304
54.520 6.707556
54.525 7.171782
54.530 7.329348
54.535 7.601255
54.540 7.947652
54.545 7.897357
54.550 8.578603
54.555 9.135502
54.560 9.341986
54.565 9.415214
54.570 9.668179
54.575 9.835177
54.580 10.041262
54.585 9.746009
54.590 9.388317
54.595 9.250206
54.600 9.008004
54.605 8.588993
54.610 8.828142
54.615 9.047106
54.620 8.858385
54.625 8.968942
54.630 8.909886
54.635 8.817799
54.640 8.781344
54.645 8.288313
54.650 8.277328
54.655 8.167783
54.660 8.023982
54.665 8.240122
54.670 8.016223
54.675 8.020415
54.680 8.576308
54.685 8.325453
54.690 8.51919
54.695 8.611723
54.700 8.636456
54.705 8.765643
54.710 8.284619
54.715 8.102687
54.720 8.411165
54.725 8.487307
54.730 8.564674
54.735 8.32303
54.740 8.168022
54.745 8.007936
54.750 7.99856
54.755 8.223878
54.760 8.391873
54.765 8.703382
54.770 8.765624
54.775 8.996631
54.780 9.019325
54.785 8.776388
54.790 8.569388
54.795 8.144709
54.800 7.743461
54.805 8.241444
54.810 8.781281
54.815 9.090967
54.820 9.135277
54.825 9.278819
54.830 9.548184
54.835 9.753278
54.840 9.143395
54.845 8.343266
54.850 8.286838
54.855 8.419263
54.860 8.445601
54.865 8.265803
54.870 7.980927
54.875 7.960915
54.880 8.554243
54.885 8.554169
54.890 8.232931
54.895 7.967232
54.900 8.007489
54.905 8.226405
54.910 8.514598
54.915 8.348942
54.920 8.333534
54.925 8.624704
54.930 8.825535
54.935 8.525274
54.940 8.64872
54.945 8.738768
54.950 8.464888
54.955 8.438987
54.960 8.070159
54.965 8.340306
54.970 8.689358
54.975 8.488509
54.980 8.489014
54.985 8.808153
54.990 8.904293
54.995 9.296813
55.000 9.039372
55.005 8.830416
55.010 9.41655
55.015 9.070597
55.020 8.795989
55.025 8.335125
55.030 7.893651
55.035 8.380802
55.040 8.628861
55.045 8.520927
55.050 8.268134
55.055 8.675441
55.060 8.99528
55.065 8.947283
55.070 8.69974
55.075 8.683807
55.080 8.751385
55.085 8.77598
55.090 8.392929
55.095 8.440492
55.100 8.643359
55.105 8.343672
55.110 7.994963
55.115 7.802004
55.120 8.202182
55.125 8.324526
55.130 8.44113
55.135 8.666208
55.140 8.956315
55.145 9.167071
55.150 9.392482
55.155 9.215284
55.160 9.267922
55.165 9.318105
55.170 9.13613
55.175 8.915243
55.180 8.996675
55.185 8.843536
55.190 9.089347
55.195 9.200664
55.200 8.867288
55.205 9.182325
55.210 9.223934
55.215 9.279237
55.220 8.892316
55.225 8.619444
55.230 8.458222
55.235 8.454334
55.240 8.333788
55.245 8.177804
55.250 7.955336
55.255 7.899315
55.260 7.966626
55.265 7.98484
55.270 8.276417
55.275 8.12824
55.280 8.1574
55.285 8.609938
55.290 9.143431
55.295 9.367841
55.300 9.339271
55.305 9.325049
55.310 9.431449
55.315 9.285106
55.320 9.221823
55.325 9.563746
55.330 9.615389
55.335 9.644746
55.340 9.706052
55.345 10.021554
55.350 9.807799
55.355 9.257579
55.360 8.837173
55.365 8.627655
55.370 8.744566
55.375 8.748553
55.380 8.703977
55.385 9.28482
55.390 9.305748
55.395 9.373611
55.400 8.982368
55.405 8.755616
55.410 8.543504
55.415 8.227904
55.420 7.954144
55.425 7.876549
55.430 7.96447
55.435 8.062384
55.440 7.96097
55.445 8.652836
55.450 9.067714
55.455 9.143866
55.460 9.589856
55.465 9.788776
55.470 9.853333
55.475 9.859528
55.480 9.399589
55.485 9.085331
55.490 9.324626
55.495 9.379579
55.500 9.557384
55.505 9.97722
55.510 9.715946
55.515 9.791506
55.520 9.828236
55.525 9.695458
55.530 9.40519
55.535 9.50405
55.540 9.375665
55.545 9.647036
55.550 9.989619
55.555 10.330141
55.560 10.407642
55.565 9.997612
55.570 9.965981
55.575 10.192995
55.580 9.904013
55.585 9.562682
55.590 9.192033
55.595 9.470422
55.600 9.639515
55.605 9.350653
55.610 9.096299
55.615 9.410159
55.620 9.976
55.625 10.301711
55.630 10.41305
55.635 10.737504
55.640 10.390801
55.645 10.1843
55.650 9.688697
55.655 9.509707
55.660 9.33625
55.665 8.684335
55.670 7.95469
55.675 8.437346
55.680 8.760118
55.685 8.853091
55.690 8.598173
55.695 8.258914
55.700 8.614068
55.705 9.139605
55.710 8.829851
55.715 9.121309
55.720 8.945579
55.725 9.218189
55.730 9.323359
55.735 8.915741
55.740 8.913493
55.745 9.052548
55.750 8.95683
55.755 8.840854
55.760 8.74189
55.765 8.928493
55.770 9.285026
55.775 9.125933
55.780 9.24817
55.785 9.331898
55.790 9.320879
55.795 9.441665
55.800 9.399656
55.805 9.609484
55.810 9.863626
55.815 9.581464
55.820 9.922896
55.825 10.126351
55.830 9.728906
55.835 9.818871
55.840 9.729884
55.845 9.792593
55.850 9.836633
55.855 9.547799
55.860 9.685535
55.865 9.756757
55.870 9.73409
55.875 10.038415
55.880 10.302453
55.885 10.31453
55.890 10.526223
55.895 10.835308
55.900 10.969552
55.905 10.96139
55.910 10.738772
55.915 10.161065
55.920 10.065559
55.925 9.626236
55.930 9.579307
55.935 9.444323
55.940 9.481135
55.945 9.538173
55.950 9.83379
55.955 9.953153
55.960 9.971505
55.965 9.713506
55.970 9.974681
55.975 9.993166
55.980 10.033232
55.985 10.094194
55.990 10.253222
55.995 10.876664
56.000 10.984486
56.005 10.378997
56.010 10.374913
56.015 10.678623
56.020 10.806591
56.025 10.415756
56.030 9.826564
56.035 9.927398
56.040 10.173463
56.045 9.719427
56.050 9.228583
56.055 9.076269
56.060 8.962244
56.065 9.047053
56.070 8.864875
56.075 8.766818
56.080 9.106091
56.085 8.730785
56.090 8.394972
56.095 8.428257
56.100 8.255829
56.105 8.554653
56.110 9.103106
56.115 9.761545
56.120 9.95965
56.125 10.22361
56.130 10.472393
56.135 10.434316
56.140 10.339012
56.145 9.553468
56.150 9.293732
56.155 9.577472
56.160 9.170115
56.165 8.915663
56.170 8.979295
56.175 9.203959
56.180 9.425583
56.185 9.657248
56.190 9.747327
56.195 10.223599
56.200 10.474669
56.205 10.474874
56.210 10.205936
56.215 9.623389
56.220 9.644633
56.225 9.908112
56.230 9.558986
56.235 9.543206
56.240 9.725061
56.245 10.152616
56.250 10.213441
56.255 9.44913
56.260 9.106588
56.265 9.166913
56.270 9.226656
56.275 9.466759
56.280 9.576366
56.285 9.856207
56.290 10.273365
56.295 10.667046
56.300 10.607544
56.305 10.235861
56.310 9.99626
56.315 9.533813
56.320 9.613123
56.325 9.874978
56.330 9.876797
56.335 10.238693
56.340 10.4447
56.345 10.154237
56.350 10.645691
56.355 10.490682
56.360 10.033145
56.365 9.848834
56.370 9.437049
56.375 9.155758
56.380 9.045163
56.385 8.330427
56.390 8.466724
56.395 8.742661
56.400 9.19087
56.405 9.436385
56.410 9.341772
56.415 9.625524
56.420 10.08335
56.425 10.378724
56.430 10.403223
56.435 10.164625
56.440 10.299566
56.445 10.40518
56.450 10.716959
56.455 10.57173
56.460 9.917081
56.465 9.802873
56.470 9.905427
56.475 10.111502
56.480 10.27804
56.485 10.190557
56.490 10.824799
56.495 10.651704
56.500 10.643645
56.505 10.676323
56.510 11.143427
56.515 11.210751
56.520 11.212053
56.525 11.301658
56.530 11.480888
56.535 11.3943
56.540 11.368894
56.545 11.02756
56.550 11.047859
56.555 11.189739
56.560 11.192733
56.565 11.662971
56.570 11.269966
56.575 10.939193
56.580 11.114111
56.585 11.15281
56.590 10.40373
56.595 10.097348
56.600 9.779625
56.605 10.333668
56.610 10.367512
56.615 10.02274
56.620 10.037808
56.625 10.708509
56.630 10.945994
56.635 10.693226
56.640 10.604849
56.645 10.894473
56.650 10.90703
56.655 10.759257
56.660 10.246018
56.665 10.453095
56.670 10.611114
56.675 10.58084
56.680 10.438264
56.685 10.521168
56.690 10.35695
56.695 10.188807
56.700 10.048583
56.705 10.130039
56.710 9.921287
56.715 9.951702
56.720 10.240849
56.725 10.445041
56.730 10.77055
56.735 11.206312
56.740 11.510302
56.745 11.149078
56.750 11.018321
56.755 10.585499
56.760 10.1799
56.765 9.673428
56.770 9.225871
56.775 9.137076
56.780 9.686605
56.785 10.074902
56.790 10.246086
56.795 10.750961
56.800 11.293482
56.805 11.625424
56.810 11.683051
56.815 11.535284
56.820 11.868537
56.825 12.446112
56.830 12.722812
56.835 12.649594
56.840 12.632232
56.845 12.907532
56.850 12.698271
56.855 12.164657
56.860 12.193917
56.865 11.900196
56.870 12.173599
56.875 11.915265
56.880 11.602747
56.885 11.643846
56.890 11.60759
56.895 11.19915
56.900 10.977783
56.905 10.294744
56.910 9.749732
56.915 9.791613
56.920 10.014939
56.925 10.182534
56.930 10.174506
56.935 10.222749
56.940 10.674708
56.945 11.106086
56.950 10.833304
56.955 10.545045
56.960 10.297482
56.965 9.987669
56.970 9.969878
56.975 10.33567
56.980 10.515489
56.985 10.608051
56.990 10.872666
56.995 11.167524
57.000 11.437075
57.005 11.297868
57.010 10.697627
57.015 10.051008
57.020 9.929642
57.025 9.758931
57.030 9.890687
57.035 9.888526
57.040 10.051433
57.045 10.359422
57.050 11.084859
57.055 11.143005
57.060 11.084634
57.065 11.153918
57.070 10.909007
57.075 10.641444
57.080 10.774247
57.085 11.091507
57.090 11.389308
57.095 11.220171
57.100 10.909871
57.105 10.80812
57.110 11.080963
57.115 10.853822
57.120 10.190733
57.125 9.90444
57.130 9.874388
57.135 9.872806
57.140 10.381613
57.145 10.441262
57.150 10.185498
57.155 9.959021
57.160 9.923841
57.165 9.70382
57.170 9.678913
57.175 9.933976
57.180 9.862611
57.185 10.150104
57.190 10.509784
57.195 10.593756
57.200 11.071444
57.205 11.069906
57.210 10.50336
57.215 10.844544
57.220 11.173681
57.225 11.129495
57.230 11.137542
57.235 10.885883
57.240 11.263533
57.245 11.679818
57.250 11.251997
57.255 10.8567
57.260 10.675691
57.265 10.630217
57.270 10.888134
57.275 11.124797
57.280 10.631121
57.285 10.883688
57.290 10.949567
57.295 11.161695
57.300 11.592722
57.305 11.65589
57.310 11.30667
57.315 11.589385
57.320 11.42357
57.325 11.807066
57.330 11.864016
57.335 11.516227
57.340 10.840888
57.345 10.787749
57.350 10.630872
57.355 10.541196
57.360 10.585266
57.365 10.643708
57.370 10.695058
57.375 11.14676
57.380 11.257672
57.385 11.389891
57.390 11.426593
57.395 11.219261
57.400 11.398385
57.405 11.61416
57.410 11.266445
57.415 11.056581
57.420 10.737952
57.425 10.379773
57.430 10.009858
57.435 9.7985
57.440 9.99966
57.445 10.318415
57.450 10.923075
57.455 11.170451
57.460 11.457662
57.465 11.142742
57.470 10.747492
57.475 10.573433
57.480 10.999306
57.485 10.809471
57.490 10.630086
57.495 10.757359
57.500 11.070801
57.505 11.1181
57.510 10.76665
57.515 10.590008
57.520 10.82199
57.525 11.131991
57.530 11.574775
57.535 11.878113
57.540 12.28681
57.545 12.817793
57.550 12.759636
57.555 13.205727
57.560 13.265704
57.565 13.214348
57.570 13.258451
57.575 13.50525
57.580 13.475586
57.585 13.016831
57.590 12.400212
57.595 11.900104
57.600 11.943488
57.605 11.61028
57.610 11.101011
57.615 11.424915
57.620 12.034451
57.625 12.710925
57.630 12.906314
57.635 13.441268
57.640 13.690465
57.645 13.487384
57.650 13.139252
57.655 13.052206
57.660 13.201772
57.665 13.121921
57.670 12.964211
57.675 13.306186
57.680 13.380092
57.685 13.482657
57.690 13.194335
57.695 12.310876
57.700 12.111213
57.705 11.714415
57.710 11.479878
57.715 11.425097
57.720 11.470305
57.725 11.672506
57.730 12.091147
57.735 12.473495
57.740 12.323474
57.745 11.840067
57.750 11.603364
57.755 11.331077
57.760 10.97785
57.765 10.666061
57.770 10.354677
57.775 10.332891
57.780 10.364856
57.785 10.328262
57.790 10.452987
57.795 10.758331
57.800 11.230087
57.805 12.096058
57.810 12.660604
57.815 13.555142
57.820 13.878783
57.825 13.848812
57.830 14.2543
57.835 14.154387
57.840 13.136576
57.845 12.558418
57.850 12.000866
57.855 11.995646
57.860 12.295527
57.865 11.995669
57.870 12.023656
57.875 12.025246
57.880 12.254107
57.885 12.022385
57.890 11.708695
57.895 11.158174
57.900 11.320076
57.905 11.236698
57.910 11.644859
57.915 12.043351
57.920 12.574676
57.925 12.510536
57.930 12.648571
57.935 12.731091
57.940 13.189305
57.945 13.508953
57.950 13.219361
57.955 13.453816
57.960 13.653603
57.965 13.542532
57.970 13.135924
57.975 12.93986
57.980 13.03974
57.985 13.13304
57.990 12.938344
57.995 13.067214
58.000 13.25886
58.005 13.299658
58.010 13.396733
58.015 13.112614
58.020 12.93043
58.025 13.144163
58.030 13.569565
58.035 13.117476
58.040 13.16997
58.045 12.735003
58.050 12.908967
58.055 13.112479
58.060 13.206144
58.065 13.015996
58.070 13.854552
58.075 14.306515
58.080 14.708166
58.085 14.549132
58.090 14.143351
58.095 13.73105
58.100 13.508302
58.105 13.011621
58.110 12.523355
58.115 12.360125
58.120 12.464977
58.125 12.443039
58.130 12.489677
58.135 12.576514
58.140 12.806789
58.145 13.002186
58.150 12.998796
58.155 12.878587
58.160 13.393285
58.165 13.083012
58.170 13.459133
58.175 13.714656
58.180 13.791733
58.185 13.70553
58.190 13.811196
58.195 13.892142
58.200 14.053142
58.205 13.635434
58.210 13.410592
58.215 13.511479
58.220 13.474432
58.225 13.54561
58.230 13.40164
58.235 13.736814
58.240 13.868951
58.245 13.855873
58.250 14.125976
58.255 14.571476
58.260 14.488709
58.265 14.572097
58.270 14.009029
58.275 13.808672
58.280 13.732012
58.285 13.886888
58.290 13.737926
58.295 13.823631
58.300 13.811963
58.305 14.309198
58.310 14.97809
58.315 15.546057
58.320 15.667197
58.325 15.563232
58.330 15.446423
58.335 16.021549
58.340 16.394438
58.345 16.517965
58.350 16.687363
58.355 16.687624
58.360 17.267731
58.365 17.835077
58.370 17.873865
58.375 17.949013
58.380 17.30246
58.385 16.726662
58.390 16.353888
58.395 16.691513
58.400 16.217464
58.405 15.804018
58.410 15.828368
58.415 15.924822
58.420 16.246246
58.425 16.352137
58.430 16.197592
58.435 16.477251
58.440 16.894293
58.445 16.753723
58.450 16.788824
58.455 16.459684
58.460 16.820322
58.465 16.993176
58.470 17.216032
58.475 17.147409
58.480 17.471121
58.485 18.142281
58.490 19.306849
58.495 19.693939
58.500 20.245235
58.505 21.069038
58.510 21.614344
58.515 22.015675
58.520 22.683792
58.525 23.569212
58.530 24.011446
58.535 24.243877
58.540 24.432674
58.545 24.977861
58.550 25.557468
58.555 25.388742
58.560 25.542124
58.565 26.04302
58.570 26.082865
58.575 25.919096
58.580 25.626883
58.585 25.809753
58.590 26.609396
58.595 26.87318
58.600 27.116703
58.605 27.64539
58.610 28.321066
58.615 29.546335
58.620 29.814524
58.625 29.948095
58.630 30.704758
