!@!!GADDS PLOTSO FILE: Chi integration type
!@!!Title/SampleName: map-e9
!@!!Comment: ?
!@!!User: Bruker Instrument Administrator
!@!!Site: University of Illinois Chicago
!@!!Frame: map-e9_01_000.gfrm
!@!!Wavelengths    1.54184   1.54056   1.54439
!@!!Frame angles: 2Theta: 63.000 Omega: 50.000 Phi: 0.000 Chi: 90.000
!@!!Integration range: 2Theta: 53.000 to 73.000  Gamma: -105.000 to -75.000
!@!!Integration method: bin normalized
!@!N
!@!SS
!@!M
!@!L 0.0 0.0 0.0 0.0
!@!XDegrees
!@!YCounts
53.000 6.925652
53.005 6.712904
53.010 6.06718
53.015 5.799542
53.020 5.659082
53.025 6.083946
53.030 6.379268
53.035 6.609396
53.040 6.595983
53.045 6.94037
53.050 7.064311
53.055 7.022695
53.060 6.837944
53.065 6.692851
53.070 7.029374
53.075 6.875533
53.080 6.390114
53.085 6.085
53.090 6.383112
53.095 6.76742
53.100 6.680246
53.105 6.569343
53.110 6.881846
53.115 7.461037
53.120 7.783876
53.125 6.998446
53.130 7.046305
53.135 7.152284
53.140 7.080996
53.145 7.111118
53.150 6.941814
53.155 6.915031
53.160 7.194628
53.165 6.764068
53.170 7.068367
53.175 7.141489
53.180 6.717443
53.185 6.813118
53.190 7.00238
53.195 6.828491
53.200 7.278228
53.205 6.786728
53.210 6.814703
53.215 7.088807
53.220 7.142662
53.225 7.234642
53.230 7.549109
53.235 7.340695
53.240 7.441349
53.245 7.440587
53.250 7.829321
53.255 7.937442
53.260 7.611665
53.265 7.215206
53.270 7.114471
53.275 7.092839
53.280 6.428005
53.285 5.718804
53.290 5.267189
53.295 5.341994
53.300 5.079752
53.305 5.598798
53.310 6.018436
53.315 6.321895
53.320 6.359556
53.325 6.555034
53.330 6.980725
53.335 7.120308
53.340 6.830582
53.345 6.605863
53.350 6.741739
53.355 6.844928
53.360 6.962045
53.365 6.773824
53.370 6.650815
53.375 6.892627
53.380 7.142854
53.385 7.587543
53.390 7.418555
53.395 6.98848
53.400 7.105637
53.405 7.299531
53.410 7.123183
53.415 6.921353
53.420 6.841898
53.425 7.280321
53.430 7.488126
53.435 7.1931
53.440 6.8426
53.445 6.824484
53.450 6.528274
53.455 6.775702
53.460 6.770029
53.465 6.882289
53.470 7.194497
53.475 6.873263
53.480 6.95277
53.485 6.869831
53.490 6.356945
53.495 6.241531
53.500 6.190394
53.505 6.245686
53.510 6.546464
53.515 6.882663
53.520 6.982066
53.525 6.927976
53.530 7.013248
53.535 7.101567
53.540 7.548582
53.545 7.674256
53.550 7.355799
53.555 7.4344
53.560 7.796401
53.565 8.065917
53.570 7.981493
53.575 7.561222
53.580 7.288984
53.585 7.325906
53.590 7.271208
53.595 6.974707
53.600 6.548052
53.605 6.726275
53.610 7.381055
53.615 7.676984
53.620 8.07247
53.625 7.993597
53.630 7.857841
53.635 7.892416
53.640 7.493571
53.645 7.338499
53.650 7.679261
53.655 7.610664
53.660 7.822026
53.665 7.582752
53.670 7.928177
53.675 7.890886
53.680 7.549729
53.685 7.608253
53.690 7.52733
53.695 7.24716
53.700 7.706918
53.705 7.757771
53.710 7.885289
53.715 7.924588
53.720 7.646917
53.725 7.850083
53.730 7.844116
53.735 7.618959
53.740 7.667565
53.745 7.311615
53.750 7.054241
53.755 7.24188
53.760 7.149834
53.765 7.774253
53.770 7.9863
53.775 7.77949
53.780 8.023753
53.785 8.262575
53.790 8.094361
53.795 8.033617
53.800 7.74563
53.805 7.624642
53.810 7.533742
53.815 7.494907
53.820 7.323444
53.825 7.334356
53.830 7.474388
53.835 7.24191
53.840 7.374284
53.845 7.382006
53.850 7.374151
53.855 7.239544
53.860 7.596028
53.865 7.427433
53.870 7.646514
53.875 7.562155
53.880 7.679233
53.885 7.706174
53.890 7.934431
53.895 7.740649
53.900 7.792869
53.905 7.654306
53.910 7.857923
53.915 7.866667
53.920 7.634758
53.925 7.776765
53.930 8.038573
53.935 8.108583
53.940 8.105047
53.945 8.186392
53.950 8.553177
53.955 8.711961
53.960 8.511502
53.965 8.30242
53.970 8.107408
53.975 8.169456
53.980 8.068334
53.985 7.661007
53.990 7.76339
53.995 8.125578
54.000 8.66263
54.005 8.530733
54.010 8.159896
54.015 8.065193
54.020 8.123914
54.025 8.378834
54.030 7.98736
54.035 8.015226
54.040 8.155183
54.045 8.436717
54.050 9.005752
54.055 8.847713
54.060 8.781556
54.065 8.453571
54.070 8.366076
54.075 8.616068
54.080 8.512679
54.085 8.155173
54.090 8.153091
54.095 7.890243
54.100 7.733335
54.105 7.255511
54.110 6.771031
54.115 6.324194
54.120 6.016904
54.125 6.257453
54.130 6.548981
54.135 7.212719
54.140 7.855998
54.145 7.966745
54.150 8.355789
54.155 8.563536
54.160 8.302427
54.165 8.377337
54.170 8.085046
54.175 7.888763
54.180 8.216565
54.185 8.481099
54.190 8.613181
54.195 8.941592
54.200 8.845908
54.205 8.806447
54.210 8.764232
54.215 8.838855
54.220 8.359263
54.225 7.811302
54.230 7.801191
54.235 8.004311
54.240 8.101903
54.245 8.446596
54.250 8.475044
54.255 8.95783
54.260 9.322903
54.265 8.860695
54.270 8.441705
54.275 8.250386
54.280 8.145056
54.285 8.088393
54.290 8.123957
54.295 8.018827
54.300 8.4118
54.305 8.678506
54.310 8.49745
54.315 8.613872
54.320 8.518655
54.325 8.463231
54.330 8.163775
54.335 8.097711
54.340 8.353664
54.345 8.437326
54.350 8.426483
54.355 8.286767
54.360 8.375793
54.365 8.649203
54.370 8.451749
54.375 8.456137
54.380 8.477594
54.385 8.221672
54.390 8.227217
54.395 8.540251
54.400 8.280974
54.405 8.360371
54.410 8.253778
54.415 8.034187
54.420 7.889699
54.425 7.785136
54.430 7.41116
54.435 7.498389
54.440 7.567331
54.445 7.543043
54.450 7.758284
54.455 7.872342
54.460 8.051343
54.465 7.941187
54.470 7.956069
54.475 8.125549
54.480 8.042983
54.485 8.217325
54.490 8.095936
54.495 8.207581
54.500 8.40565
54.505 8.500218
54.510 8.810196
54.515 9.066686
54.520 9.373614
54.525 9.321083
54.530 8.991974
54.535 9.09413
54.540 8.998045
54.545 8.611742
54.550 8.136648
54.555 8.197786
54.560 8.639776
54.565 8.444838
54.570 8.026761
54.575 7.783764
54.580 8.070087
54.585 8.490876
54.590 8.05584
54.595 7.828968
54.600 8.297542
54.605 8.64862
54.610 8.718934
54.615 8.630406
54.620 8.811752
54.625 8.969805
54.630 8.94296
54.635 8.556757
54.640 8.416546
54.645 8.113084
54.650 7.822078
54.655 7.361811
54.660 7.923182
54.665 8.269591
54.670 8.317935
54.675 8.638421
54.680 8.942397
54.685 8.968785
54.690 8.91387
54.695 8.432529
54.700 8.29143
54.705 8.610881
54.710 8.145378
54.715 7.946991
54.720 7.605652
54.725 7.011086
54.730 7.14586
54.735 7.396433
54.740 7.562225
54.745 7.660258
54.750 7.553784
54.755 7.785959
54.760 8.416419
54.765 8.311937
54.770 8.154532
54.775 8.435113
54.780 8.842762
54.785 9.195377
54.790 9.013421
54.795 8.598802
54.800 8.406751
54.805 8.097402
54.810 7.744924
54.815 7.257555
54.820 7.113879
54.825 7.252701
54.830 7.338734
54.835 7.428287
54.840 7.470226
54.845 7.909802
54.850 8.175801
54.855 7.976224
54.860 7.749307
54.865 7.889165
54.870 8.212822
54.875 8.186241
54.880 8.093605
54.885 8.288647
54.890 8.373496
54.895 8.706758
54.900 8.922044
54.905 8.683716
54.910 8.856351
54.915 8.96865
54.920 9.092136
54.925 9.261856
54.930 8.976469
54.935 8.916821
54.940 8.874389
54.945 8.523724
54.950 8.101333
54.955 8.025441
54.960 7.994581
54.965 8.008691
54.970 7.90777
54.975 7.715454
54.980 7.797696
54.985 8.11682
54.990 7.910822
54.995 7.667908
55.000 7.490442
55.005 7.403156
55.010 7.708278
55.015 7.645342
55.020 7.711494
55.025 7.834287
55.030 8.139039
55.035 8.298989
55.040 8.479959
55.045 8.609058
55.050 8.552089
55.055 8.693998
55.060 8.869914
55.065 8.636701
55.070 8.236368
55.075 8.16587
55.080 8.069468
55.085 8.014299
55.090 7.801569
55.095 8.206462
55.100 8.202282
55.105 8.135724
55.110 8.269822
55.115 8.090784
55.120 7.828213
55.125 7.576005
55.130 7.484179
55.135 7.978622
55.140 7.705401
55.145 7.448318
55.150 7.454675
55.155 7.792318
55.160 8.069661
55.165 8.171995
55.170 8.123797
55.175 8.15792
55.180 8.51368
55.185 8.290254
55.190 8.062633
55.195 7.533617
55.200 7.542668
55.205 7.585958
55.210 7.610797
55.215 7.592009
55.220 7.954808
55.225 8.199461
55.230 8.521456
55.235 8.170553
55.240 8.056525
55.245 8.363057
55.250 8.288933
55.255 8.720084
55.260 8.74895
55.265 8.468242
55.270 8.713213
55.275 8.699006
55.280 8.459605
55.285 8.498193
55.290 8.334328
55.295 8.200845
55.300 7.903747
55.305 8.064911
55.310 8.200775
55.315 8.352796
55.320 8.389569
55.325 8.268457
55.330 8.337708
55.335 8.456257
55.340 8.370519
55.345 8.459784
55.350 8.756076
55.355 8.678937
55.360 8.718673
55.365 8.923139
55.370 9.156746
55.375 9.108777
55.380 8.725739
55.385 8.381412
55.390 8.466918
55.395 9.012153
55.400 8.987299
55.405 9.116691
55.410 9.135172
55.415 9.17447
55.420 9.111022
55.425 9.054273
55.430 8.658561
55.435 8.373273
55.440 8.772011
55.445 9.26158
55.450 9.560657
55.455 9.354597
55.460 9.371394
55.465 9.44988
55.470 9.483412
55.475 9.216374
55.480 9.112966
55.485 9.328019
55.490 9.605812
55.495 9.596443
55.500 9.671277
55.505 9.390689
55.510 8.930005
55.515 8.86071
55.520 8.929745
55.525 9.004734
55.530 8.873603
55.535 9.534235
55.540 10.023951
55.545 10.300302
55.550 10.032495
55.555 9.429551
55.560 9.3977
55.565 9.40841
55.570 8.565526
55.575 8.844181
55.580 8.930418
55.585 9.140819
55.590 9.166224
55.595 9.106625
55.600 9.319489
55.605 9.328471
55.610 8.886094
55.615 8.360486
55.620 8.537801
55.625 8.600361
55.630 7.997375
55.635 7.824577
55.640 7.765806
55.645 7.799759
55.650 7.908614
55.655 7.786591
55.660 7.837234
55.665 8.353395
55.670 8.438218
55.675 8.182871
55.680 7.908686
55.685 7.867484
55.690 7.857426
55.695 7.781665
55.700 7.820273
55.705 7.92403
55.710 8.191339
55.715 8.503269
55.720 8.600231
55.725 9.103299
55.730 9.12206
55.735 8.88899
55.740 9.045289
55.745 9.509776
55.750 9.604368
55.755 9.64711
55.760 9.704026
55.765 10.325557
55.770 10.558464
55.775 10.452076
55.780 10.309271
55.785 9.98558
55.790 9.945022
55.795 9.821774
55.800 9.142314
55.805 9.454979
55.810 9.860626
55.815 10.038022
55.820 10.524384
55.825 10.051375
55.830 10.157434
55.835 10.466098
55.840 10.319584
55.845 9.745735
55.850 9.535395
55.855 9.628691
55.860 9.68434
55.865 9.461575
55.870 9.354927
55.875 9.353339
55.880 9.341091
55.885 9.257141
55.890 8.945503
55.895 8.519913
55.900 8.47434
55.905 8.524473
55.910 8.478019
55.915 9.023996
55.920 9.020113
55.925 9.235695
55.930 9.633315
55.935 9.473083
55.940 9.620081
55.945 10.345541
55.950 10.265413
55.955 10.215372
55.960 10.188072
55.965 10.135891
55.970 10.470135
55.975 10.387922
55.980 9.878314
55.985 9.773044
55.990 10.199873
55.995 10.424892
56.000 10.688287
56.005 10.618887
56.010 10.436707
56.015 10.122299
56.020 10.07903
56.025 9.859933
56.030 9.755492
56.035 9.491756
56.040 9.257012
56.045 9.379981
56.050 9.701054
56.055 9.785214
56.060 9.409462
56.065 9.304357
56.070 9.498957
56.075 9.552732
56.080 9.226974
56.085 8.799439
56.090 8.879404
56.095 9.302588
56.100 9.482395
56.105 9.514687
56.110 9.469824
56.115 9.900171
56.120 9.723157
56.125 9.191652
56.130 8.814529
56.135 8.637038
56.140 8.504235
56.145 8.101604
56.150 8.152262
56.155 8.881699
56.160 9.307331
56.165 9.570488
56.170 10.014109
56.175 10.320423
56.180 10.623384
56.185 10.316178
56.190 10.342014
56.195 10.558941
56.200 10.352478
56.205 10.117998
56.210 10.091686
56.215 9.938677
56.220 10.074887
56.225 9.944401
56.230 9.994657
56.235 10.166107
56.240 10.038632
56.245 10.156341
56.250 10.260776
56.255 10.513766
56.260 9.981608
56.265 10.076792
56.270 10.371756
56.275 10.255893
56.280 10.26952
56.285 10.517649
56.290 10.685448
56.295 10.893935
56.300 10.433102
56.305 10.186896
56.310 10.297692
56.315 9.94196
56.320 9.152798
56.325 8.418846
56.330 8.682684
56.335 8.413615
56.340 8.308751
56.345 8.347553
56.350 8.77035
56.355 9.319323
56.360 9.632689
56.365 9.586919
56.370 9.576632
56.375 9.622167
56.380 9.585736
56.385 9.282427
56.390 9.114808
56.395 9.104136
56.400 9.124001
56.405 9.741814
56.410 10.297275
56.415 10.11015
56.420 9.891425
56.425 9.569247
56.430 9.444463
56.435 9.459525
56.440 9.338201
56.445 8.884875
56.450 9.082075
56.455 9.1737
56.460 9.832783
56.465 9.875087
56.470 9.602771
56.475 9.476155
56.480 9.464832
56.485 9.319458
56.490 9.772549
56.495 10.102001
56.500 10.379724
56.505 10.9259
56.510 11.314942
56.515 11.653183
56.520 12.151532
56.525 11.68588
56.530 11.171535
56.535 10.680465
56.540 10.257867
56.545 9.961802
56.550 9.716784
56.555 9.7381
56.560 9.886418
56.565 10.01152
56.570 10.361526
56.575 10.254347
56.580 10.587841
56.585 10.760424
56.590 10.914128
56.595 11.225726
56.600 11.341365
56.605 11.199238
56.610 11.366157
56.615 11.245596
56.620 11.25879
56.625 10.904964
56.630 10.678947
56.635 10.36553
56.640 10.03493
56.645 9.520197
56.650 9.013609
56.655 8.913912
56.660 8.895326
56.665 8.720684
56.670 8.885439
56.675 9.137481
56.680 9.665335
56.685 9.924897
56.690 10.061791
56.695 9.822575
56.700 10.073333
56.705 10.192454
56.710 10.296021
56.715 10.116667
56.720 9.931841
56.725 9.981006
56.730 10.094724
56.735 10.120353
56.740 10.37232
56.745 10.17104
56.750 10.371785
56.755 10.445044
56.760 10.567713
56.765 10.718877
56.770 10.737085
56.775 10.54683
56.780 10.652433
56.785 10.938626
56.790 11.092091
56.795 11.389697
56.800 11.633788
56.805 11.650296
56.810 11.489867
56.815 11.19121
56.820 10.862641
56.825 10.842577
56.830 10.322452
56.835 10.285783
56.840 10.430103
56.845 10.936002
56.850 11.275761
56.855 11.492232
56.860 11.026185
56.865 10.911088
56.870 10.799072
56.875 10.627365
56.880 10.275868
56.885 9.951277
56.890 9.58525
56.895 9.817719
56.900 9.866821
56.905 9.915396
56.910 9.775702
56.915 9.630076
56.920 9.715074
56.925 9.737248
56.930 9.195734
56.935 9.033908
56.940 8.712105
56.945 8.665862
56.950 8.798889
56.955 9.042075
56.960 9.377323
56.965 9.99716
56.970 10.085019
56.975 10.354112
56.980 10.558546
56.985 10.400046
56.990 10.169794
56.995 10.274927
57.000 9.985607
57.005 10.163217
57.010 10.328563
57.015 10.78733
57.020 10.875226
57.025 11.349807
57.030 11.460834
57.035 11.677547
57.040 11.55035
57.045 11.699601
57.050 11.352213
57.055 11.393507
57.060 11.229699
57.065 10.740657
57.070 10.830123
57.075 10.785235
57.080 10.567381
57.085 10.393215
57.090 10.027945
57.095 9.802662
57.100 9.793289
57.105 9.621341
57.110 9.665681
57.115 9.237535
57.120 9.2473
57.125 9.699298
57.130 10.136786
57.135 10.736122
57.140 10.894321
57.145 10.574171
57.150 10.798155
57.155 11.066516
57.160 10.793686
57.165 10.850969
57.170 10.929558
57.175 11.102436
57.180 11.18578
57.185 10.994024
57.190 11.002954
57.195 11.135598
57.200 11.018729
57.205 10.70094
57.210 11.15427
57.215 11.415583
57.220 11.687249
57.225 11.736644
57.230 11.916688
57.235 11.922845
57.240 11.87653
57.245 11.396386
57.250 10.975554
57.255 10.61943
57.260 9.922938
57.265 9.700215
57.270 9.696379
57.275 9.311378
57.280 9.143477
57.285 9.439597
57.290 9.525575
57.295 9.498054
57.300 9.35819
57.305 9.440497
57.310 9.586229
57.315 10.149554
57.320 10.667089
57.325 10.785031
57.330 11.01648
57.335 11.197246
57.340 10.899766
57.345 10.50867
57.350 10.08342
57.355 9.262115
57.360 9.152078
57.365 9.20887
57.370 9.65729
57.375 10.347124
57.380 11.163062
57.385 11.663936
57.390 12.441668
57.395 12.922488
57.400 13.148499
57.405 13.112455
57.410 13.099166
57.415 12.90281
57.420 12.852391
57.425 12.52429
57.430 12.381573
57.435 11.950396
57.440 11.202196
57.445 10.350736
57.450 10.177383
57.455 10.107578
57.460 10.261592
57.465 10.160209
57.470 10.30722
57.475 10.50951
57.480 10.936148
57.485 10.626284
57.490 10.727758
57.495 10.703839
57.500 10.953843
57.505 10.825729
57.510 10.988246
57.515 10.970409
57.520 10.755898
57.525 10.557502
57.530 10.69728
57.535 10.453254
57.540 10.485808
57.545 10.440042
57.550 10.472416
57.555 11.565093
57.560 12.146382
57.565 12.189916
57.570 12.505621
57.575 12.344839
57.580 12.182678
57.585 12.42679
57.590 11.608098
57.595 11.2645
57.600 11.156517
57.605 11.021468
57.610 10.946582
57.615 10.840012
57.620 10.651647
57.625 10.734707
57.630 10.866793
57.635 10.804579
57.640 11.204796
57.645 11.594028
57.650 11.720664
57.655 11.89141
57.660 12.174314
57.665 11.853296
57.670 12.084619
57.675 11.589244
57.680 11.334911
57.685 11.081233
57.690 11.028881
57.695 10.926934
57.700 11.034448
57.705 10.787306
57.710 10.799213
57.715 10.845849
57.720 11.168917
57.725 11.059065
57.730 11.240417
57.735 11.44093
57.740 11.747849
57.745 11.807973
57.750 12.370137
57.755 12.49
57.760 12.243658
57.765 11.662048
57.770 11.800733
57.775 11.9231
57.780 12.059839
57.785 11.721309
57.790 11.476516
57.795 11.719759
57.800 12.278335
57.805 11.527742
57.810 11.423344
57.815 11.463984
57.820 11.553615
57.825 11.546585
57.830 11.119783
57.835 10.733628
57.840 10.732819
57.845 10.503216
57.850 9.956132
57.855 10.267359
57.860 10.641953
57.865 10.996839
57.870 10.87152
57.875 11.271878
57.880 11.625267
57.885 12.049902
57.890 11.753871
57.895 11.575245
57.900 11.691923
57.905 11.984296
57.910 12.319532
57.915 12.837383
57.920 12.822104
57.925 12.721314
57.930 12.464782
57.935 12.549966
57.940 12.589431
57.945 11.964369
57.950 11.306607
57.955 11.368993
57.960 12.047983
57.965 12.374572
57.970 12.284114
57.975 12.272847
57.980 12.211619
57.985 12.779466
57.990 12.740042
57.995 12.230927
58.000 12.173113
58.005 12.376916
58.010 12.355638
58.015 12.345159
58.020 11.69038
58.025 11.574251
58.030 11.694304
58.035 11.875527
58.040 11.476656
58.045 11.929088
58.050 12.559743
58.055 12.980382
58.060 13.129956
58.065 13.444318
58.070 13.864726
58.075 14.091981
58.080 13.788713
58.085 13.140135
58.090 12.570362
58.095 12.213986
58.100 11.644444
58.105 11.356043
58.110 11.627306
58.115 11.913431
58.120 12.274158
58.125 12.816393
58.130 13.516593
58.135 13.374704
58.140 13.962241
58.145 14.273836
58.150 13.617189
58.155 13.758115
58.160 13.239636
58.165 13.015616
58.170 13.528524
58.175 12.820677
58.180 12.785711
58.185 13.178061
58.190 12.980556
58.195 13.365327
58.200 13.397754
58.205 13.543371
58.210 14.001307
58.215 13.698302
58.220 13.660328
58.225 13.867705
58.230 13.656148
58.235 13.343926
58.240 13.005079
58.245 12.721569
58.250 12.873737
58.255 13.111412
58.260 13.09506
58.265 13.406428
58.270 13.912529
58.275 14.282398
58.280 13.88567
58.285 14.13581
58.290 14.081674
58.295 14.57906
58.300 15.03247
58.305 15.142811
58.310 15.636349
58.315 16.260117
58.320 16.233826
58.325 16.275747
58.330 16.005812
58.335 15.921538
58.340 15.845294
58.345 15.359145
58.350 15.601388
58.355 16.140594
58.360 16.223701
58.365 16.109348
58.370 16.353451
58.375 16.784269
58.380 17.194939
58.385 17.554155
58.390 18.208012
58.395 18.491512
58.400 18.781088
58.405 18.247431
58.410 17.804638
58.415 17.905228
58.420 17.558582
58.425 17.445555
58.430 18.023193
58.435 18.188772
58.440 19.250099
58.445 19.370457
58.450 19.863464
58.455 20.0693
58.460 20.073118
58.465 20.189577
58.470 21.335274
58.475 21.143394
58.480 21.960667
58.485 22.114981
58.490 22.808899
58.495 23.850302
58.500 23.95714
58.505 23.658869
58.510 24.143393
58.515 24.095392
58.520 24.498663
58.525 24.505659
58.530 24.162735
58.535 23.977644
58.540 24.131063
58.545 24.187124
58.550 23.849236
58.555 23.955843
58.560 24.23562
58.565 24.682043
58.570 25.228174
58.575 25.166235
58.580 25.864473
58.585 26.679533
58.590 26.458982
58.595 26.481911
58.600 26.562597
58.605 26.972258
58.610 27.371574
58.615 27.156773
58.620 27.611763
58.625 28.076538
58.630 28.578575
58.635 28.546318
