!@!!GADDS PLOTSO FILE: Chi integration type
!@!!Title/SampleName: map-b7
!@!!Comment: ?
!@!!User: Bruker Instrument Administrator
!@!!Site: University of Illinois Chicago
!@!!Frame: map-b7_01_000.gfrm
!@!!Wavelengths    1.54184   1.54056   1.54439
!@!!Frame angles: 2Theta: 63.000 Omega: 50.000 Phi: 0.000 Chi: 90.000
!@!!Integration range: 2Theta: 53.000 to 73.000  Gamma: -105.000 to -75.000
!@!!Integration method: bin normalized
!@!N
!@!SS
!@!M
!@!L 0.0 0.0 0.0 0.0
!@!XDegrees
!@!YCounts
53.000 8.756872
53.005 8.524137
53.010 8.147945
53.015 7.787308
53.020 7.324547
53.025 7.137487
53.030 7.157455
53.035 7.427193
53.040 7.900145
53.045 7.874089
53.050 8.004046
53.055 7.694548
53.060 7.738355
53.065 7.775892
53.070 7.388458
53.075 7.118253
53.080 7.712714
53.085 7.964927
53.090 8.225657
53.095 8.589702
53.100 9.141737
53.105 9.42198
53.110 9.241838
53.115 8.7173
53.120 8.402245
53.125 8.290069
53.130 8.129618
53.135 7.602611
53.140 7.421764
53.145 7.739439
53.150 7.935073
53.155 7.837301
53.160 7.82355
53.165 8.347801
53.170 8.712928
53.175 8.5981
53.180 8.327723
53.185 8.637797
53.190 8.945292
53.195 8.885402
53.200 8.512489
53.205 8.795288
53.210 9.244323
53.215 9.274409
53.220 9.048116
53.225 8.757164
53.230 8.771516
53.235 9.13045
53.240 8.791264
53.245 8.683099
53.250 8.567886
53.255 8.788604
53.260 8.629476
53.265 8.392418
53.270 8.302052
53.275 8.474399
53.280 8.391021
53.285 8.509568
53.290 9.087503
53.295 9.505591
53.300 9.036095
53.305 8.839389
53.310 8.608226
53.315 8.605061
53.320 8.436399
53.325 8.06385
53.330 8.133654
53.335 8.197059
53.340 8.261555
53.345 8.323454
53.350 8.427892
53.355 8.495078
53.360 8.496304
53.365 8.312431
53.370 8.201522
53.375 8.097429
53.380 8.129634
53.385 8.029479
53.390 7.841817
53.395 7.67249
53.400 7.682559
53.405 7.694094
53.410 7.940642
53.415 8.148411
53.420 7.969622
53.425 8.170323
53.430 8.202965
53.435 8.728964
53.440 8.52733
53.445 8.447363
53.450 8.221231
53.455 8.512672
53.460 8.542713
53.465 8.365406
53.470 8.268796
53.475 8.273565
53.480 8.131263
53.485 7.956256
53.490 7.60607
53.495 7.634945
53.500 7.789388
53.505 7.860426
53.510 8.022196
53.515 8.394831
53.520 8.892459
53.525 9.040371
53.530 9.393751
53.535 9.839386
53.540 10.177493
53.545 10.266223
53.550 10.115595
53.555 10.485586
53.560 10.419602
53.565 9.829551
53.570 9.687095
53.575 9.551029
53.580 9.132058
53.585 9.00306
53.590 8.737547
53.595 8.756606
53.600 9.050817
53.605 8.906675
53.610 9.06073
53.615 9.072958
53.620 9.060172
53.625 8.957091
53.630 8.936119
53.635 8.70331
53.640 8.179002
53.645 8.289162
53.650 7.926982
53.655 7.678905
53.660 7.889769
53.665 8.164928
53.670 8.163651
53.675 8.443126
53.680 8.647202
53.685 9.073484
53.690 8.861564
53.695 8.729123
53.700 9.070875
53.705 9.087131
53.710 8.974622
53.715 8.804411
53.720 8.812671
53.725 8.974486
53.730 8.917948
53.735 8.655094
53.740 8.792043
53.745 8.725568
53.750 8.90661
53.755 9.052457
53.760 9.268012
53.765 8.930611
53.770 8.486582
53.775 8.311631
53.780 8.359413
53.785 8.784287
53.790 9.019865
53.795 8.781493
53.800 9.268983
53.805 9.471513
53.810 9.421095
53.815 9.198112
53.820 8.920043
53.825 9.268311
53.830 9.457627
53.835 9.260068
53.840 9.944834
53.845 10.599937
53.850 10.188011
53.855 10.000477
53.860 9.661098
53.865 9.543079
53.870 9.429863
53.875 9.051414
53.880 9.249496
53.885 9.596341
53.890 9.130773
53.895 8.965231
53.900 9.069089
53.905 9.28032
53.910 8.674273
53.915 8.399218
53.920 8.34831
53.925 8.627748
53.930 8.798024
53.935 8.631445
53.940 8.802854
53.945 8.793875
53.950 8.624792
53.955 8.867687
53.960 8.777961
53.965 8.512618
53.970 8.119663
53.975 7.813131
53.980 7.629169
53.985 7.382762
53.990 7.091691
53.995 7.23839
54.000 7.876728
54.005 8.055593
54.010 8.449947
54.015 9.050232
54.020 9.228593
54.025 9.220949
54.030 9.121016
54.035 9.368484
54.040 9.690744
54.045 9.583413
54.050 9.625516
54.055 9.937684
54.060 10.116913
54.065 9.602637
54.070 9.188653
54.075 9.000182
54.080 8.841737
54.085 8.734715
54.090 8.547548
54.095 8.572907
54.100 8.817666
54.105 8.945024
54.110 8.991523
54.115 8.795583
54.120 8.590401
54.125 8.621124
54.130 8.682825
54.135 8.785372
54.140 8.650563
54.145 8.70085
54.150 8.748038
54.155 8.857071
54.160 9.409742
54.165 9.944506
54.170 10.452743
54.175 10.507065
54.180 10.664763
54.185 10.729124
54.190 10.438265
54.195 10.234729
54.200 9.867756
54.205 9.54714
54.210 9.690786
54.215 9.877326
54.220 10.31399
54.225 10.691503
54.230 10.730951
54.235 11.061613
54.240 11.42788
54.245 11.348617
54.250 11.445315
54.255 10.91791
54.260 10.493825
54.265 9.985321
54.270 9.674452
54.275 9.327818
54.280 9.250146
54.285 8.842799
54.290 9.112297
54.295 9.68092
54.300 10.077524
54.305 9.93705
54.310 10.020406
54.315 9.868441
54.320 10.164839
54.325 10.50654
54.330 10.259013
54.335 9.730847
54.340 10.245859
54.345 10.338054
54.350 10.49088
54.355 10.699945
54.360 10.52234
54.365 10.800061
54.370 11.159547
54.375 11.388082
54.380 11.497351
54.385 11.659039
54.390 10.994606
54.395 10.816698
54.400 10.659542
54.405 10.024002
54.410 9.430778
54.415 9.513738
54.420 9.724077
54.425 10.473661
54.430 10.41236
54.435 9.981945
54.440 10.220922
54.445 10.493511
54.450 10.565909
54.455 10.149544
54.460 9.381212
54.465 9.08877
54.470 9.366131
54.475 9.429238
54.480 9.407597
54.485 9.273889
54.490 9.74507
54.495 10.120062
54.500 10.35963
54.505 9.982916
54.510 9.644935
54.515 9.455861
54.520 9.104644
54.525 8.596296
54.530 8.651891
54.535 8.779448
54.540 9.006995
54.545 9.133107
54.550 9.229359
54.555 9.407822
54.560 9.622579
54.565 9.467158
54.570 9.899408
54.575 10.20696
54.580 10.495558
54.585 10.544574
54.590 10.623129
54.595 10.647284
54.600 10.75295
54.605 10.037045
54.610 10.066517
54.615 10.074426
54.620 10.303243
54.625 10.240783
54.630 10.152141
54.635 9.872466
54.640 10.028897
54.645 9.91402
54.650 9.320999
54.655 9.212511
54.660 9.673844
54.665 9.529343
54.670 9.840068
54.675 9.964218
54.680 10.130556
54.685 10.457834
54.690 10.389036
54.695 10.163415
54.700 10.483716
54.705 10.506912
54.710 10.292534
54.715 9.973121
54.720 9.735164
54.725 9.633005
54.730 9.350162
54.735 9.027328
54.740 9.220831
54.745 9.169687
54.750 9.411079
54.755 9.598287
54.760 9.662515
54.765 9.736028
54.770 9.648477
54.775 9.620467
54.780 9.719748
54.785 9.816916
54.790 9.880922
54.795 9.969225
54.800 10.723892
54.805 11.402078
54.810 11.405972
54.815 11.657729
54.820 11.55266
54.825 11.585954
54.830 11.526737
54.835 11.067076
54.840 10.748675
54.845 10.655258
54.850 10.462605
54.855 10.51406
54.860 10.544065
54.865 10.415517
54.870 10.068122
54.875 10.144312
54.880 10.46352
54.885 10.196457
54.890 9.861115
54.895 9.790495
54.900 9.959619
54.905 10.130747
54.910 9.893563
54.915 9.597277
54.920 9.961853
54.925 10.268599
54.930 10.283412
54.935 10.142503
54.940 10.470478
54.945 10.862628
54.950 11.265815
54.955 10.983473
54.960 10.924134
54.965 11.258893
54.970 10.918376
54.975 10.238959
54.980 10.033556
54.985 9.74883
54.990 9.621509
54.995 9.438662
55.000 9.240004
55.005 9.538863
55.010 9.696331
55.015 9.379543
55.020 9.978006
55.025 10.115806
55.030 10.260077
55.035 10.071572
55.040 10.141556
55.045 10.173832
55.050 10.366803
55.055 10.68154
55.060 10.961988
55.065 10.698557
55.070 10.60257
55.075 10.408569
55.080 10.251752
55.085 9.808922
55.090 8.948966
55.095 8.689262
55.100 9.060733
55.105 9.751357
55.110 10.063695
55.115 10.405519
55.120 10.750881
55.125 11.255723
55.130 11.589543
55.135 11.638859
55.140 11.539102
55.145 11.530602
55.150 11.156212
55.155 10.747166
55.160 10.42752
55.165 10.204538
55.170 9.517473
55.175 9.445755
55.180 9.458897
55.185 9.399433
55.190 9.784576
55.195 9.794543
55.200 9.96441
55.205 10.425064
55.210 10.638597
55.215 11.355977
55.220 11.714261
55.225 11.770933
55.230 11.539639
55.235 11.264715
55.240 11.136754
55.245 10.961622
55.250 10.884764
55.255 11.123275
55.260 10.922066
55.265 10.890117
55.270 10.702714
55.275 10.382826
55.280 9.656952
55.285 8.890324
55.290 8.497838
55.295 8.361836
55.300 8.496489
55.305 8.647182
55.310 8.938084
55.315 9.549343
55.320 10.386605
55.325 10.666587
55.330 10.843817
55.335 11.449961
55.340 11.758174
55.345 11.370346
55.350 10.719608
55.355 10.38919
55.360 10.722052
55.365 10.668526
55.370 10.276443
55.375 10.366651
55.380 10.758083
55.385 10.792147
55.390 10.573792
55.395 10.320748
55.400 10.549505
55.405 10.587228
55.410 10.422466
55.415 10.351324
55.420 10.273524
55.425 10.037617
55.430 10.059291
55.435 10.011421
55.440 10.167495
55.445 10.081229
55.450 10.410936
55.455 10.783059
55.460 11.312168
55.465 11.145748
55.470 10.681888
55.475 10.832042
55.480 10.88356
55.485 10.443665
55.490 10.161918
55.495 10.301389
55.500 10.907679
55.505 11.30769
55.510 10.84877
55.515 10.871374
55.520 11.103639
55.525 10.851527
55.530 10.361758
55.535 10.289687
55.540 10.496055
55.545 11.212364
55.550 11.537572
55.555 11.880197
55.560 12.375296
55.565 12.483297
55.570 12.124394
55.575 11.508984
55.580 11.18708
55.585 10.588017
55.590 9.855391
55.595 9.522711
55.600 8.853387
55.605 8.91115
55.610 8.760128
55.615 8.754371
55.620 9.277178
55.625 9.61797
55.630 9.768554
55.635 10.135838
55.640 10.500356
55.645 11.021351
55.650 10.854353
55.655 10.966898
55.660 11.040558
55.665 11.023986
55.670 11.122366
55.675 11.042103
55.680 10.544091
55.685 10.710617
55.690 10.608698
55.695 11.026566
55.700 11.430234
55.705 11.347886
55.710 11.200191
55.715 11.566518
55.720 11.184156
55.725 10.791127
55.730 10.341767
55.735 10.848276
55.740 10.845183
55.745 10.991243
55.750 10.70219
55.755 10.727946
55.760 11.348574
55.765 11.299316
55.770 10.74829
55.775 11.037493
55.780 11.068037
55.785 11.311783
55.790 11.257444
55.795 10.450038
55.800 10.714455
55.805 10.497139
55.810 10.230237
55.815 10.50185
55.820 10.434331
55.825 10.669453
55.830 11.34321
55.835 11.459962
55.840 12.474024
55.845 12.506485
55.850 12.238744
55.855 12.37747
55.860 12.485651
55.865 11.971798
55.870 11.386112
55.875 10.635186
55.880 10.497785
55.885 10.710788
55.890 10.655854
55.895 10.573582
55.900 10.716374
55.905 10.889217
55.910 11.077229
55.915 11.113205
55.920 10.897795
55.925 10.614172
55.930 10.91343
55.935 11.391151
55.940 11.715686
55.945 12.098343
55.950 12.896272
55.955 13.260607
55.960 13.229786
55.965 12.889978
55.970 12.487256
55.975 12.653304
55.980 11.803252
55.985 10.948191
55.990 10.935842
55.995 11.252852
56.000 11.28583
56.005 11.075466
56.010 10.263143
56.015 10.44114
56.020 10.911992
56.025 10.866698
56.030 10.592392
56.035 10.381323
56.040 10.332468
56.045 10.535975
56.050 10.072463
56.055 9.372585
56.060 9.270902
56.065 9.49718
56.070 9.641994
56.075 9.656658
56.080 9.862717
56.085 10.376343
56.090 10.857264
56.095 10.83702
56.100 10.94095
56.105 11.454868
56.110 11.422076
56.115 11.41555
56.120 11.284678
56.125 10.92648
56.130 10.983223
56.135 10.844368
56.140 10.561319
56.145 10.59323
56.150 11.200603
56.155 11.113719
56.160 11.24241
56.165 11.243268
56.170 11.112952
56.175 11.173321
56.180 10.740486
56.185 10.084977
56.190 10.305922
56.195 10.840945
56.200 11.382083
56.205 11.701005
56.210 11.882323
56.215 12.436181
56.220 13.003772
56.225 13.024735
56.230 12.97916
56.235 12.957773
56.240 12.796852
56.245 12.825629
56.250 12.522875
56.255 12.193865
56.260 12.089694
56.265 11.989429
56.270 11.591433
56.275 11.217426
56.280 11.346152
56.285 11.580962
56.290 11.566988
56.295 11.360743
56.300 10.937028
56.305 11.284683
56.310 11.944115
56.315 12.410036
56.320 12.489531
56.325 12.895829
56.330 13.322015
56.335 13.204676
56.340 12.964185
56.345 12.537642
56.350 12.320413
56.355 12.495492
56.360 12.510445
56.365 12.859744
56.370 13.188755
56.375 13.017418
56.380 12.942431
56.385 12.722581
56.390 12.535233
56.395 12.373247
56.400 12.297123
56.405 12.699022
56.410 12.788105
56.415 12.630197
56.420 12.27294
56.425 11.576914
56.430 10.949203
56.435 10.258707
56.440 9.957226
56.445 10.142035
56.450 10.260024
56.455 10.082305
56.460 10.517658
56.465 11.191679
56.470 11.626062
56.475 11.350403
56.480 11.120338
56.485 10.923725
56.490 11.602283
56.495 12.11833
56.500 11.636597
56.505 11.161692
56.510 11.626667
56.515 12.010415
56.520 12.303827
56.525 11.814669
56.530 11.177946
56.535 11.37075
56.540 11.557343
56.545 11.158628
56.550 11.157029
56.555 11.20981
56.560 11.890325
56.565 12.768154
56.570 13.456377
56.575 13.435472
56.580 13.400448
56.585 13.516135
56.590 13.29146
56.595 12.832446
56.600 12.293012
56.605 11.914677
56.610 12.205119
56.615 12.670082
56.620 12.72908
56.625 12.686949
56.630 12.672089
56.635 12.494834
56.640 12.334632
56.645 12.081513
56.650 11.57855
56.655 11.194956
56.660 11.677559
56.665 11.832787
56.670 12.226892
56.675 12.162453
56.680 12.205366
56.685 12.422566
56.690 12.990531
56.695 12.879963
56.700 12.907509
56.705 12.849474
56.710 12.769814
56.715 12.797747
56.720 12.922155
56.725 12.54326
56.730 11.992077
56.735 12.051342
56.740 12.160931
56.745 12.09462
56.750 12.264643
56.755 12.032779
56.760 12.206441
56.765 12.639162
56.770 12.777056
56.775 12.973
56.780 13.01624
56.785 13.020689
56.790 12.787162
56.795 12.461976
56.800 12.423946
56.805 12.006784
56.810 11.544304
56.815 11.689353
56.820 11.832125
56.825 11.943956
56.830 12.241162
56.835 12.216715
56.840 12.255141
56.845 12.754935
56.850 12.239684
56.855 12.029647
56.860 12.206759
56.865 12.008611
56.870 11.866446
56.875 11.732844
56.880 11.648533
56.885 12.233306
56.890 12.297774
56.895 12.620083
56.900 12.594463
56.905 12.500532
56.910 12.406461
56.915 12.666616
56.920 12.651546
56.925 12.232436
56.930 11.680202
56.935 11.845799
56.940 11.966571
56.945 11.976797
56.950 11.887812
56.955 12.207552
56.960 12.530458
56.965 12.627915
56.970 12.822966
56.975 13.25923
56.980 13.362544
56.985 12.848932
56.990 12.793018
56.995 12.827891
57.000 13.30511
57.005 13.636579
57.010 13.777495
57.015 14.013731
57.020 14.153933
57.025 14.048316
57.030 13.544668
57.035 13.75177
57.040 13.429044
57.045 13.178742
57.050 13.289671
57.055 13.528936
57.060 13.771328
57.065 14.246996
57.070 13.953691
57.075 13.842708
57.080 13.519527
57.085 13.213784
57.090 12.899707
57.095 12.535284
57.100 12.384638
57.105 12.007153
57.110 11.913258
57.115 12.002521
57.120 12.001942
57.125 12.11708
57.130 12.426041
57.135 12.360758
57.140 12.893881
57.145 12.768911
57.150 12.616466
57.155 12.559587
57.160 12.471985
57.165 12.445099
57.170 12.426796
57.175 12.752157
57.180 13.549746
57.185 13.536109
57.190 13.53898
57.195 13.515558
57.200 13.617919
57.205 13.807173
57.210 13.558495
57.215 13.087991
57.220 12.970675
57.225 12.907247
57.230 13.048661
57.235 12.86767
57.240 12.490651
57.245 12.80611
57.250 13.3198
57.255 13.294584
57.260 13.171497
57.265 13.00163
57.270 12.847144
57.275 12.663817
57.280 12.386381
57.285 12.34343
57.290 12.697925
57.295 13.211869
57.300 13.245374
57.305 13.915311
57.310 14.281165
57.315 14.0702
57.320 14.04418
57.325 13.769962
57.330 13.656413
57.335 13.914927
57.340 13.509133
57.345 13.093342
57.350 12.791694
57.355 12.513956
57.360 12.579947
57.365 12.605264
57.370 12.425162
57.375 12.620853
57.380 12.546731
57.385 12.414804
57.390 12.91065
57.395 13.109668
57.400 12.79672
57.405 12.356161
57.410 12.349401
57.415 13.124166
57.420 13.561378
57.425 13.35887
57.430 13.06795
57.435 13.403881
57.440 13.821714
57.445 13.598414
57.450 12.856983
57.455 12.588935
57.460 12.441793
57.465 12.439331
57.470 12.583118
57.475 12.838017
57.480 12.876692
57.485 13.465855
57.490 13.467721
57.495 13.214906
57.500 13.49935
57.505 13.29587
57.510 13.041979
57.515 12.970658
57.520 12.644543
57.525 13.231948
57.530 13.252771
57.535 12.794328
57.540 12.513003
57.545 12.739595
57.550 12.776236
57.555 13.209503
57.560 13.209494
57.565 13.916142
57.570 14.373238
57.575 14.460159
57.580 14.337882
57.585 14.412242
57.590 14.205431
57.595 14.199165
57.600 13.689885
57.605 13.490622
57.610 13.425585
57.615 13.641742
57.620 13.610995
57.625 13.625174
57.630 13.82972
57.635 13.574852
57.640 13.691484
57.645 13.714534
57.650 13.971525
57.655 13.961585
57.660 13.950531
57.665 13.853967
57.670 14.187621
57.675 14.498415
57.680 14.462787
57.685 14.311986
57.690 14.753394
57.695 14.577705
57.700 14.421136
57.705 14.12008
57.710 13.599986
57.715 13.880867
57.720 13.334238
57.725 12.84884
57.730 12.74299
57.735 12.527573
57.740 13.191646
57.745 13.572406
57.750 14.038818
57.755 14.597218
57.760 14.679214
57.765 15.15657
57.770 15.675597
57.775 15.397329
57.780 15.334389
57.785 15.201861
57.790 15.219244
57.795 14.924909
57.800 14.973887
57.805 15.253793
57.810 15.589889
57.815 15.51851
57.820 15.041091
57.825 14.839402
57.830 15.66348
57.835 16.311028
57.840 16.184065
57.845 15.588497
57.850 15.700522
57.855 15.832164
57.860 16.076302
57.865 15.535816
57.870 14.987392
57.875 15.163524
57.880 15.328179
57.885 14.725732
57.890 14.526394
57.895 14.591244
57.900 15.000218
57.905 14.686179
57.910 14.981931
57.915 15.672009
57.920 16.483866
57.925 17.056684
57.930 16.434021
57.935 16.043102
57.940 16.441053
57.945 15.986685
57.950 15.505902
57.955 14.91418
57.960 14.196203
57.965 14.750715
57.970 14.260724
57.975 13.993332
57.980 14.000509
57.985 14.351302
57.990 14.809126
57.995 14.952512
58.000 14.38748
58.005 14.890612
58.010 14.980345
58.015 15.102595
58.020 15.178783
58.025 15.121445
58.030 15.289835
58.035 15.988838
58.040 15.90002
58.045 15.997292
58.050 16.575304
58.055 16.837763
58.060 16.594923
58.065 16.653488
58.070 16.618742
58.075 17.09351
58.080 17.204296
58.085 16.596222
58.090 16.157337
58.095 16.032858
58.100 16.101265
58.105 16.067846
58.110 15.703155
58.115 15.326342
58.120 14.780025
58.125 14.797669
58.130 15.08325
58.135 15.341013
58.140 15.206717
58.145 14.964677
58.150 14.988172
58.155 15.472721
58.160 15.693777
58.165 15.867181
58.170 15.410306
58.175 15.477445
58.180 15.635883
58.185 15.661289
58.190 15.843549
58.195 16.291721
58.200 16.155148
58.205 17.300112
58.210 17.506935
58.215 17.40626
58.220 17.651175
58.225 17.426678
58.230 17.105583
58.235 17.023771
58.240 16.298759
58.245 16.108257
58.250 16.424442
58.255 16.751225
58.260 16.98411
58.265 17.275909
58.270 17.380699
58.275 17.26796
58.280 17.641624
58.285 17.464096
58.290 17.408073
58.295 17.392231
58.300 17.401731
58.305 18.218576
58.310 19.304296
58.315 19.49304
58.320 19.745075
58.325 19.757551
58.330 20.002071
58.335 20.287918
58.340 19.996586
58.345 19.555012
58.350 19.812845
58.355 20.608982
58.360 20.930353
58.365 21.203812
58.370 20.885159
58.375 20.627007
58.380 20.583544
58.385 20.753294
58.390 20.29698
58.395 20.184589
58.400 20.291931
58.405 20.630693
58.410 20.606892
58.415 21.47183
58.420 22.182913
58.425 22.654055
58.430 23.395647
58.435 23.15406
58.440 23.484066
58.445 24.327002
58.450 24.316811
58.455 24.944599
58.460 25.443602
58.465 25.181957
58.470 26.395727
58.475 27.063635
58.480 27.410931
58.485 27.850773
58.490 27.74543
58.495 27.931665
58.500 28.189451
58.505 27.446821
58.510 26.83111
58.515 26.65819
58.520 26.523975
58.525 27.164255
58.530 27.42008
58.535 27.848633
