!@!!GADDS PLOTSO FILE: Chi integration type
!@!!Title/SampleName: map-13e
!@!!Comment: ?
!@!!User: Bruker Instrument Administrator
!@!!Site: University of Illinois Chicago
!@!!Frame: map-13e_01_000.gfrm
!@!!Wavelengths    1.54184   1.54056   1.54439
!@!!Frame angles: 2Theta: 63.000 Omega: 50.000 Phi: 0.000 Chi: 90.000
!@!!Integration range: 2Theta: 53.000 to 73.000  Gamma: -105.000 to -75.000
!@!!Integration method: bin normalized
!@!N
!@!SS
!@!M
!@!L 0.0 0.0 0.0 0.0
!@!XDegrees
!@!YCounts
53.000 9.529725
53.005 9.566657
53.010 9.56365
53.015 9.389853
53.020 8.923476
53.025 8.295229
53.030 8.688608
53.035 9.001992
53.040 8.9405
53.045 8.807907
53.050 8.823874
53.055 9.209246
53.060 9.340302
53.065 9.141767
53.070 9.468832
53.075 9.81341
53.080 9.951322
53.085 10.164457
53.090 10.425646
53.095 10.44551
53.100 10.723025
53.105 10.609916
53.110 10.521546
53.115 10.087571
53.120 9.791838
53.125 9.447762
53.130 9.431136
53.135 9.096318
53.140 8.733932
53.145 8.839949
53.150 9.022339
53.155 8.77013
53.160 8.984889
53.165 9.321092
53.170 9.761185
53.175 10.178512
53.180 10.06427
53.185 10.705736
53.190 11.19312
53.195 11.128091
53.200 10.503153
53.205 10.345168
53.210 10.129167
53.215 10.768082
53.220 10.354037
53.225 10.103274
53.230 9.817761
53.235 10.155798
53.240 10.477076
53.245 10.120305
53.250 9.706023
53.255 9.730463
53.260 10.584207
53.265 10.981867
53.270 10.881606
53.275 10.566762
53.280 10.284108
53.285 10.439809
53.290 10.246472
53.295 9.395134
53.300 9.500624
53.305 9.658725
53.310 9.982693
53.315 10.355342
53.320 9.790783
53.325 9.928176
53.330 10.0614
53.335 10.14395
53.340 10.117859
53.345 9.890713
53.350 9.974808
53.355 10.812479
53.360 10.991808
53.365 11.068822
53.370 11.017183
53.375 11.067671
53.380 11.231277
53.385 10.808165
53.390 10.593549
53.395 10.364043
53.400 10.152696
53.405 9.81884
53.410 9.827605
53.415 9.483007
53.420 9.843562
53.425 9.639935
53.430 9.705995
53.435 10.158545
53.440 10.157624
53.445 10.533204
53.450 10.684181
53.455 10.335368
53.460 10.332589
53.465 10.186691
53.470 9.963394
53.475 10.026902
53.480 9.782849
53.485 9.755566
53.490 10.499068
53.495 10.636605
53.500 10.662722
53.505 10.831735
53.510 10.570164
53.515 10.574591
53.520 10.566762
53.525 10.421449
53.530 10.855638
53.535 10.832386
53.540 10.766657
53.545 10.694674
53.550 10.655111
53.555 10.580477
53.560 10.343299
53.565 10.011406
53.570 9.804128
53.575 9.787762
53.580 10.244572
53.585 9.912807
53.590 9.790633
53.595 9.60234
53.600 9.718019
53.605 9.879804
53.610 9.662072
53.615 9.398815
53.620 9.726555
53.625 9.926994
53.630 10.035129
53.635 10.215232
53.640 10.28541
53.645 10.140599
53.650 10.177011
53.655 10.267186
53.660 10.234571
53.665 10.218751
53.670 10.132582
53.675 9.880133
53.680 10.174962
53.685 10.01893
53.690 9.67369
53.695 9.679374
53.700 9.444171
53.705 9.734542
53.710 9.694662
53.715 9.859054
53.720 10.573081
53.725 10.979331
53.730 10.934914
53.735 10.990516
53.740 11.015217
53.745 11.373615
53.750 10.755627
53.755 10.081713
53.760 10.016299
53.765 10.157231
53.770 9.851797
53.775 9.528052
53.780 9.862269
53.785 10.546581
53.790 10.71918
53.795 10.602419
53.800 10.611616
53.805 11.282371
53.810 11.678425
53.815 11.359773
53.820 10.817949
53.825 10.685721
53.830 10.595409
53.835 10.530046
53.840 10.248389
53.845 10.617473
53.850 10.883556
53.855 10.811882
53.860 11.180788
53.865 11.096531
53.870 10.883331
53.875 10.307819
53.880 9.834983
53.885 10.132485
53.890 10.490987
53.895 10.548719
53.900 10.643863
53.905 10.832276
53.910 11.216887
53.915 11.050213
53.920 10.779463
53.925 10.735508
53.930 10.734119
53.935 10.940904
53.940 10.89333
53.945 10.962695
53.950 11.154373
53.955 10.692924
53.960 10.608767
53.965 10.750755
53.970 10.703983
53.975 10.848137
53.980 10.525244
53.985 10.604323
53.990 10.988666
53.995 11.373631
54.000 11.370053
54.005 11.370015
54.010 10.924791
54.015 10.818399
54.020 10.659998
54.025 10.526123
54.030 9.651593
54.035 9.410002
54.040 9.651742
54.045 9.818682
54.050 10.109759
54.055 10.273428
54.060 10.20154
54.065 10.315671
54.070 10.246915
54.075 9.824888
54.080 10.120961
54.085 9.890017
54.090 9.797798
54.095 10.353221
54.100 10.404387
54.105 10.477005
54.110 10.917252
54.115 10.853573
54.120 11.050935
54.125 10.900396
54.130 10.40266
54.135 10.625737
54.140 10.734921
54.145 10.261373
54.150 10.204524
54.155 10.212417
54.160 10.139871
54.165 10.245454
54.170 10.291654
54.175 10.22631
54.180 10.52629
54.185 10.242764
54.190 9.905586
54.195 9.983704
54.200 9.773701
54.205 9.543495
54.210 9.540103
54.215 9.563761
54.220 9.612818
54.225 9.671211
54.230 10.143912
54.235 11.032274
54.240 11.294474
54.245 11.17735
54.250 10.992771
54.255 11.194005
54.260 11.342428
54.265 10.992151
54.270 10.707109
54.275 11.210496
54.280 11.74112
54.285 11.765865
54.290 11.934395
54.295 11.750273
54.300 11.657048
54.305 11.517076
54.310 11.523137
54.315 11.502547
54.320 11.391772
54.325 11.432703
54.330 12.005175
54.335 12.363036
54.340 12.229435
54.345 12.114004
54.350 12.222589
54.355 12.074355
54.360 11.643223
54.365 11.468369
54.370 11.710428
54.375 11.698433
54.380 11.655385
54.385 11.501349
54.390 11.454177
54.395 12.086867
54.400 11.85608
54.405 11.177851
54.410 10.976546
54.415 10.806346
54.420 10.863465
54.425 11.007848
54.430 10.557821
54.435 10.460594
54.440 11.013599
54.445 11.112186
54.450 11.285061
54.455 11.81011
54.460 11.875428
54.465 11.530361
54.470 11.158134
54.475 10.887066
54.480 10.893786
54.485 10.502364
54.490 10.17035
54.495 10.21909
54.500 10.341783
54.505 10.179071
54.510 10.086746
54.515 9.906886
54.520 9.882292
54.525 10.121022
54.530 10.822414
54.535 11.365397
54.540 11.710793
54.545 11.971894
54.550 12.420897
54.555 12.577475
54.560 12.659796
54.565 12.126653
54.570 12.216774
54.575 12.575542
54.580 12.287834
54.585 12.346572
54.590 12.350597
54.595 12.358137
54.600 12.314461
54.605 11.923641
54.610 11.194283
54.615 11.187009
54.620 10.912639
54.625 10.613049
54.630 10.080599
54.635 10.076029
54.640 10.669338
54.645 11.008463
54.650 11.012527
54.655 11.012102
54.660 11.250329
54.665 11.069489
54.670 10.77698
54.675 10.205467
54.680 10.47972
54.685 10.502797
54.690 10.421897
54.695 10.614661
54.700 10.782981
54.705 10.874877
54.710 11.263376
54.715 11.076541
54.720 11.247366
54.725 11.319509
54.730 11.530261
54.735 11.944858
54.740 12.431792
54.745 12.683307
54.750 12.751357
54.755 12.562987
54.760 12.226199
54.765 12.084684
54.770 11.940575
54.775 11.088428
54.780 10.520592
54.785 10.425535
54.790 10.319292
54.795 10.302739
54.800 10.128284
54.805 10.37184
54.810 10.788142
54.815 10.951646
54.820 11.44611
54.825 12.299338
54.830 12.642023
54.835 12.668502
54.840 12.671135
54.845 12.718463
54.850 12.58207
54.855 12.338848
54.860 11.934315
54.865 11.62547
54.870 11.537832
54.875 11.656523
54.880 12.496653
54.885 13.182299
54.890 13.235575
54.895 13.080727
54.900 13.336261
54.905 13.533561
54.910 13.617804
54.915 13.472658
54.920 13.389509
54.925 13.185088
54.930 13.142655
54.935 13.075432
54.940 12.568909
54.945 12.049371
54.950 11.871725
54.955 11.927291
54.960 12.343111
54.965 12.444551
54.970 12.365164
54.975 12.36745
54.980 12.424891
54.985 12.150834
54.990 12.266336
54.995 12.178833
55.000 12.068798
55.005 12.248275
55.010 12.384799
55.015 12.643235
55.020 12.498244
55.025 11.93659
55.030 11.555373
55.035 11.707453
55.040 12.013627
55.045 12.206912
55.050 11.901812
55.055 12.249164
55.060 12.363221
55.065 12.402824
55.070 12.098378
55.075 11.618914
55.080 11.240912
55.085 10.8612
55.090 10.85994
55.095 11.378794
55.100 11.654311
55.105 12.121182
55.110 12.520365
55.115 12.796506
55.120 12.970218
55.125 12.669724
55.130 12.610382
55.135 12.543504
55.140 11.967019
55.145 11.929162
55.150 11.748109
55.155 11.830976
55.160 12.342223
55.165 12.596685
55.170 12.855169
55.175 13.092466
55.180 13.326231
55.185 13.442212
55.190 13.220416
55.195 12.510323
55.200 12.014219
55.205 12.020874
55.210 11.840678
55.215 11.578414
55.220 11.255258
55.225 10.973969
55.230 10.694787
55.235 10.453019
55.240 9.784419
55.245 9.875292
55.250 9.753272
55.255 9.590925
55.260 9.853658
55.265 10.497458
55.270 10.624744
55.275 11.067169
55.280 10.974699
55.285 10.98456
55.290 11.312668
55.295 11.699353
55.300 11.77221
55.305 11.548179
55.310 11.504526
55.315 11.823965
55.320 11.914519
55.325 11.583654
55.330 10.962684
55.335 11.081264
55.340 11.429879
55.345 11.166013
55.350 10.782475
55.355 10.81052
55.360 10.889154
55.365 10.992884
55.370 10.609891
55.375 10.663621
55.380 10.979736
55.385 11.205382
55.390 11.937924
55.395 12.543283
55.400 12.838465
55.405 13.095069
55.410 13.206384
55.415 13.059137
55.420 13.296662
55.425 13.116648
55.430 12.823178
55.435 13.176931
55.440 13.160664
55.445 13.401106
55.450 13.683895
55.455 13.546367
55.460 13.350546
55.465 13.304054
55.470 13.243245
55.475 13.188049
55.480 12.805024
55.485 12.49261
55.490 12.868412
55.495 12.791813
55.500 12.680195
55.505 12.357542
55.510 12.382955
55.515 12.50178
55.520 12.268672
55.525 11.873879
55.530 11.841915
55.535 11.672756
55.540 11.891811
55.545 11.985734
55.550 12.29002
55.555 12.501395
55.560 12.29245
55.565 12.487915
55.570 12.251326
55.575 12.249762
55.580 12.150609
55.585 11.591581
55.590 11.707822
55.595 11.891399
55.600 11.80819
55.605 11.983344
55.610 11.678546
55.615 11.681151
55.620 12.298448
55.625 12.185642
55.630 12.195053
55.635 12.267766
55.640 12.242934
55.645 11.940442
55.650 11.981182
55.655 12.327436
55.660 12.338901
55.665 12.490847
55.670 12.530733
55.675 12.514783
55.680 12.59151
55.685 11.745042
55.690 10.913521
55.695 10.952268
55.700 11.076376
55.705 10.898686
55.710 10.802902
55.715 10.781738
55.720 11.670028
55.725 12.082942
55.730 12.331406
55.735 11.993693
55.740 12.368488
55.745 12.562552
55.750 13.010012
55.755 13.090454
55.760 13.014152
55.765 12.632957
55.770 12.039104
55.775 11.598013
55.780 12.321897
55.785 12.509562
55.790 12.555287
55.795 12.356942
55.800 12.507117
55.805 13.192201
55.810 13.231949
55.815 12.534304
55.820 11.909945
55.825 11.650709
55.830 12.026948
55.835 12.930184
55.840 13.888475
55.845 13.83431
55.850 13.905015
55.855 14.459816
55.860 14.722952
55.865 14.797482
55.870 14.161386
55.875 13.940845
55.880 14.046685
55.885 14.408703
55.890 13.922539
55.895 13.532671
55.900 13.057427
55.905 12.450495
55.910 11.940425
55.915 11.780794
55.920 11.508625
55.925 11.629663
55.930 12.05135
55.935 11.88394
55.940 12.259184
55.945 13.214603
55.950 13.582954
55.955 13.342229
55.960 12.867787
55.965 12.518276
55.970 12.934978
55.975 12.941605
55.980 12.606943
55.985 12.398843
55.990 12.705887
55.995 13.180188
56.000 13.416656
56.005 12.970198
56.010 12.559629
56.015 12.235205
56.020 11.933465
56.025 11.910413
56.030 12.037348
56.035 12.156679
56.040 12.50598
56.045 12.207558
56.050 12.310876
56.055 12.327871
56.060 12.187627
56.065 11.644613
56.070 11.432981
56.075 11.542009
56.080 11.86191
56.085 12.197595
56.090 12.418728
56.095 12.711281
56.100 12.729585
56.105 12.916724
56.110 12.447299
56.115 12.213284
56.120 11.960477
56.125 11.605738
56.130 11.415754
56.135 12.07279
56.140 12.503051
56.145 13.00304
56.150 13.418281
56.155 13.787196
56.160 13.756557
56.165 13.866593
56.170 13.814022
56.175 13.272337
56.180 13.162002
56.185 12.679921
56.190 12.682969
56.195 12.749576
56.200 12.914449
56.205 12.828268
56.210 12.92497
56.215 12.602164
56.220 12.435258
56.225 12.408949
56.230 12.18964
56.235 11.853803
56.240 11.85713
56.245 12.361352
56.250 12.761656
56.255 13.292524
56.260 13.022714
56.265 13.045621
56.270 12.84681
56.275 12.315982
56.280 11.659888
56.285 11.836877
56.290 11.80453
56.295 12.052085
56.300 11.900881
56.305 12.202256
56.310 12.498666
56.315 13.027885
56.320 12.59304
56.325 12.713578
56.330 13.161153
56.335 13.472355
56.340 13.129227
56.345 12.94392
56.350 13.056623
56.355 13.360668
56.360 13.018521
56.365 13.092577
56.370 12.963648
56.375 13.464754
56.380 13.719766
56.385 14.016494
56.390 14.164706
56.395 14.12814
56.400 14.403494
56.405 14.899957
56.410 14.637311
56.415 14.398761
56.420 14.861814
56.425 14.822229
56.430 14.818675
56.435 14.634187
56.440 14.642723
56.445 14.428686
56.450 14.479707
56.455 13.927061
56.460 14.108354
56.465 13.586997
56.470 12.999287
56.475 12.608224
56.480 12.710589
56.485 12.361285
56.490 12.185969
56.495 12.259377
56.500 12.588493
56.505 12.903655
56.510 13.109985
56.515 13.640351
56.520 13.794999
56.525 13.467946
56.530 13.300079
56.535 13.690997
56.540 13.573443
56.545 13.527749
56.550 13.331197
56.555 13.240765
56.560 13.3056
56.565 13.931391
56.570 14.069371
56.575 13.801198
56.580 13.693387
56.585 13.46435
56.590 13.781902
56.595 14.155087
56.600 13.307186
56.605 13.035782
56.610 13.306418
56.615 13.082335
56.620 13.369125
56.625 13.438007
56.630 13.694064
56.635 14.038576
56.640 14.464575
56.645 14.883209
56.650 14.767565
56.655 14.95612
56.660 15.10658
56.665 14.429252
56.670 14.099651
56.675 13.652565
56.680 13.895109
56.685 14.255253
56.690 14.10889
56.695 14.395988
56.700 14.380124
56.705 14.556355
56.710 14.43287
56.715 13.809834
56.720 14.034866
56.725 13.561152
56.730 13.523096
56.735 14.011953
56.740 14.120584
56.745 14.349174
56.750 14.523905
56.755 14.523065
56.760 15.047691
56.765 14.834669
56.770 14.989594
56.775 15.054805
56.780 15.120162
56.785 14.970382
56.790 14.742905
56.795 13.988674
56.800 13.543957
56.805 13.155224
56.810 13.080675
56.815 12.891163
56.820 12.919965
56.825 12.957332
56.830 13.122368
56.835 13.288601
56.840 13.085036
56.845 12.903125
56.850 12.59663
56.855 12.563953
56.860 12.681418
56.865 12.971656
56.870 12.671572
56.875 12.681007
56.880 12.237912
56.885 12.41915
56.890 12.340348
56.895 12.493382
56.900 12.928578
56.905 13.811406
56.910 13.847457
56.915 13.848817
56.920 13.66393
56.925 14.03892
56.930 13.697019
56.935 13.222479
56.940 12.570066
56.945 13.081423
56.950 13.636706
56.955 13.403305
56.960 13.080288
56.965 12.978462
56.970 12.647183
56.975 12.967259
56.980 12.617091
56.985 12.793753
56.990 13.189891
56.995 13.312406
57.000 13.45215
57.005 13.582354
57.010 13.471391
57.015 14.001344
57.020 14.263364
57.025 14.338337
57.030 14.282887
57.035 14.445203
57.040 14.232977
57.045 13.803003
57.050 13.348155
57.055 13.058819
57.060 12.823785
57.065 12.936128
57.070 13.428259
57.075 13.121535
57.080 13.180271
57.085 13.318888
57.090 13.320178
57.095 13.648705
57.100 13.231987
57.105 13.184353
57.110 13.623515
57.115 13.764154
57.120 13.817041
57.125 14.401401
57.130 14.370514
57.135 14.126581
57.140 13.850905
57.145 13.643283
57.150 13.863124
57.155 13.696974
57.160 12.50644
57.165 12.3881
57.170 12.678485
57.175 13.110506
57.180 13.030641
57.185 12.597391
57.190 12.742843
57.195 13.309819
57.200 13.563692
57.205 13.704994
57.210 13.902946
57.215 14.777045
57.220 15.141532
57.225 15.277678
57.230 15.164098
57.235 15.032484
57.240 14.836449
57.245 14.916265
57.250 14.735113
57.255 14.742165
57.260 15.062409
57.265 15.161893
57.270 15.071651
57.275 14.733808
57.280 14.480042
57.285 14.23322
57.290 14.386331
57.295 13.673174
57.300 13.558681
57.305 14.034256
57.310 14.341349
57.315 15.193223
57.320 15.768675
57.325 15.385815
57.330 15.984363
57.335 15.910808
57.340 15.523025
57.345 15.488317
57.350 14.555448
57.355 14.148594
57.360 13.966868
57.365 14.131636
57.370 14.413085
57.375 14.248101
57.380 14.070886
57.385 14.129733
57.390 13.884608
57.395 13.953483
57.400 13.702971
57.405 13.274093
57.410 14.041231
57.415 14.054156
57.420 13.919003
57.425 14.164186
57.430 13.853262
57.435 13.942832
57.440 14.111718
57.445 14.04528
57.450 14.195832
57.455 14.444167
57.460 14.134461
57.465 14.37698
57.470 14.755975
57.475 14.37182
57.480 13.819997
57.485 13.884449
57.490 14.375086
57.495 15.187604
57.500 15.01154
57.505 14.598093
57.510 14.413893
57.515 14.536946
57.520 14.335495
57.525 13.978133
57.530 13.316991
57.535 12.912777
57.540 13.115516
57.545 13.224721
57.550 12.939382
57.555 12.814538
57.560 12.956491
57.565 13.130275
57.570 13.509871
57.575 13.180274
57.580 13.099699
57.585 13.358811
57.590 14.002949
57.595 14.197296
57.600 14.340974
57.605 14.692924
57.610 15.231055
57.615 15.467338
57.620 15.013021
57.625 14.295842
57.630 13.945766
57.635 13.607451
57.640 13.243686
57.645 13.321872
57.650 13.573965
57.655 13.718196
57.660 13.916162
57.665 14.196278
57.670 14.941212
57.675 15.428741
57.680 15.501128
57.685 15.533095
57.690 15.769394
57.695 15.68597
57.700 15.765541
57.705 15.282644
57.710 14.664876
57.715 14.550518
57.720 14.091087
57.725 13.829152
57.730 13.655375
57.735 13.524449
57.740 13.79163
57.745 14.518822
57.750 14.835789
57.755 14.973049
57.760 15.271235
57.765 16.116375
57.770 16.630766
57.775 16.413687
57.780 15.921178
57.785 15.510675
57.790 15.57979
57.795 15.584819
57.800 15.183314
57.805 14.547931
57.810 14.663506
57.815 15.082099
57.820 15.484614
57.825 15.328014
57.830 14.773101
57.835 14.373538
57.840 14.524356
57.845 14.365946
57.850 13.669594
57.855 13.35058
57.860 13.163583
57.865 13.564441
57.870 13.859993
57.875 13.795737
57.880 14.094871
57.885 14.501486
57.890 14.568464
57.895 14.803896
57.900 14.809117
57.905 15.311586
57.910 15.241966
57.915 14.631772
57.920 14.301682
57.925 13.983994
57.930 13.989504
57.935 13.707713
57.940 13.736791
57.945 13.800951
57.950 13.759445
57.955 14.115149
57.960 14.613812
57.965 14.62418
57.970 14.59303
57.975 14.623237
57.980 14.746235
57.985 15.146091
57.990 14.773443
57.995 14.7355
58.000 14.939628
58.005 14.690331
58.010 15.092182
58.015 15.146879
58.020 15.62816
58.025 16.593784
58.030 16.82555
58.035 17.00153
58.040 17.288174
58.045 16.881815
58.050 16.727121
58.055 16.280916
58.060 16.310986
58.065 15.928602
58.070 15.557703
58.075 15.484309
58.080 15.181505
58.085 15.368494
58.090 15.020321
58.095 14.333753
58.100 14.31379
58.105 14.243091
58.110 14.287271
58.115 14.30809
58.120 13.931363
58.125 14.081598
58.130 14.250106
58.135 14.084533
58.140 14.659334
58.145 14.603143
58.150 15.03985
58.155 15.376679
58.160 15.321915
58.165 16.234758
58.170 16.78619
58.175 16.658962
58.180 16.42358
58.185 16.291403
58.190 16.570856
58.195 16.614992
58.200 16.42598
58.205 16.10371
58.210 15.921955
58.215 16.100756
58.220 15.813961
58.225 15.660415
58.230 15.087044
58.235 14.769813
58.240 14.823503
58.245 14.717634
58.250 14.332328
58.255 14.779892
58.260 14.900375
58.265 14.952603
58.270 14.445927
58.275 14.447287
58.280 14.74122
58.285 15.46506
58.290 15.308918
58.295 15.577051
58.300 15.995403
58.305 16.568054
58.310 16.853977
58.315 16.713917
58.320 16.435085
58.325 16.071459
58.330 16.190603
58.335 16.767437
58.340 16.772335
58.345 17.006886
58.350 16.581829
58.355 16.698431
58.360 16.962114
58.365 16.836864
58.370 16.463478
58.375 16.559395
58.380 16.42783
58.385 16.738359
58.390 16.978657
58.395 17.003109
58.400 17.178112
58.405 17.181845
58.410 16.42305
58.415 16.166357
58.420 16.204769
58.425 16.675402
58.430 16.742949
58.435 16.966381
58.440 17.074734
58.445 17.541935
58.450 17.920937
58.455 17.702665
58.460 17.923079
