!@!!GADDS PLOTSO FILE: Chi integration type
!@!!Title/SampleName: map-43
!@!!Comment: ?
!@!!User: Bruker Instrument Administrator
!@!!Site: University of Illinois Chicago
!@!!Frame: map-43_01_000.gfrm
!@!!Wavelengths    1.54184   1.54056   1.54439
!@!!Frame angles: 2Theta: 63.000 Omega: 50.000 Phi: 0.000 Chi: 90.000
!@!!Integration range: 2Theta: 53.000 to 73.000  Gamma: -105.000 to -75.000
!@!!Integration method: bin normalized
!@!N
!@!SS
!@!M
!@!L 0.0 0.0 0.0 0.0
!@!XDegrees
!@!YCounts
53.000 7.251428
53.005 7.374058
53.010 7.328882
53.015 7.203763
53.020 7.676602
53.025 7.876162
53.030 8.375499
53.035 8.525177
53.040 8.297002
53.045 8.384739
53.050 8.071218
53.055 7.934488
53.060 7.786556
53.065 7.663674
53.070 7.339485
53.075 7.05691
53.080 6.972588
53.085 7.351039
53.090 7.262967
53.095 6.672346
53.100 6.261264
53.105 6.442564
53.110 6.592979
53.115 6.817753
53.120 6.47299
53.125 6.207242
53.130 6.585397
53.135 6.632795
53.140 6.814923
53.145 7.008737
53.150 6.815404
53.155 7.272987
53.160 7.37886
53.165 7.36344
53.170 7.559759
53.175 7.520144
53.180 7.340961
53.185 7.152246
53.190 6.680945
53.195 6.739381
53.200 6.746643
53.205 6.884094
53.210 7.073695
53.215 7.562019
53.220 7.951833
53.225 8.054755
53.230 8.307558
53.235 8.093359
53.240 7.876921
53.245 7.936259
53.250 7.48346
53.255 7.341004
53.260 7.501513
53.265 7.394582
53.270 7.558582
53.275 7.559786
53.280 7.565956
53.285 7.808312
53.290 7.755119
53.295 7.622634
53.300 7.628105
53.305 7.793407
53.310 7.518724
53.315 7.806775
53.320 8.050273
53.325 7.953253
53.330 7.86927
53.335 7.454767
53.340 7.47621
53.345 7.81468
53.350 7.406482
53.355 7.160178
53.360 7.345466
53.365 7.690574
53.370 8.09628
53.375 7.798481
53.380 7.658051
53.385 7.571513
53.390 7.833922
53.395 7.9821
53.400 7.833895
53.405 7.751966
53.410 8.114802
53.415 8.132732
53.420 7.96553
53.425 7.82614
53.430 7.916129
53.435 7.93799
53.440 8.064764
53.445 7.749763
53.450 7.990261
53.455 8.477116
53.460 8.556558
53.465 8.84197
53.470 8.710464
53.475 8.442829
53.480 8.530402
53.485 8.436714
53.490 8.185775
53.495 7.502123
53.500 7.148795
53.505 7.235227
53.510 7.331805
53.515 7.477102
53.520 7.279952
53.525 7.154725
53.530 7.340052
53.535 7.058547
53.540 7.021833
53.545 7.557986
53.550 7.606636
53.555 8.17638
53.560 8.882292
53.565 9.270778
53.570 9.364618
53.575 9.496059
53.580 9.182178
53.585 8.817965
53.590 8.59926
53.595 8.650121
53.600 8.525634
53.605 8.327669
53.610 7.819045
53.615 8.131669
53.620 8.264401
53.625 8.375693
53.630 8.653968
53.635 9.257598
53.640 9.975893
53.645 10.192607
53.650 9.848885
53.655 9.301355
53.660 8.831134
53.665 8.508212
53.670 8.455292
53.675 8.239947
53.680 8.372173
53.685 8.633863
53.690 9.087776
53.695 9.118917
53.700 9.042336
53.705 9.098672
53.710 9.006274
53.715 8.811286
53.720 8.619497
53.725 8.719284
53.730 9.092059
53.735 9.237142
53.740 9.483919
53.745 9.722625
53.750 10.096047
53.755 10.34592
53.760 10.0832
53.765 9.941593
53.770 9.664104
53.775 8.987527
53.780 9.124105
53.785 8.709955
53.790 8.457658
53.795 8.343562
53.800 8.020039
53.805 7.940176
53.810 8.112796
53.815 7.850024
53.820 7.949663
53.825 8.199226
53.830 8.357805
53.835 8.379396
53.840 8.181811
53.845 8.361786
53.850 8.554128
53.855 8.377876
53.860 8.140537
53.865 8.180137
53.870 7.945869
53.875 8.315015
53.880 8.471635
53.885 8.782344
53.890 9.074469
53.895 8.812025
53.900 8.702786
53.905 8.900894
53.910 8.213948
53.915 7.700089
53.920 7.528672
53.925 7.415699
53.930 7.59502
53.935 7.669872
53.940 8.002477
53.945 8.593102
53.950 8.818429
53.955 8.787446
53.960 9.434435
53.965 9.612741
53.970 9.485676
53.975 9.226864
53.980 9.244996
53.985 9.204018
53.990 9.162259
53.995 9.11855
54.000 9.233678
54.005 9.412652
54.010 9.288677
54.015 9.075695
54.020 9.218532
54.025 9.36896
54.030 8.986479
54.035 9.074035
54.040 8.861507
54.045 8.498394
54.050 8.441469
54.055 8.235432
54.060 8.331977
54.065 8.102357
54.070 7.805338
54.075 8.050076
54.080 8.134665
54.085 8.449131
54.090 8.397874
54.095 8.212334
54.100 8.239555
54.105 7.919523
54.110 7.706867
54.115 7.480187
54.120 7.226682
54.125 7.679478
54.130 7.362653
54.135 8.181908
54.140 8.366888
54.145 8.578609
54.150 9.058939
54.155 9.310913
54.160 9.462653
54.165 9.805943
54.170 9.507865
54.175 9.796262
54.180 9.732349
54.185 9.582264
54.190 9.265185
54.195 8.854388
54.200 9.089067
54.205 8.929279
54.210 8.755072
54.215 8.407681
54.220 8.315599
54.225 8.65272
54.230 8.855513
54.235 8.888627
54.240 9.3641
54.245 9.585495
54.250 9.843465
54.255 9.674262
54.260 9.603064
54.265 9.580428
54.270 9.408322
54.275 9.37139
54.280 9.339105
54.285 9.172202
54.290 9.153419
54.295 9.234535
54.300 8.580146
54.305 8.138449
54.310 8.109935
54.315 8.331586
54.320 8.370201
54.325 8.267324
54.330 8.048856
54.335 8.367092
54.340 8.821217
54.345 8.800166
54.350 8.562885
54.355 8.283508
54.360 8.344518
54.365 8.498625
54.370 8.693976
54.375 8.420686
54.380 8.768682
54.385 9.067285
54.390 9.279016
54.395 9.255367
54.400 9.02741
54.405 8.870004
54.410 8.743998
54.415 8.453317
54.420 8.33287
54.425 8.2981
54.430 8.358035
54.435 8.500044
54.440 8.795353
54.445 9.064664
54.450 9.459517
54.455 9.743115
54.460 9.87831
54.465 9.860088
54.470 9.762468
54.475 9.810542
54.480 9.355515
54.485 8.891185
54.490 8.962894
54.495 8.745606
54.500 8.730611
54.505 8.94095
54.510 8.809975
54.515 9.136891
54.520 9.113351
54.525 8.911551
54.530 9.218451
54.535 9.317345
54.540 9.25348
54.545 8.992437
54.550 8.849835
54.555 8.971019
54.560 9.160607
54.565 8.87049
54.570 8.573397
54.575 8.751354
54.580 8.877576
54.585 8.983335
54.590 8.940677
54.595 8.717361
54.600 8.736065
54.605 9.119314
54.610 9.034183
54.615 8.893719
54.620 9.104014
54.625 8.994086
54.630 9.340825
54.635 9.432856
54.640 8.760595
54.645 8.924381
54.650 9.299786
54.655 9.003987
54.660 9.343627
54.665 9.452558
54.670 9.643478
54.675 9.723748
54.680 9.787874
54.685 9.593649
54.690 9.872131
54.695 9.671431
54.700 9.907382
54.705 10.144934
54.710 10.543958
54.715 10.426779
54.720 10.172433
54.725 10.053341
54.730 9.982041
54.735 9.50526
54.740 9.074816
54.745 8.742214
54.750 8.934202
54.755 9.640082
54.760 10.146758
54.765 10.48607
54.770 10.762761
54.775 11.30797
54.780 11.511935
54.785 11.134983
54.790 10.407496
54.795 9.886737
54.800 9.357224
54.805 9.217125
54.810 8.973212
54.815 9.017586
54.820 9.325678
54.825 9.409441
54.830 9.428369
54.835 9.434833
54.840 9.42751
54.845 9.303881
54.850 9.60631
54.855 9.757182
54.860 10.07745
54.865 10.4215
54.870 10.993323
54.875 11.309805
54.880 11.207968
54.885 11.163718
54.890 11.035421
54.895 10.697674
54.900 10.288192
54.905 9.955679
54.910 9.946256
54.915 10.432507
54.920 10.495599
54.925 10.826053
54.930 11.34999
54.935 11.566504
54.940 11.610558
54.945 11.363286
54.950 11.433613
54.955 11.446042
54.960 11.703241
54.965 11.509294
54.970 11.322151
54.975 11.066601
54.980 10.834683
54.985 10.060274
54.990 9.092788
54.995 8.525489
55.000 8.260113
55.005 8.324265
55.010 8.617412
55.015 8.708906
55.020 9.28764
55.025 9.925302
55.030 10.295863
55.035 10.440925
55.040 10.420332
55.045 10.190014
55.050 9.976733
55.055 9.75425
55.060 9.519015
55.065 9.850268
55.070 10.130617
55.075 10.4562
55.080 10.505057
55.085 10.451649
55.090 10.433973
55.095 10.36224
55.100 10.012116
55.105 10.247792
55.110 10.470049
55.115 10.767255
55.120 10.947999
55.125 10.632429
55.130 10.629578
55.135 10.652283
55.140 9.976746
55.145 9.547888
55.150 9.739526
55.155 9.554679
55.160 9.403863
55.165 9.117628
55.170 9.15111
55.175 9.43338
55.180 9.762365
55.185 9.633704
55.190 10.066075
55.195 10.223457
55.200 10.173322
55.205 9.793647
55.210 10.032996
55.215 9.777556
55.220 9.540269
55.225 9.624345
55.230 9.809951
55.235 10.179301
55.240 10.175802
55.245 9.769441
55.250 9.902228
55.255 9.853875
55.260 9.309381
55.265 9.513675
55.270 9.605682
55.275 9.777616
55.280 9.777383
55.285 9.919022
55.290 10.198892
55.295 10.877226
55.300 11.071209
55.305 11.051929
55.310 11.023581
55.315 11.081824
55.320 10.671927
55.325 10.499638
55.330 10.201902
55.335 9.899986
55.340 10.190508
55.345 10.293897
55.350 10.489844
55.355 10.59101
55.360 11.022011
55.365 10.670203
55.370 10.170112
55.375 9.795186
55.380 9.674209
55.385 9.543469
55.390 9.855968
55.395 9.55336
55.400 9.828071
55.405 10.447377
55.410 10.443764
55.415 10.297219
55.420 10.279764
55.425 9.790792
55.430 10.094193
55.435 9.880339
55.440 9.392042
55.445 9.586156
55.450 9.773312
55.455 9.777603
55.460 9.776738
55.465 9.586572
55.470 10.094151
55.475 10.477965
55.480 10.251888
55.485 10.493623
55.490 11.106349
55.495 11.100543
55.500 10.855667
55.505 10.596681
55.510 10.194105
55.515 9.942046
55.520 9.38268
55.525 9.292487
55.530 9.5959
55.535 10.56527
55.540 10.733659
55.545 11.056479
55.550 10.916774
55.555 10.90759
55.560 10.909175
55.565 11.046408
55.570 10.628236
55.575 10.218419
55.580 10.669872
55.585 11.327841
55.590 11.150722
55.595 11.150649
55.600 10.661094
55.605 10.839986
55.610 11.396195
55.615 10.986479
55.620 11.0357
55.625 11.257976
55.630 11.108098
55.635 11.063216
55.640 10.559789
55.645 10.453966
55.650 10.537314
55.655 10.310812
55.660 10.229669
55.665 10.147619
55.670 10.189213
55.675 10.304433
55.680 9.898236
55.685 10.045986
55.690 10.122874
55.695 9.814557
55.700 9.967001
55.705 9.991717
55.710 10.100111
55.715 10.240922
55.720 10.072194
55.725 10.150425
55.730 10.558038
55.735 10.566048
55.740 10.415663
55.745 10.07484
55.750 10.376721
55.755 10.477497
55.760 10.610293
55.765 10.493511
55.770 10.50268
55.775 10.790269
55.780 11.080471
55.785 10.983129
55.790 11.130185
55.795 11.245761
55.800 11.155723
55.805 11.119617
55.810 10.824117
55.815 10.383274
55.820 10.351053
55.825 9.894191
55.830 10.067958
55.835 10.211974
55.840 10.263724
55.845 10.942712
55.850 10.77458
55.855 10.782006
55.860 10.796492
55.865 10.668354
55.870 10.659684
55.875 10.662056
55.880 10.142126
55.885 10.545127
55.890 10.492957
55.895 10.450748
55.900 9.870044
55.905 9.594626
55.910 10.049673
55.915 10.803483
55.920 10.902382
55.925 10.972774
55.930 11.081153
55.935 11.395504
55.940 11.42653
55.945 11.254188
55.950 11.298202
55.955 11.429072
55.960 11.534455
55.965 11.686934
55.970 11.977033
55.975 11.839993
55.980 11.491683
55.985 10.551657
55.990 10.049096
55.995 10.307573
56.000 10.429293
56.005 10.281433
56.010 10.494205
56.015 10.882147
56.020 11.575534
56.025 11.533714
56.030 11.715551
56.035 11.442368
56.040 11.161372
56.045 10.470237
56.050 10.342153
56.055 10.384705
56.060 10.130762
56.065 9.867127
56.070 10.267576
56.075 10.846695
56.080 11.225916
56.085 10.957572
56.090 11.013983
56.095 10.935176
56.100 10.793169
56.105 10.602598
56.110 10.887029
56.115 10.871342
56.120 11.103292
56.125 11.06334
56.130 11.452819
56.135 11.630587
56.140 11.70283
56.145 11.004285
56.150 10.722121
56.155 10.80131
56.160 11.008511
56.165 11.004209
56.170 11.190783
56.175 11.209854
56.180 11.451544
56.185 11.495812
56.190 11.625778
56.195 11.577112
56.200 11.53615
56.205 11.143554
56.210 11.432775
56.215 11.485229
56.220 11.474353
56.225 11.079996
56.230 11.070429
56.235 11.377293
56.240 11.36183
56.245 11.140257
56.250 11.462612
56.255 11.757284
56.260 12.317398
56.265 12.281628
56.270 12.111848
56.275 12.323328
56.280 12.189293
56.285 11.967581
56.290 12.066415
56.295 11.387925
56.300 11.021468
56.305 11.181334
56.310 11.648438
56.315 12.191559
56.320 12.252625
56.325 12.0415
56.330 12.430807
56.335 12.937646
56.340 12.54589
56.345 11.989407
56.350 11.861436
56.355 11.906551
56.360 11.328273
56.365 10.893879
56.370 10.807023
56.375 10.656115
56.380 10.653159
56.385 10.057881
56.390 10.451465
56.395 10.940987
56.400 11.535187
56.405 11.436685
56.410 11.40726
56.415 11.262874
56.420 11.114192
56.425 10.779957
56.430 10.708044
56.435 11.023569
56.440 11.097227
56.445 11.788059
56.450 12.048179
56.455 12.230936
56.460 12.424299
56.465 12.047137
56.470 11.286653
56.475 10.946856
56.480 10.681437
56.485 11.18361
56.490 11.289141
56.495 11.019239
56.500 10.859262
56.505 11.425243
56.510 11.429965
56.515 11.026235
56.520 11.077852
56.525 11.585885
56.530 11.974339
56.535 12.232373
56.540 12.121243
56.545 11.978088
56.550 11.904666
56.555 11.43436
56.560 10.694906
56.565 11.442805
56.570 11.786006
56.575 11.424047
56.580 11.597889
56.585 11.61882
56.590 11.908453
56.595 12.008883
56.600 10.896625
56.605 10.472246
56.610 10.228331
56.615 10.115708
56.620 10.060647
56.625 9.824835
56.630 10.223275
56.635 10.852923
56.640 11.711348
56.645 12.441746
56.650 13.096482
56.655 13.221178
56.660 13.521158
56.665 13.463354
56.670 13.227632
56.675 13.235799
56.680 13.132401
56.685 13.144501
56.690 13.232045
56.695 13.490883
56.700 13.657811
56.705 13.499889
56.710 12.937509
56.715 13.120856
56.720 13.056961
56.725 13.199567
56.730 13.007866
56.735 12.946074
56.740 12.707449
56.745 12.744034
56.750 12.901346
56.755 12.461283
56.760 12.735669
56.765 13.232754
56.770 12.845886
56.775 13.205938
56.780 13.01982
56.785 12.58453
56.790 12.669874
56.795 12.13775
56.800 11.443714
56.805 11.711463
56.810 11.761615
56.815 11.860872
56.820 11.863178
56.825 11.668127
56.830 11.811275
56.835 12.450562
56.840 12.527348
56.845 12.443395
56.850 12.693059
56.855 13.130318
56.860 13.032993
56.865 13.032118
56.870 12.302723
56.875 12.50074
56.880 12.263977
56.885 11.887916
56.890 11.525179
56.895 11.80596
56.900 11.810147
56.905 12.401347
56.910 12.387571
56.915 12.513788
56.920 12.656728
56.925 12.979896
56.930 12.801871
56.935 12.3769
56.940 12.077837
56.945 12.207029
56.950 12.17878
56.955 11.991754
56.960 11.936651
56.965 12.022884
56.970 12.079736
56.975 12.133327
56.980 11.868798
56.985 11.96787
56.990 12.075511
56.995 11.83343
57.000 11.884333
57.005 12.021225
57.010 12.03401
57.015 12.286442
57.020 12.5906
57.025 12.935086
57.030 13.198109
57.035 13.280345
57.040 13.269707
57.045 13.184522
57.050 12.970831
57.055 13.055541
57.060 12.990725
57.065 12.843901
57.070 13.14696
57.075 13.693066
57.080 13.408544
57.085 13.030978
57.090 12.328735
57.095 12.089426
57.100 12.42158
57.105 12.224888
57.110 11.89661
57.115 12.778935
57.120 13.163147
57.125 13.166186
57.130 13.37127
57.135 13.163111
57.140 12.879595
57.145 13.086871
57.150 12.543696
57.155 12.406674
57.160 12.752675
57.165 12.398194
57.170 12.484863
57.175 12.934455
57.180 12.57117
57.185 13.006824
57.190 13.511518
57.195 13.448166
57.200 13.665165
57.205 13.729017
57.210 14.067939
57.215 14.290384
57.220 13.822054
57.225 13.251855
57.230 13.122416
57.235 13.112484
57.240 12.902248
57.245 12.789144
57.250 12.733807
57.255 13.226457
57.260 13.488697
57.265 13.660024
57.270 13.453118
57.275 13.255156
57.280 12.722889
57.285 12.937855
57.290 12.571734
57.295 12.272495
57.300 12.164945
57.305 12.587123
57.310 12.470284
57.315 13.013912
57.320 12.764688
57.325 12.60835
57.330 12.800152
57.335 12.750834
57.340 12.767825
57.345 12.804083
57.350 12.313775
57.355 12.366162
57.360 12.313212
57.365 12.480435
57.370 12.294291
57.375 12.152339
57.380 12.275227
57.385 12.348174
57.390 12.258655
57.395 12.155074
57.400 11.809208
57.405 12.049951
57.410 11.950694
57.415 12.17832
57.420 11.853848
57.425 12.147987
57.430 12.63798
57.435 12.79003
57.440 12.516992
57.445 12.633606
57.450 12.898507
57.455 13.161629
57.460 12.968399
57.465 13.123776
57.470 13.30665
57.475 13.936739
57.480 13.878039
57.485 13.349585
57.490 13.677175
57.495 13.724582
57.500 13.447512
57.505 13.436502
57.510 12.577188
57.515 12.788764
57.520 12.783139
57.525 12.671955
57.530 12.47096
57.535 12.187531
57.540 12.349114
57.545 12.626425
57.550 12.867068
57.555 12.423634
57.560 12.269115
57.565 12.196603
57.570 12.403115
57.575 12.3739
57.580 12.165114
57.585 11.906407
57.590 12.383444
57.595 12.837571
57.600 13.413265
57.605 13.131773
57.610 13.097007
57.615 12.740695
57.620 12.567763
57.625 12.391679
57.630 11.770112
57.635 11.412029
57.640 11.217589
57.645 11.426566
57.650 11.678818
57.655 11.893813
57.660 12.210426
57.665 12.537163
57.670 12.558446
57.675 12.812805
57.680 12.421322
57.685 12.29923
57.690 12.331512
57.695 11.909324
57.700 11.97523
57.705 12.221889
57.710 12.293751
57.715 12.820438
57.720 12.844556
57.725 12.509253
57.730 12.828335
57.735 12.966223
57.740 13.056051
57.745 13.378424
57.750 13.019298
57.755 13.112
57.760 13.763049
57.765 13.568206
57.770 13.434407
57.775 13.093009
57.780 12.950659
57.785 13.381804
57.790 13.514072
57.795 13.017663
57.800 12.651885
57.805 12.467394
57.810 12.649388
57.815 13.03256
57.820 13.153728
57.825 13.086548
57.830 13.361159
57.835 13.738264
57.840 13.632825
57.845 13.244596
57.850 13.203659
57.855 13.009701
57.860 13.169817
57.865 13.37147
57.870 13.480584
57.875 13.523604
57.880 13.235988
57.885 12.861156
57.890 12.847664
57.895 12.704186
57.900 12.595011
57.905 12.532704
57.910 12.809297
57.915 13.693472
57.920 14.225583
57.925 14.483998
57.930 14.077606
57.935 14.092892
57.940 14.307434
57.945 14.106126
57.950 13.832096
57.955 13.610258
57.960 13.923554
57.965 14.238343
57.970 14.136306
57.975 14.395065
57.980 14.598383
57.985 14.262813
57.990 13.572482
57.995 13.094045
58.000 12.670032
58.005 12.564928
58.010 12.490773
58.015 12.452269
58.020 12.464746
58.025 12.603985
58.030 13.093461
58.035 13.825689
58.040 13.673259
58.045 13.167885
58.050 12.799187
58.055 12.892369
58.060 12.845912
58.065 12.602318
58.070 12.132622
58.075 11.923894
58.080 12.775829
58.085 13.382587
58.090 13.743768
58.095 13.616484
58.100 13.430618
58.105 13.62401
58.110 13.578603
58.115 12.81388
58.120 12.189618
58.125 11.815344
58.130 11.609768
58.135 11.905402
58.140 12.138953
58.145 12.500605
58.150 12.590623
58.155 12.738257
58.160 12.713265
58.165 13.211914
58.170 13.279945
58.175 13.131459
58.180 13.26381
58.185 13.84887
58.190 14.252189
58.195 14.920787
58.200 15.06373
58.205 14.783658
58.210 14.395857
58.215 14.393726
58.220 14.003365
58.225 13.866766
58.230 13.512067
58.235 13.454835
58.240 13.670334
58.245 13.675784
58.250 13.1347
58.255 12.908801
58.260 12.723934
58.265 12.461084
58.270 11.860548
58.275 11.741934
58.280 12.457141
58.285 12.934873
58.290 12.623112
58.295 12.776421
58.300 13.029236
58.305 13.469284
58.310 13.578341
58.315 13.198595
58.320 13.196806
58.325 13.520445
58.330 13.414461
58.335 13.776436
58.340 13.866113
58.345 14.018164
58.350 13.742637
58.355 13.640279
58.360 13.863221
58.365 14.252129
58.370 14.467985
58.375 14.70223
58.380 14.446648
58.385 14.947817
58.390 15.208219
58.395 15.67455
58.400 15.496305
58.405 15.299179
58.410 15.283084
58.415 15.435109
58.420 15.277063
58.425 15.007792
58.430 14.756383
58.435 14.082598
58.440 13.713723
58.445 13.339963
58.450 13.186437
58.455 13.451582
58.460 13.684856
58.465 13.639786
58.470 14.008191
58.475 14.471654
58.480 14.840555
58.485 15.165482
58.490 15.273762
58.495 15.454164
58.500 15.254292
58.505 15.576823
58.510 15.392697
58.515 15.389072
58.520 15.911722
58.525 15.484589
58.530 15.005883
58.535 15.048814
58.540 14.642254
58.545 14.638931
58.550 14.259787
58.555 13.133294
