!@!!GADDS PLOTSO FILE: Chi integration type
!@!!Title/SampleName: map-e7
!@!!Comment: ?
!@!!User: Bruker Instrument Administrator
!@!!Site: University of Illinois Chicago
!@!!Frame: map-e7_01_000.gfrm
!@!!Wavelengths    1.54184   1.54056   1.54439
!@!!Frame angles: 2Theta: 63.000 Omega: 50.000 Phi: 0.000 Chi: 90.000
!@!!Integration range: 2Theta: 53.000 to 73.000  Gamma: -105.000 to -75.000
!@!!Integration method: bin normalized
!@!N
!@!SS
!@!M
!@!L 0.0 0.0 0.0 0.0
!@!XDegrees
!@!YCounts
53.000 6.79625
53.005 7.252885
53.010 7.330202
53.015 7.251467
53.020 7.629191
53.025 7.884359
53.030 8.068024
53.035 8.003587
53.040 7.588867
53.045 7.526214
53.050 7.106254
53.055 7.03958
53.060 6.962348
53.065 7.032462
53.070 7.022161
53.075 7.14389
53.080 7.544808
53.085 7.890555
53.090 7.907372
53.095 8.093185
53.100 7.928989
53.105 8.250918
53.110 8.503917
53.115 8.585261
53.120 8.590591
53.125 8.571404
53.130 8.269696
53.135 8.054493
53.140 7.766497
53.145 7.347593
53.150 6.760485
53.155 6.593791
53.160 6.78783
53.165 7.29093
53.170 7.384696
53.175 7.438456
53.180 7.845305
53.185 8.241464
53.190 8.390846
53.195 8.125955
53.200 7.816957
53.205 8.019746
53.210 8.08938
53.215 7.902287
53.220 7.938876
53.225 8.183642
53.230 8.375082
53.235 8.535022
53.240 8.657874
53.245 8.574965
53.250 8.785282
53.255 8.788898
53.260 8.481401
53.265 8.822895
53.270 8.534295
53.275 8.141586
53.280 8.153409
53.285 7.738604
53.290 7.848446
53.295 7.892465
53.300 7.634499
53.305 8.006215
53.310 7.974242
53.315 8.260206
53.320 8.665874
53.325 8.408397
53.330 8.299873
53.335 8.304631
53.340 7.97965
53.345 7.913233
53.350 7.54071
53.355 7.885067
53.360 8.54943
53.365 8.672192
53.370 8.748302
53.375 8.906726
53.380 8.917186
53.385 8.905146
53.390 8.581412
53.395 8.306812
53.400 8.450716
53.405 8.391046
53.410 8.703424
53.415 8.963334
53.420 9.168117
53.425 8.891659
53.430 8.815155
53.435 8.681483
53.440 9.037561
53.445 8.952927
53.450 8.521362
53.455 8.193968
53.460 8.371923
53.465 8.511423
53.470 8.116131
53.475 8.015132
53.480 7.989769
53.485 8.192529
53.490 8.371449
53.495 8.572999
53.500 8.878757
53.505 8.995998
53.510 8.640574
53.515 8.936316
53.520 8.719392
53.525 8.611301
53.530 8.108797
53.535 7.921315
53.540 8.021865
53.545 8.180408
53.550 8.198754
53.555 8.388034
53.560 8.038838
53.565 8.171437
53.570 8.220704
53.575 8.148878
53.580 8.285941
53.585 8.09321
53.590 8.081319
53.595 8.132997
53.600 8.127328
53.605 8.36429
53.610 8.294337
53.615 8.348071
53.620 8.293027
53.625 8.154591
53.630 8.11556
53.635 8.177023
53.640 8.410401
53.645 8.643091
53.650 8.429337
53.655 8.179332
53.660 8.362521
53.665 8.434343
53.670 8.31902
53.675 8.177477
53.680 7.786373
53.685 7.61893
53.690 8.139759
53.695 8.348248
53.700 8.608374
53.705 9.052934
53.710 9.655654
53.715 9.959107
53.720 10.337478
53.725 10.0637
53.730 9.513433
53.735 8.985298
53.740 8.378235
53.745 8.093416
53.750 8.011388
53.755 8.175761
53.760 8.54247
53.765 9.246446
53.770 9.322474
53.775 9.056752
53.780 8.985891
53.785 8.946202
53.790 8.887026
53.795 9.019547
53.800 9.145269
53.805 9.295193
53.810 9.695912
53.815 9.658128
53.820 9.649262
53.825 9.750182
53.830 9.464566
53.835 9.331895
53.840 9.466749
53.845 9.184581
53.850 9.07802
53.855 8.719072
53.860 8.347556
53.865 8.441286
53.870 8.320057
53.875 7.989791
53.880 7.833643
53.885 8.024571
53.890 8.191227
53.895 8.398698
53.900 8.182342
53.905 8.308075
53.910 8.431854
53.915 8.697312
53.920 8.166558
53.925 8.109921
53.930 7.958095
53.935 7.801234
53.940 7.653131
53.945 7.645613
53.950 7.946801
53.955 8.261251
53.960 8.21223
53.965 8.262797
53.970 8.520794
53.975 8.613033
53.980 8.777539
53.985 8.792973
53.990 9.349237
53.995 9.325357
54.000 9.262183
54.005 9.10033
54.010 9.11093
54.015 9.03154
54.020 9.108624
54.025 9.096672
54.030 9.541756
54.035 9.402525
54.040 9.080193
54.045 9.174417
54.050 9.429805
54.055 9.224905
54.060 9.067415
54.065 8.899765
54.070 9.377546
54.075 9.561703
54.080 9.457145
54.085 9.304478
54.090 9.024739
54.095 9.066486
54.100 8.624194
54.105 8.820488
54.110 8.961646
54.115 8.887097
54.120 8.766512
54.125 8.869351
54.130 8.777411
54.135 8.642994
54.140 8.337899
54.145 8.494874
54.150 8.400053
54.155 8.34776
54.160 8.237886
54.165 8.611032
54.170 8.919586
54.175 8.550297
54.180 8.750758
54.185 9.152578
54.190 9.268049
54.195 9.270942
54.200 8.957885
54.205 9.093993
54.210 8.96449
54.215 8.386242
54.220 7.964234
54.225 7.862761
54.230 8.107544
54.235 8.629327
54.240 8.798556
54.245 8.718794
54.250 8.701859
54.255 9.098119
54.260 9.283813
54.265 8.690747
54.270 7.98511
54.275 7.91381
54.280 8.039207
54.285 8.307709
54.290 8.563464
54.295 9.200756
54.300 9.769453
54.305 10.304225
54.310 10.349054
54.315 10.409145
54.320 10.255055
54.325 9.876295
54.330 9.438685
54.335 9.831826
54.340 10.331683
54.345 10.550676
54.350 10.687943
54.355 10.58153
54.360 10.67128
54.365 10.783635
54.370 9.966429
54.375 9.257065
54.380 9.191147
54.385 9.06233
54.390 9.295115
54.395 9.339802
54.400 9.024572
54.405 9.550759
54.410 9.580453
54.415 9.24036
54.420 9.036394
54.425 8.914289
54.430 9.559129
54.435 9.231478
54.440 9.773084
54.445 10.419876
54.450 10.919868
54.455 10.830668
54.460 11.079697
54.465 10.684044
54.470 10.663028
54.475 10.04242
54.480 9.765813
54.485 10.10412
54.490 10.148516
54.495 9.783028
54.500 10.169061
54.505 10.168101
54.510 9.873501
54.515 9.646441
54.520 10.173099
54.525 10.163655
54.530 9.880629
54.535 9.399159
54.540 9.786795
54.545 10.1152
54.550 9.784843
54.555 9.649162
54.560 9.946503
54.565 10.131038
54.570 10.743678
54.575 10.75577
54.580 10.521863
54.585 10.903236
54.590 10.436199
54.595 10.086101
54.600 10.112522
54.605 9.687018
54.610 9.489882
54.615 9.558272
54.620 9.79295
54.625 9.701498
54.630 9.643417
54.635 9.490711
54.640 9.423316
54.645 9.514559
54.650 9.344635
54.655 9.238055
54.660 9.634312
54.665 9.203387
54.670 9.144928
54.675 9.253766
54.680 9.193995
54.685 9.238323
54.690 8.583735
54.695 8.685111
54.700 9.146523
54.705 9.097992
54.710 9.359475
54.715 9.59587
54.720 9.388586
54.725 9.61904
54.730 9.940561
54.735 9.788019
54.740 9.709926
54.745 9.768621
54.750 10.351761
54.755 10.608576
54.760 10.742675
54.765 10.478989
54.770 10.936986
54.775 10.80071
54.780 10.718984
54.785 10.187578
54.790 10.293298
54.795 10.172306
54.800 10.029325
54.805 10.061042
54.810 9.802396
54.815 9.388907
54.820 9.089171
54.825 9.209742
54.830 9.137409
54.835 9.439865
54.840 9.169575
54.845 9.374268
54.850 9.584628
54.855 9.860704
54.860 9.846792
54.865 10.25192
54.870 10.297874
54.875 10.423146
54.880 9.863043
54.885 10.054488
54.890 10.272369
54.895 10.441041
54.900 10.250497
54.905 10.288291
54.910 10.666748
54.915 11.18629
54.920 10.824107
54.925 10.418343
54.930 10.150823
54.935 9.871339
54.940 9.438976
54.945 9.341666
54.950 9.718639
54.955 9.876575
54.960 9.827472
54.965 10.04437
54.970 10.241641
54.975 10.561088
54.980 10.317916
54.985 10.442359
54.990 10.950416
54.995 11.381627
55.000 11.458392
55.005 11.989926
55.010 12.242603
55.015 11.816149
55.020 11.50572
55.025 11.285332
55.030 11.163871
55.035 10.953458
55.040 10.661633
55.045 10.477383
55.050 11.16086
55.055 11.253358
55.060 10.925184
55.065 10.476334
55.070 10.647522
55.075 10.773796
55.080 10.924685
55.085 10.640476
55.090 10.638262
55.095 10.814275
55.100 11.027442
55.105 11.051763
55.110 11.425374
55.115 11.687266
55.120 11.740849
55.125 11.389649
55.130 10.943887
55.135 11.083581
55.140 10.981431
55.145 10.664092
55.150 10.596194
55.155 10.314422
55.160 10.287644
55.165 10.493379
55.170 10.098293
55.175 9.801646
55.180 9.669507
55.185 9.495447
55.190 10.124617
55.195 10.688154
55.200 10.855449
55.205 11.012828
55.210 11.592452
55.215 11.499266
55.220 11.406905
55.225 11.148019
55.230 10.507474
55.235 10.218206
55.240 9.930769
55.245 9.569817
55.250 9.631282
55.255 9.28023
55.260 8.7913
55.265 8.956635
55.270 9.456578
55.275 9.631854
55.280 9.759455
55.285 10.016223
55.290 10.174105
55.295 10.698079
55.300 10.690561
55.305 10.540803
55.310 10.524903
55.315 10.455229
55.320 10.623909
55.325 11.127536
55.330 11.037307
55.335 10.914381
55.340 10.613134
55.345 10.406174
55.350 10.201894
55.355 9.689126
55.360 9.782052
55.365 10.009046
55.370 10.143595
55.375 10.368785
55.380 10.809904
55.385 10.953844
55.390 10.866468
55.395 10.668707
55.400 10.082729
55.405 10.071417
55.410 9.755854
55.415 9.343086
55.420 9.653977
55.425 10.046875
55.430 10.135757
55.435 10.78877
55.440 11.212464
55.445 11.681993
55.450 11.737504
55.455 11.198133
55.460 10.799285
55.465 10.368089
55.470 10.213067
55.475 9.902507
55.480 9.572077
55.485 9.667448
55.490 9.92454
55.495 10.058055
55.500 9.909019
55.505 9.765061
55.510 10.010919
55.515 10.445314
55.520 10.46807
55.525 10.467319
55.530 10.397919
55.535 10.677755
55.540 10.424851
55.545 10.266273
55.550 10.279347
55.555 10.282025
55.560 10.668628
55.565 11.037124
55.570 11.104843
55.575 11.528319
55.580 11.911869
55.585 11.69259
55.590 11.456278
55.595 11.49869
55.600 11.623882
55.605 11.481069
55.610 10.893727
55.615 10.168017
55.620 9.904908
55.625 10.228867
55.630 10.076667
55.635 9.858263
55.640 9.994624
55.645 10.486
55.650 10.659897
55.655 11.019968
55.660 10.938781
55.665 11.039372
55.670 11.501776
55.675 11.94675
55.680 12.078034
55.685 12.478905
55.690 12.519703
55.695 12.324644
55.700 12.309949
55.705 11.512478
55.710 10.788884
55.715 10.717439
55.720 10.610563
55.725 10.741426
55.730 10.66032
55.735 10.32465
55.740 10.662432
55.745 10.746319
55.750 10.385086
55.755 10.350565
55.760 10.184832
55.765 10.006173
55.770 10.338935
55.775 10.345736
55.780 10.245167
55.785 10.035317
55.790 9.923203
55.795 10.082994
55.800 10.300525
55.805 10.358116
55.810 10.349488
55.815 10.146956
55.820 10.371967
55.825 10.313157
55.830 10.415306
55.835 10.355555
55.840 10.372233
55.845 10.40447
55.850 10.982837
55.855 11.109861
55.860 11.519815
55.865 11.361109
55.870 11.154728
55.875 11.724578
55.880 12.13191
55.885 12.08828
55.890 12.012215
55.895 11.568082
55.900 11.769385
55.905 11.753283
55.910 11.630155
55.915 11.790096
55.920 11.736787
55.925 11.90309
55.930 12.036122
55.935 12.290132
55.940 12.139317
55.945 12.139789
55.950 11.722765
55.955 11.396832
55.960 10.982231
55.965 10.941018
55.970 11.263989
55.975 11.312797
55.980 10.925423
55.985 10.751406
55.990 10.69328
55.995 10.76298
56.000 11.017473
56.005 10.631182
56.010 10.736087
56.015 10.915223
56.020 11.065302
56.025 11.017349
56.030 10.773809
56.035 10.313175
56.040 9.911194
56.045 9.709296
56.050 9.986043
56.055 10.06089
56.060 10.537814
56.065 11.175868
56.070 11.36572
56.075 12.182319
56.080 12.623138
56.085 12.922996
56.090 13.36982
56.095 13.216467
56.100 13.240986
56.105 13.229181
56.110 12.616814
56.115 12.081902
56.120 11.468604
56.125 11.391072
56.130 11.202703
56.135 10.972157
56.140 10.669022
56.145 10.624923
56.150 10.810019
56.155 11.06209
56.160 10.858656
56.165 11.260256
56.170 11.349001
56.175 11.455272
56.180 11.549901
56.185 10.942648
56.190 10.408376
56.195 10.332354
56.200 10.147925
56.205 10.443919
56.210 10.72878
56.215 10.770491
56.220 10.999063
56.225 11.405964
56.230 11.500845
56.235 11.734596
56.240 11.469108
56.245 11.273815
56.250 11.633245
56.255 12.159368
56.260 12.441578
56.265 11.980881
56.270 11.534309
56.275 12.007906
56.280 12.387184
56.285 11.863711
56.290 11.210904
56.295 11.095686
56.300 11.090685
56.305 11.330334
56.310 11.179976
56.315 11.164639
56.320 11.554506
56.325 11.445158
56.330 11.456022
56.335 11.652616
56.340 11.267348
56.345 11.049975
56.350 10.940487
56.355 11.341227
56.360 11.967505
56.365 12.121528
56.370 12.443402
56.375 12.958673
56.380 13.350863
56.385 13.242801
56.390 12.626858
56.395 12.019325
56.400 11.780006
56.405 11.383465
56.410 10.746208
56.415 10.323259
56.420 10.419745
56.425 10.96231
56.430 11.33056
56.435 11.813504
56.440 12.045087
56.445 12.109058
56.450 12.046673
56.455 11.952062
56.460 11.783422
56.465 11.615888
56.470 11.304626
56.475 11.030936
56.480 11.254651
56.485 11.589294
56.490 11.901752
56.495 11.779133
56.500 11.574337
56.505 11.617234
56.510 11.732903
56.515 12.081968
56.520 12.130699
56.525 11.649652
56.530 11.908457
56.535 12.011936
56.540 11.904363
56.545 11.943404
56.550 11.771457
56.555 11.424831
56.560 11.721836
56.565 11.457011
56.570 11.623668
56.575 11.763117
56.580 11.412269
56.585 11.357192
56.590 11.766089
56.595 11.854687
56.600 11.65405
56.605 11.975358
56.610 12.193092
56.615 12.304905
56.620 12.460003
56.625 12.227864
56.630 12.408155
56.635 12.602494
56.640 12.109035
56.645 11.802675
56.650 11.639085
56.655 10.871145
56.660 11.158242
56.665 10.868213
56.670 11.248348
56.675 11.270929
56.680 11.281103
56.685 11.743158
56.690 12.26045
56.695 12.069006
56.700 12.31363
56.705 12.106261
56.710 12.150268
56.715 11.832014
56.720 11.912046
56.725 12.20508
56.730 12.498844
56.735 12.180904
56.740 12.234039
56.745 12.393584
56.750 12.664282
56.755 12.450544
56.760 12.12657
56.765 12.517161
56.770 12.711075
56.775 12.580997
56.780 12.536103
56.785 12.281889
56.790 12.10752
56.795 12.260041
56.800 11.992506
56.805 12.243189
56.810 11.981782
56.815 11.785407
56.820 11.931388
56.825 11.662113
56.830 11.483395
56.835 11.083629
56.840 11.038094
56.845 11.250686
56.850 11.471622
56.855 11.697382
56.860 12.083001
56.865 12.149811
56.870 12.386454
56.875 12.791018
56.880 13.133097
56.885 13.420088
56.890 13.604959
56.895 13.619394
56.900 14.127578
56.905 14.418336
56.910 14.015619
56.915 14.183596
56.920 14.224843
56.925 14.466267
56.930 14.270496
56.935 14.062603
56.940 13.927713
56.945 13.976434
56.950 13.523792
56.955 13.063115
56.960 12.611491
56.965 12.197916
56.970 12.010398
56.975 12.253263
56.980 12.252403
56.985 12.394105
56.990 12.264367
56.995 12.182773
57.000 12.519654
57.005 12.157107
57.010 11.592741
57.015 11.828515
57.020 12.240042
57.025 12.711426
57.030 12.529395
57.035 12.276944
57.040 12.436494
57.045 12.487345
57.050 11.921866
57.055 11.374737
57.060 11.463878
57.065 11.688103
57.070 11.58211
57.075 11.624915
57.080 11.854359
57.085 12.722504
57.090 12.521128
57.095 12.21218
57.100 12.116058
57.105 12.216951
57.110 12.281472
57.115 12.397799
57.120 12.656499
57.125 13.409089
57.130 13.550132
57.135 13.636014
57.140 13.570516
57.145 13.549559
57.150 12.917633
57.155 12.00488
57.160 12.103062
57.165 12.301076
57.170 12.094105
57.175 12.168962
57.180 12.68537
57.185 13.391982
57.190 13.839092
57.195 13.849209
57.200 14.363861
57.205 15.40385
57.210 15.517482
57.215 14.774686
57.220 14.205327
57.225 14.105455
57.230 13.266966
57.235 12.694766
57.240 12.535497
57.245 12.993122
57.250 13.250984
57.255 13.581395
57.260 13.577687
57.265 13.898053
57.270 13.819612
57.275 13.235664
57.280 12.836744
57.285 13.087707
57.290 13.389433
57.295 13.716063
57.300 13.966717
57.305 14.827225
57.310 15.344646
57.315 15.093532
57.320 14.65128
57.325 14.61541
57.330 14.442133
57.335 13.932972
57.340 13.452478
57.345 13.116325
57.350 13.807332
57.355 13.995078
57.360 13.687432
57.365 13.893939
57.370 14.230697
57.375 13.930154
57.380 13.989883
57.385 14.349736
57.390 14.723968
57.395 14.432075
57.400 14.731625
57.405 14.664214
57.410 15.083041
57.415 15.209485
57.420 14.614529
57.425 14.724245
57.430 14.887116
57.435 14.575251
57.440 14.61182
57.445 14.51566
57.450 14.778303
57.455 15.156727
57.460 15.01737
57.465 14.975522
57.470 15.60958
57.475 15.690728
57.480 15.559445
57.485 14.924857
57.490 14.738364
57.495 14.813021
57.500 14.910766
57.505 14.67941
57.510 15.553559
57.515 16.247547
57.520 16.55764
57.525 16.66522
57.530 16.082951
57.535 15.721069
57.540 15.389338
57.545 14.693762
57.550 14.391906
57.555 14.415497
57.560 14.089664
57.565 14.605712
57.570 14.809143
57.575 14.572422
57.580 14.364158
57.585 14.092866
57.590 13.910267
57.595 14.192781
57.600 13.912659
57.605 13.408872
57.610 13.533311
57.615 13.132311
57.620 13.397933
57.625 13.546511
57.630 13.712022
57.635 13.974839
57.640 13.900009
57.645 13.57381
57.650 13.881505
57.655 14.079098
57.660 13.759903
57.665 13.131104
57.670 13.006097
57.675 13.287382
57.680 13.308255
57.685 13.219494
57.690 12.937658
57.695 13.526555
57.700 13.817965
57.705 14.337796
57.710 14.852114
57.715 14.868977
57.720 15.136443
57.725 15.246639
57.730 14.907453
57.735 14.987108
57.740 14.64212
57.745 14.692294
57.750 14.958569
57.755 14.596806
57.760 14.720845
57.765 15.146307
57.770 14.522446
57.775 14.309913
57.780 14.354367
57.785 13.995824
57.790 14.002857
57.795 13.774404
57.800 13.544204
57.805 13.838742
57.810 14.203273
57.815 13.738894
57.820 13.674759
57.825 13.636021
57.830 13.627594
57.835 13.529132
57.840 13.57015
57.845 12.919641
57.850 13.232263
57.855 13.456118
57.860 13.558226
57.865 13.484479
57.870 13.246351
57.875 13.439038
57.880 13.837254
57.885 13.882256
57.890 13.812667
57.895 13.600959
57.900 13.898759
57.905 14.196851
57.910 13.747747
57.915 13.85128
57.920 13.584163
57.925 14.110903
57.930 14.433254
57.935 14.133034
57.940 13.896895
57.945 14.322596
57.950 14.327054
57.955 14.35594
57.960 13.694412
57.965 13.541778
57.970 13.788001
57.975 14.02931
57.980 14.012525
57.985 14.576171
57.990 14.864444
57.995 15.491759
58.000 15.610841
58.005 15.912348
58.010 16.190536
58.015 16.212767
58.020 16.17782
58.025 16.450588
58.030 16.223633
58.035 16.103319
58.040 16.735514
58.045 16.62501
58.050 16.798834
58.055 16.888783
58.060 17.10973
58.065 17.582409
58.070 17.762342
58.075 17.104616
58.080 16.89007
58.085 16.096403
58.090 16.334835
58.095 16.040852
58.100 15.393189
58.105 15.10228
58.110 15.572236
58.115 16.185509
58.120 16.514776
58.125 16.732533
58.130 16.939901
58.135 17.560629
58.140 17.456217
58.145 17.445803
58.150 17.506092
58.155 17.680733
58.160 17.004642
58.165 16.923313
58.170 16.594719
58.175 17.068058
58.180 16.749062
58.185 16.760561
58.190 16.871542
58.195 17.149143
58.200 17.154938
58.205 17.819218
58.210 17.601324
58.215 18.027584
58.220 18.270445
58.225 18.688848
58.230 19.249165
58.235 19.723957
58.240 19.569981
58.245 19.921173
58.250 20.194761
58.255 19.991179
58.260 19.50765
58.265 18.909756
58.270 18.806219
58.275 19.475739
58.280 19.544817
58.285 19.640223
58.290 19.611229
58.295 20.166931
58.300 20.828163
58.305 21.277075
58.310 20.768232
58.315 20.386143
58.320 20.401205
58.325 20.549719
58.330 20.83674
58.335 21.072136
58.340 21.377472
58.345 22.120613
58.350 23.162714
58.355 23.249712
58.360 24.374685
58.365 24.820572
58.370 24.766661
58.375 24.222246
58.380 24.038149
58.385 24.829292
58.390 25.335621
58.395 24.555399
58.400 24.272282
58.405 24.360504
58.410 24.726418
58.415 24.639067
58.420 24.662018
58.425 24.887716
58.430 25.112087
58.435 25.143221
58.440 25.306538
58.445 25.473593
58.450 24.762712
58.455 23.435156
58.460 23.187782
58.465 23.109629
58.470 23.518063
58.475 23.309069
58.480 23.358667
58.485 24.162855
58.490 25.902971
58.495 25.847443
58.500 25.813198
58.505 25.915846
58.510 26.093407
58.515 26.694378
58.520 26.387352
58.525 25.294758
58.530 25.522604
58.535 26.520407
