!@!!GADDS PLOTSO FILE: Chi integration type
!@!!Title/SampleName: map-89
!@!!Comment: ?
!@!!User: Bruker Instrument Administrator
!@!!Site: University of Illinois Chicago
!@!!Frame: map-89_01_000.gfrm
!@!!Wavelengths    1.54184   1.54056   1.54439
!@!!Frame angles: 2Theta: 63.000 Omega: 50.000 Phi: 0.000 Chi: 90.000
!@!!Integration range: 2Theta: 53.000 to 73.000  Gamma: -105.000 to -75.000
!@!!Integration method: bin normalized
!@!N
!@!SS
!@!M
!@!L 0.0 0.0 0.0 0.0
!@!XDegrees
!@!YCounts
53.000 8.828538
53.005 8.746514
53.010 8.724222
53.015 9.144542
53.020 9.498771
53.025 9.313824
53.030 9.368638
53.035 9.622964
53.040 9.627628
53.045 9.371377
53.050 8.591168
53.055 8.060683
53.060 7.884231
53.065 7.891799
53.070 7.659694
53.075 8.060957
53.080 8.661819
53.085 9.204727
53.090 9.627701
53.095 9.494826
53.100 9.776255
53.105 9.998618
53.110 9.609811
53.115 9.889158
53.120 9.876109
53.125 9.835763
53.130 9.64228
53.135 8.87134
53.140 8.81477
53.145 8.697306
53.150 8.536686
53.155 8.453415
53.160 8.513118
53.165 8.73224
53.170 8.762565
53.175 8.846321
53.180 8.935639
53.185 8.916682
53.190 8.789172
53.195 8.640263
53.200 8.859344
53.205 9.111526
53.210 8.989617
53.215 9.000427
53.220 8.781855
53.225 9.080089
53.230 8.70742
53.235 8.337816
53.240 8.114594
53.245 8.244053
53.250 8.538309
53.255 8.466573
53.260 9.191864
53.265 9.97866
53.270 10.163422
53.275 10.17384
53.280 9.68552
53.285 9.334573
53.290 8.766559
53.295 8.302091
53.300 8.006753
53.305 8.084458
53.310 8.311635
53.315 8.660452
53.320 9.07692
53.325 9.243439
53.330 9.405311
53.335 9.490624
53.340 9.727671
53.345 9.575921
53.350 9.545655
53.355 9.091206
53.360 9.231889
53.365 9.161613
53.370 9.620858
53.375 9.526169
53.380 9.865238
53.385 9.755281
53.390 10.457915
53.395 10.268261
53.400 10.195617
53.405 10.069593
53.410 10.214564
53.415 10.149199
53.420 10.645427
53.425 10.561202
53.430 10.5955
53.435 10.127039
53.440 9.626032
53.445 9.261891
53.450 8.695896
53.455 8.519284
53.460 8.284724
53.465 7.917447
53.470 8.147294
53.475 8.230163
53.480 8.480437
53.485 8.500513
53.490 8.152001
53.495 8.566651
53.500 8.890508
53.505 9.106789
53.510 9.271599
53.515 9.925449
53.520 10.36643
53.525 10.261703
53.530 10.111937
53.535 10.153222
53.540 10.102961
53.545 10.154671
53.550 9.764004
53.555 9.665538
53.560 9.894455
53.565 10.189897
53.570 10.301706
53.575 10.205953
53.580 9.900291
53.585 9.865782
53.590 9.941737
53.595 10.014618
53.600 9.751196
53.605 9.401305
53.610 9.200579
53.615 9.04532
53.620 8.740931
53.625 8.346233
53.630 8.471935
53.635 8.924711
53.640 9.417971
53.645 9.315737
53.650 9.345854
53.655 9.79797
53.660 9.821961
53.665 8.795252
53.670 8.607651
53.675 8.676723
53.680 8.813111
53.685 8.786708
53.690 8.959352
53.695 9.267838
53.700 9.468273
53.705 9.159745
53.710 9.158803
53.715 9.056399
53.720 9.044194
53.725 9.084986
53.730 9.457668
53.735 9.405947
53.740 9.560534
53.745 9.790327
53.750 10.198727
53.755 10.003777
53.760 9.577666
53.765 9.312218
53.770 9.411798
53.775 9.043947
53.780 8.940469
53.785 8.736615
53.790 8.601113
53.795 9.075362
53.800 9.70682
53.805 9.915637
53.810 10.034096
53.815 10.215262
53.820 10.80861
53.825 10.554784
53.830 10.238118
53.835 10.071209
53.840 10.326344
53.845 10.628139
53.850 10.921907
53.855 11.431414
53.860 11.913332
53.865 11.825232
53.870 11.85119
53.875 11.483347
53.880 11.257954
53.885 10.966902
53.890 10.584341
53.895 10.511708
53.900 10.878283
53.905 11.030943
53.910 10.778425
53.915 10.560636
53.920 10.294467
53.925 9.999048
53.930 10.190779
53.935 9.594036
53.940 9.582233
53.945 9.794873
53.950 9.97924
53.955 10.055289
53.960 9.890181
53.965 9.939329
53.970 10.11655
53.975 10.044845
53.980 10.245848
53.985 10.348448
53.990 10.726966
53.995 10.804834
54.000 10.505164
54.005 10.772462
54.010 11.459373
54.015 10.904408
54.020 10.338776
54.025 9.99434
54.030 10.536077
54.035 10.73496
54.040 10.364895
54.045 10.309923
54.050 10.695899
54.055 11.144392
54.060 11.129645
54.065 10.977055
54.070 10.771504
54.075 10.580283
54.080 10.499357
54.085 10.109562
54.090 10.153278
54.095 10.399328
54.100 11.063963
54.105 11.463285
54.110 11.539931
54.115 11.645416
54.120 11.65763
54.125 11.60965
54.130 10.78756
54.135 10.043625
54.140 10.135982
54.145 10.415311
54.150 10.491822
54.155 10.39218
54.160 10.224423
54.165 10.531034
54.170 10.503517
54.175 10.147159
54.180 9.975993
54.185 10.03307
54.190 10.302824
54.195 10.666112
54.200 10.802126
54.205 10.777143
54.210 10.736823
54.215 10.756977
54.220 10.800692
54.225 10.776417
54.230 10.953299
54.235 11.230224
54.240 11.399248
54.245 11.26046
54.250 11.024921
54.255 10.877135
54.260 10.281513
54.265 9.808786
54.270 9.54528
54.275 9.493279
54.280 9.329348
54.285 9.758608
54.290 10.136548
54.295 10.482558
54.300 10.21102
54.305 10.015861
54.310 10.17039
54.315 10.193357
54.320 9.666729
54.325 9.748414
54.330 9.731418
54.335 10.133847
54.340 10.611596
54.345 11.042555
54.350 11.322955
54.355 11.221034
54.360 11.039823
54.365 11.25622
54.370 11.701874
54.375 11.709793
54.380 11.521987
54.385 11.761879
54.390 12.239209
54.395 12.329224
54.400 11.709321
54.405 10.716227
54.410 10.505567
54.415 10.21296
54.420 9.61928
54.425 9.470985
54.430 9.567656
54.435 9.943151
54.440 10.428121
54.445 10.497995
54.450 10.830132
54.455 11.044664
54.460 11.354347
54.465 11.329389
54.470 11.707192
54.475 11.652019
54.480 11.508674
54.485 11.15243
54.490 10.985283
54.495 10.481149
54.500 10.913382
54.505 10.784695
54.510 11.054995
54.515 11.416383
54.520 11.590674
54.525 11.554171
54.530 11.64918
54.535 11.412665
54.540 11.293922
54.545 11.059422
54.550 10.807068
54.555 10.814856
54.560 10.811336
54.565 10.919251
54.570 10.738493
54.575 11.065306
54.580 11.248259
54.585 11.498679
54.590 11.608815
54.595 11.957176
54.600 12.10093
54.605 11.764822
54.610 11.235379
54.615 10.722239
54.620 10.857265
54.625 10.467662
54.630 9.845053
54.635 9.416056
54.640 9.550704
54.645 9.680447
54.650 10.152225
54.655 10.209514
54.660 10.763315
54.665 11.132594
54.670 11.413296
54.675 11.287327
54.680 10.947735
54.685 10.721046
54.690 10.417307
54.695 10.330231
54.700 10.405615
54.705 10.3484
54.710 10.821184
54.715 10.651405
54.720 10.71749
54.725 10.891381
54.730 10.722568
54.735 10.888516
54.740 10.916248
54.745 11.207507
54.750 11.470999
54.755 11.335398
54.760 11.846554
54.765 12.037755
54.770 12.128095
54.775 11.807564
54.780 10.887074
54.785 10.656889
54.790 10.254737
54.795 9.803618
54.800 9.718889
54.805 9.771085
54.810 9.806017
54.815 10.525611
54.820 11.310896
54.825 11.957662
54.830 12.312713
54.835 12.130248
54.840 12.17487
54.845 12.351134
54.850 12.292128
54.855 11.400595
54.860 10.706614
54.865 10.307852
54.870 10.204
54.875 10.497365
54.880 10.495445
54.885 10.701492
54.890 11.003597
54.895 11.192881
54.900 10.969994
54.905 10.749741
54.910 10.629913
54.915 10.335006
54.920 10.46375
54.925 10.302364
54.930 10.298745
54.935 10.755824
54.940 11.019471
54.945 11.151652
54.950 11.483693
54.955 11.619758
54.960 12.160507
54.965 12.690634
54.970 12.510654
54.975 12.273971
54.980 12.191195
54.985 12.021328
54.990 11.587965
54.995 11.238054
55.000 10.85715
55.005 10.575799
55.010 10.918732
55.015 10.986858
55.020 11.385346
55.025 11.339177
55.030 11.127782
55.035 11.45973
55.040 11.426608
55.045 11.177086
55.050 11.106419
55.055 10.978537
55.060 11.264271
55.065 10.899952
55.070 10.777028
55.075 10.790199
55.080 10.67515
55.085 10.758055
55.090 10.3382
55.095 10.51064
55.100 10.656188
55.105 11.200516
55.110 11.319279
55.115 11.426259
55.120 11.709249
55.125 11.913183
55.130 12.026545
55.135 12.281297
55.140 11.798491
55.145 11.824187
55.150 11.712452
55.155 11.685062
55.160 11.952772
55.165 11.545093
55.170 11.201183
55.175 11.048721
55.180 10.811268
55.185 10.436218
55.190 10.543118
55.195 10.597602
55.200 10.947318
55.205 10.96207
55.210 10.926041
55.215 10.912506
55.220 11.052673
55.225 11.004076
55.230 10.488064
55.235 10.46677
55.240 10.514009
55.245 10.778281
55.250 11.102638
55.255 11.074664
55.260 10.673957
55.265 11.092443
55.270 11.4034
55.275 11.510176
55.280 11.472097
55.285 11.45153
55.290 11.318223
55.295 11.558313
55.300 11.355852
55.305 11.104939
55.310 11.262152
55.315 11.573592
55.320 11.918752
55.325 12.442086
55.330 12.327664
55.335 12.479099
55.340 13.017068
55.345 13.18972
55.350 12.637012
55.355 12.010403
55.360 11.427651
55.365 11.177947
55.370 11.0709
55.375 10.720296
55.380 10.696321
55.385 11.070412
55.390 11.521497
55.395 12.133988
55.400 12.577727
55.405 12.140636
55.410 12.253553
55.415 12.733077
55.420 13.090317
55.425 13.52654
55.430 14.38757
55.435 14.887288
55.440 14.981445
55.445 14.602242
55.450 14.182282
55.455 13.760012
55.460 13.816926
55.465 13.379982
55.470 12.741961
55.475 12.640402
55.480 12.546453
55.485 12.254537
55.490 11.93277
55.495 11.089978
55.500 11.08953
55.505 11.394359
55.510 11.302612
55.515 11.230629
55.520 11.316792
55.525 11.261276
55.530 11.162077
55.535 10.898317
55.540 10.642487
55.545 10.936563
55.550 11.374262
55.555 11.582051
55.560 11.5576
55.565 11.60354
55.570 11.461695
55.575 11.928587
55.580 12.047029
55.585 11.75925
55.590 11.853722
55.595 11.974807
55.600 11.990818
55.605 11.979666
55.610 11.538703
55.615 11.16405
55.620 10.958642
55.625 10.922494
55.630 10.512415
55.635 10.368789
55.640 10.462908
55.645 10.623601
55.650 10.545762
55.655 10.97541
55.660 10.823636
55.665 11.099005
55.670 11.186943
55.675 11.027809
55.680 10.993497
55.685 11.258347
55.690 11.423515
55.695 11.331114
55.700 11.514778
55.705 11.420548
55.710 11.649508
55.715 11.441134
55.720 11.35322
55.725 11.213577
55.730 11.295414
55.735 11.285411
55.740 11.247054
55.745 11.531952
55.750 11.894181
55.755 11.996141
55.760 12.566385
55.765 12.40013
55.770 12.260446
55.775 12.134743
55.780 11.713055
55.785 11.353562
55.790 10.922667
55.795 10.260112
55.800 10.446679
55.805 10.190133
55.810 10.354281
55.815 10.655118
55.820 11.156776
55.825 11.061271
55.830 11.25668
55.835 12.024968
55.840 12.047817
55.845 12.421056
55.850 12.583487
55.855 12.280301
55.860 12.801179
55.865 12.81326
55.870 12.355358
55.875 12.773706
55.880 12.704769
55.885 12.436769
55.890 13.189138
55.895 13.220303
55.900 13.699591
55.905 13.504456
55.910 13.531654
55.915 13.560234
55.920 13.551311
55.925 12.481069
55.930 12.2496
55.935 11.943164
55.940 12.841115
55.945 13.559884
55.950 13.857847
55.955 14.523632
55.960 15.01551
55.965 15.058091
55.970 14.560293
55.975 14.046902
55.980 13.529973
55.985 13.17846
55.990 12.724456
55.995 12.801396
56.000 12.786869
56.005 13.269958
56.010 13.335962
56.015 13.489923
56.020 13.3723
56.025 13.493432
56.030 13.261967
56.035 13.327703
56.040 13.373592
56.045 12.964091
56.050 12.8009
56.055 12.992035
56.060 12.901499
56.065 12.94855
56.070 12.837298
56.075 12.177462
56.080 11.924953
56.085 12.137856
56.090 12.142026
56.095 12.009731
56.100 12.055297
56.105 12.621745
56.110 13.233464
56.115 12.980658
56.120 12.399584
56.125 12.245101
56.130 12.479161
56.135 12.308783
56.140 11.876101
56.145 11.330771
56.150 11.885785
56.155 12.388411
56.160 12.576555
56.165 12.539292
56.170 12.790866
56.175 13.166676
56.180 13.570047
56.185 13.516621
56.190 13.527605
56.195 13.016774
56.200 12.982291
56.205 12.891459
56.210 12.679162
56.215 12.976125
56.220 12.800264
56.225 13.267619
56.230 14.017748
56.235 14.09878
56.240 13.955635
56.245 14.203768
56.250 13.878287
56.255 13.405601
56.260 12.904108
56.265 12.667885
56.270 11.767479
56.275 11.367676
56.280 10.953142
56.285 11.035645
56.290 11.350951
56.295 11.003304
56.300 10.502413
56.305 10.75455
56.310 11.201591
56.315 11.368377
56.320 11.067795
56.325 11.12969
56.330 11.449147
56.335 11.947872
56.340 12.178601
56.345 12.108895
56.350 12.071299
56.355 12.051343
56.360 11.97618
56.365 11.973014
56.370 12.290017
56.375 12.724818
56.380 12.902347
56.385 13.414336
56.390 13.748274
56.395 13.926875
56.400 13.785615
56.405 14.351711
56.410 14.404933
56.415 13.880837
56.420 13.605555
56.425 13.437028
56.430 13.392143
56.435 13.289328
56.440 12.542865
56.445 11.852461
56.450 12.003718
56.455 11.765679
56.460 12.157255
56.465 12.03909
56.470 11.909262
56.475 12.164373
56.480 12.84625
56.485 12.812748
56.490 13.689649
56.495 13.806824
56.500 13.686644
56.505 14.0987
56.510 14.21333
56.515 13.534631
56.520 13.279063
56.525 13.026905
56.530 12.987105
56.535 13.162629
56.540 12.430562
56.545 12.44046
56.550 12.566213
56.555 12.592809
56.560 11.978486
56.565 11.639019
56.570 11.963621
56.575 11.807216
56.580 11.792152
56.585 12.270856
56.590 12.712004
56.595 13.07269
56.600 12.98562
56.605 13.154624
56.610 13.403336
56.615 13.135272
56.620 12.917685
56.625 12.736229
56.630 12.90698
56.635 12.793704
56.640 12.205738
56.645 12.158803
56.650 12.302105
56.655 12.31109
56.660 12.554955
56.665 12.068672
56.670 12.69171
56.675 13.044155
56.680 13.076984
56.685 13.048526
56.690 13.101245
56.695 12.739267
56.700 13.199944
56.705 12.940284
56.710 13.205483
56.715 13.282556
56.720 12.88639
56.725 12.929338
56.730 13.652884
56.735 14.036991
56.740 14.052585
56.745 13.761948
56.750 14.006645
56.755 14.344225
56.760 14.05669
56.765 13.447549
56.770 13.112823
56.775 13.434699
56.780 13.458105
56.785 13.492043
56.790 13.499308
56.795 13.712725
56.800 13.774754
56.805 14.453337
56.810 14.273598
56.815 14.216058
56.820 14.381922
56.825 14.692463
56.830 14.763232
56.835 14.948346
56.840 14.372793
56.845 14.508831
56.850 14.592924
56.855 14.44002
56.860 14.806857
56.865 14.875546
56.870 14.106988
56.875 13.546351
56.880 13.435027
56.885 13.754253
56.890 13.812485
56.895 13.426793
56.900 13.048323
56.905 13.648432
56.910 13.619828
56.915 13.43532
56.920 13.29191
56.925 13.095779
56.930 12.773357
56.935 12.967128
56.940 13.046591
56.945 13.554173
56.950 13.775267
56.955 13.732391
56.960 13.761888
56.965 13.935594
56.970 14.143691
56.975 14.509773
56.980 14.298406
56.985 14.142004
56.990 13.459945
56.995 13.173549
57.000 13.630124
57.005 13.168797
57.010 12.547642
57.015 12.808555
57.020 12.797704
57.025 13.446826
57.030 13.649042
57.035 13.222581
57.040 13.006269
57.045 13.293938
57.050 13.237114
57.055 13.680213
57.060 13.520004
57.065 13.6983
57.070 14.193016
57.075 14.800677
57.080 14.946965
57.085 14.975963
57.090 14.958665
57.095 15.184107
57.100 14.697261
57.105 14.590466
57.110 14.059457
57.115 13.584521
57.120 13.495529
57.125 13.27751
57.130 13.304426
57.135 13.347429
57.140 13.550379
57.145 14.023909
57.150 14.145766
57.155 13.894818
57.160 13.809022
57.165 13.826984
57.170 14.202436
57.175 14.29318
57.180 14.396434
57.185 15.167276
57.190 15.723369
57.195 15.957195
57.200 15.704679
57.205 15.693954
57.210 15.550817
57.215 15.395751
57.220 14.484443
57.225 13.899276
57.230 13.781868
57.235 13.993669
57.240 13.536149
57.245 12.681698
57.250 12.988346
57.255 13.51193
57.260 13.652544
57.265 13.790818
57.270 13.852145
57.275 14.768414
57.280 15.092437
57.285 14.42741
57.290 14.151167
57.295 13.884168
57.300 14.217033
57.305 13.815104
57.310 13.449347
57.315 13.899632
57.320 14.089327
57.325 13.780992
57.330 13.820261
57.335 13.412956
57.340 13.434255
57.345 13.258665
57.350 13.332913
57.355 14.131732
57.360 14.514397
57.365 14.658695
57.370 14.616585
57.375 14.739793
57.380 14.404723
57.385 13.845354
57.390 13.481276
57.395 13.543594
57.400 13.685424
57.405 14.040325
57.410 14.187332
57.415 14.596652
57.420 14.741899
57.425 14.842745
57.430 14.849465
57.435 14.394245
57.440 14.261102
57.445 13.997672
57.450 14.175298
57.455 14.074566
57.460 14.31001
57.465 14.434351
57.470 14.410025
57.475 14.164079
57.480 14.383476
57.485 13.926473
57.490 13.977393
57.495 13.855131
57.500 13.840576
57.505 13.837779
57.510 14.290111
57.515 14.461212
57.520 15.064805
57.525 15.163593
57.530 15.360714
57.535 15.607655
57.540 16.078716
57.545 15.936336
57.550 15.980672
57.555 16.140169
57.560 16.183685
57.565 15.459539
57.570 15.012601
57.575 14.149003
57.580 14.0232
57.585 14.006886
57.590 13.337885
57.595 13.472644
57.600 14.764115
57.605 15.287312
57.610 15.49796
57.615 15.456182
57.620 15.403909
57.625 15.927353
57.630 16.384434
57.635 15.721892
57.640 15.967917
57.645 16.330118
57.650 16.227972
57.655 16.268255
57.660 15.838963
57.665 15.413286
57.670 15.490149
57.675 15.862126
57.680 15.819769
57.685 15.725575
57.690 15.551932
57.695 15.613223
57.700 15.085288
57.705 14.521285
57.710 13.867343
57.715 13.924198
57.720 14.05222
57.725 14.117717
57.730 14.193998
57.735 14.319756
57.740 14.375478
57.745 14.142451
57.750 14.21882
57.755 14.222703
57.760 14.209395
57.765 14.268958
57.770 14.25848
57.775 14.800195
57.780 15.371165
57.785 15.587808
57.790 16.080021
57.795 16.070763
57.800 15.929444
57.805 15.711918
57.810 15.445102
57.815 15.033377
57.820 14.367253
57.825 13.613626
57.830 13.414105
57.835 13.652514
57.840 13.688379
57.845 14.008767
57.850 14.439595
57.855 14.931149
57.860 15.283152
57.865 15.45584
57.870 15.448464
57.875 15.090065
57.880 14.582694
57.885 14.194633
57.890 14.17064
57.895 14.08523
57.900 13.427596
57.905 13.460738
57.910 13.344172
57.915 13.247424
57.920 12.948092
57.925 12.518188
57.930 12.840434
57.935 13.609043
57.940 13.913041
57.945 14.342078
57.950 14.513016
57.955 14.879482
57.960 15.157647
57.965 14.942677
57.970 14.658742
57.975 14.526354
57.980 14.360652
57.985 14.530316
57.990 15.362136
57.995 15.888445
58.000 15.892114
58.005 15.936467
58.010 15.533019
58.015 15.615854
58.020 16.092867
58.025 15.618433
58.030 15.958454
58.035 16.206572
58.040 16.738747
58.045 17.15711
58.050 16.870403
58.055 17.117424
58.060 16.982533
58.065 16.630026
58.070 16.51362
58.075 16.629389
58.080 16.849796
58.085 16.913244
58.090 16.307409
58.095 15.847564
58.100 15.750995
58.105 16.007317
58.110 15.927533
58.115 16.275028
58.120 16.318012
58.125 16.276823
58.130 17.01236
58.135 17.029037
58.140 17.147041
58.145 17.109827
58.150 16.689487
58.155 16.354286
58.160 16.409533
58.165 16.351576
58.170 16.641342
58.175 16.62516
58.180 16.957439
58.185 16.944342
58.190 16.959976
58.195 16.660664
58.200 16.308187
58.205 16.019712
58.210 15.325147
58.215 14.445614
58.220 14.361401
58.225 14.250421
58.230 14.181786
58.235 14.081407
58.240 14.489051
58.245 14.706588
58.250 15.028129
58.255 15.221416
58.260 15.54751
58.265 16.21739
58.270 16.601028
58.275 16.101709
58.280 16.129204
58.285 16.637804
58.290 16.617184
58.295 16.007265
58.300 15.055659
58.305 14.697066
58.310 14.601541
58.315 14.911136
58.320 14.523337
58.325 14.312624
58.330 15.415014
58.335 16.480707
58.340 16.882013
58.345 17.147076
58.350 17.225569
58.355 17.950182
58.360 18.095057
58.365 17.669073
58.370 17.10804
58.375 16.493319
58.380 16.14465
58.385 15.776014
58.390 15.817961
58.395 15.74894
58.400 15.826449
58.405 15.834837
58.410 16.621195
58.415 16.913883
58.420 16.801926
58.425 16.668158
58.430 16.977129
58.435 17.271231
58.440 17.606646
58.445 17.221907
58.450 17.27569
58.455 17.233486
58.460 16.737085
58.465 16.99535
58.470 16.896873
58.475 17.52109
58.480 17.811811
58.485 17.763878
58.490 17.396679
