!@!!GADDS PLOTSO FILE: Chi integration type
!@!!Title/SampleName: map-26
!@!!Comment: ?
!@!!User: Bruker Instrument Administrator
!@!!Site: University of Illinois Chicago
!@!!Frame: map-26_01_000.gfrm
!@!!Wavelengths    1.54184   1.54056   1.54439
!@!!Frame angles: 2Theta: 63.000 Omega: 50.000 Phi: 0.000 Chi: 90.000
!@!!Integration range: 2Theta: 53.000 to 73.000  Gamma: -105.000 to -75.000
!@!!Integration method: bin normalized
!@!N
!@!SS
!@!M
!@!L 0.0 0.0 0.0 0.0
!@!XDegrees
!@!YCounts
53.000 8.053956
53.005 7.823217
53.010 7.908709
53.015 7.5397
53.020 7.39063
53.025 7.59207
53.030 8.00429
53.035 8.115951
53.040 7.775866
53.045 7.696934
53.050 7.980091
53.055 8.540799
53.060 8.425068
53.065 8.180895
53.070 8.39889
53.075 8.627871
53.080 8.665479
53.085 8.526066
53.090 8.135869
53.095 8.142105
53.100 8.307614
53.105 8.193539
53.110 8.069559
53.115 7.994673
53.120 7.658568
53.125 7.572927
53.130 7.496784
53.135 7.237247
53.140 7.221298
53.145 7.272371
53.150 6.901369
53.155 6.896828
53.160 6.973404
53.165 7.659735
53.170 8.020975
53.175 7.951927
53.180 8.29927
53.185 8.631085
53.190 9.044741
53.195 8.689454
53.200 7.899663
53.205 7.429848
53.210 7.152363
53.215 7.253747
53.220 7.261075
53.225 7.676248
53.230 7.988555
53.235 8.390706
53.240 8.908837
53.245 9.009559
53.250 8.952833
53.255 8.587413
53.260 8.694197
53.265 8.741509
53.270 9.038044
53.275 9.199151
53.280 9.379831
53.285 9.490543
53.290 9.21469
53.295 8.886605
53.300 8.543169
53.305 8.150893
53.310 7.900127
53.315 7.718236
53.320 7.660573
53.325 7.879371
53.330 8.18466
53.335 8.350259
53.340 8.398335
53.345 8.496972
53.350 8.251569
53.355 8.279176
53.360 8.002083
53.365 8.21307
53.370 8.557163
53.375 8.714936
53.380 8.729218
53.385 8.9502
53.390 8.960835
53.395 9.264213
53.400 9.077214
53.405 8.942431
53.410 9.088886
53.415 9.414547
53.420 9.41449
53.425 9.094707
53.430 8.903802
53.435 8.705965
53.440 8.587159
53.445 8.172069
53.450 8.460354
53.455 8.177842
53.460 8.344371
53.465 8.909356
53.470 9.342403
53.475 9.425699
53.480 9.33886
53.485 8.910863
53.490 9.302105
53.495 9.418736
53.500 8.900429
53.505 8.848144
53.510 9.239158
53.515 9.564916
53.520 9.427541
53.525 9.240732
53.530 9.560635
53.535 9.65351
53.540 9.573262
53.545 9.326738
53.550 9.184758
53.555 9.520465
53.560 9.696412
53.565 9.152985
53.570 9.081289
53.575 9.074666
53.580 9.771869
53.585 10.304747
53.590 10.447679
53.595 10.284177
53.600 10.064828
53.605 9.748809
53.610 9.657146
53.615 9.07277
53.620 8.838078
53.625 8.715622
53.630 9.176296
53.635 9.28603
53.640 9.489558
53.645 9.274001
53.650 9.163647
53.655 8.93116
53.660 8.341098
53.665 7.882362
53.670 7.974121
53.675 7.927892
53.680 7.731581
53.685 7.736513
53.690 7.639044
53.695 7.88719
53.700 8.152196
53.705 8.18929
53.710 8.103463
53.715 8.512015
53.720 8.719521
53.725 9.085665
53.730 9.249286
53.735 9.30648
53.740 9.416303
53.745 9.670666
53.750 9.653034
53.755 9.645129
53.760 9.857148
53.765 9.947412
53.770 9.615592
53.775 9.291027
53.780 9.08338
53.785 9.018959
53.790 9.014962
53.795 8.817332
53.800 8.768099
53.805 8.707987
53.810 9.057738
53.815 9.287496
53.820 9.287057
53.825 9.211758
53.830 9.271059
53.835 9.840043
53.840 10.935123
53.845 10.734408
53.850 10.224318
53.855 10.075026
53.860 10.157369
53.865 9.677379
53.870 9.037165
53.875 8.376359
53.880 8.601826
53.885 9.058224
53.890 9.154889
53.895 9.018979
53.900 8.764914
53.905 8.790138
53.910 8.477202
53.915 8.61571
53.920 8.692392
53.925 8.963278
53.930 9.575687
53.935 10.06566
53.940 9.983199
53.945 10.262384
53.950 10.205948
53.955 10.031934
53.960 9.849524
53.965 9.479671
53.970 9.456327
53.975 9.708912
53.980 9.63542
53.985 9.62566
53.990 9.517173
53.995 9.032578
54.000 9.022598
54.005 8.855956
54.010 8.853306
54.015 8.748807
54.020 8.85221
54.025 8.883708
54.030 8.917263
54.035 8.835403
54.040 8.639423
54.045 8.665236
54.050 8.651949
54.055 8.529568
54.060 8.502722
54.065 8.479568
54.070 8.806245
54.075 9.224816
54.080 9.385576
54.085 9.372313
54.090 9.696967
54.095 9.939605
54.100 9.704827
54.105 9.433544
54.110 9.772545
54.115 9.728792
54.120 9.640344
54.125 9.652541
54.130 10.092759
54.135 10.827107
54.140 10.577964
54.145 10.329837
54.150 10.518721
54.155 10.771986
54.160 11.10958
54.165 10.845482
54.170 11.107821
54.175 11.476702
54.180 11.461541
54.185 11.23839
54.190 11.17544
54.195 11.049274
54.200 10.949015
54.205 10.306166
54.210 10.138777
54.215 9.91876
54.220 9.710135
54.225 9.292065
54.230 9.054177
54.235 9.056708
54.240 9.206398
54.245 9.432766
54.250 9.577513
54.255 9.753143
54.260 9.77293
54.265 9.602199
54.270 9.446279
54.275 9.300308
54.280 9.485783
54.285 9.661119
54.290 9.657373
54.295 9.820919
54.300 9.852941
54.305 10.239529
54.310 10.113498
54.315 9.942345
54.320 10.402194
54.325 10.267188
54.330 10.135336
54.335 10.027906
54.340 9.882579
54.345 10.163944
54.350 9.670397
54.355 9.34137
54.360 9.676653
54.365 10.134746
54.370 10.467768
54.375 10.037595
54.380 10.149909
54.385 10.015768
54.390 9.861479
54.395 9.356459
54.400 8.83809
54.405 9.286147
54.410 9.568959
54.415 9.464074
54.420 10.063968
54.425 10.091928
54.430 10.014962
54.435 10.120403
54.440 10.12903
54.445 10.223476
54.450 10.164104
54.455 9.982145
54.460 10.101192
54.465 10.630885
54.470 10.749455
54.475 10.574782
54.480 10.457407
54.485 10.294744
54.490 10.136064
54.495 9.830265
54.500 9.68918
54.505 9.50722
54.510 9.137537
54.515 8.838514
54.520 8.819787
54.525 9.473579
54.530 10.026181
54.535 9.969624
54.540 9.699802
54.545 10.027251
54.550 10.100215
54.555 9.697575
54.560 9.434982
54.565 9.076398
54.570 8.955916
54.575 8.877214
54.580 8.742384
54.585 9.414495
54.590 9.664808
54.595 9.767739
54.600 9.850493
54.605 10.27707
54.610 10.581501
54.615 10.798869
54.620 10.358888
54.625 10.563816
54.630 10.453876
54.635 10.637441
54.640 10.481918
54.645 10.273242
54.650 10.177604
54.655 10.60602
54.660 10.769865
54.665 10.743826
54.670 10.53457
54.675 10.679424
54.680 11.165478
54.685 11.333733
54.690 10.987139
54.695 10.382844
54.700 10.449095
54.705 10.96483
54.710 10.507315
54.715 9.855844
54.720 9.550269
54.725 9.709724
54.730 9.638719
54.735 9.202469
54.740 9.090748
54.745 9.220537
54.750 9.367399
54.755 9.346674
54.760 9.309166
54.765 9.440815
54.770 9.213512
54.775 9.218977
54.780 9.658114
54.785 10.120799
54.790 10.242279
54.795 10.302753
54.800 10.856944
54.805 11.033566
54.810 10.993021
54.815 10.999789
54.820 10.73922
54.825 11.198403
54.830 11.020234
54.835 10.943314
54.840 11.251373
54.845 11.052066
54.850 10.65083
54.855 10.462145
54.860 10.25383
54.865 10.654725
54.870 11.019889
54.875 11.466673
54.880 11.531487
54.885 11.308869
54.890 11.109809
54.895 10.658187
54.900 10.539448
54.905 10.311043
54.910 9.992542
54.915 9.9861
54.920 10.296283
54.925 10.426567
54.930 10.431484
54.935 10.123406
54.940 9.865595
54.945 9.660321
54.950 9.953826
54.955 10.246354
54.960 10.418403
54.965 10.37895
54.970 10.216508
54.975 9.868605
54.980 10.135583
54.985 10.435853
54.990 10.440765
54.995 10.166744
55.000 10.07349
55.005 10.357443
55.010 10.757896
55.015 11.160891
55.020 11.384651
55.025 11.307872
55.030 11.335052
55.035 11.411092
55.040 11.22986
55.045 11.29848
55.050 10.497323
55.055 10.250558
55.060 10.540455
55.065 11.000656
55.070 11.030426
55.075 10.853127
55.080 10.559592
55.085 10.609674
55.090 10.385863
55.095 10.386642
55.100 10.295994
55.105 10.449771
55.110 10.880746
55.115 11.090178
55.120 11.707825
55.125 11.775962
55.130 11.570624
55.135 11.404925
55.140 11.325828
55.145 11.236095
55.150 11.195622
55.155 10.75994
55.160 10.721953
55.165 10.711856
55.170 10.906567
55.175 10.792861
55.180 10.708068
55.185 10.466874
55.190 10.054848
55.195 10.099081
55.200 9.995783
55.205 9.892915
55.210 9.822775
55.215 9.946857
55.220 10.162756
55.225 10.752489
55.230 10.36555
55.235 10.293074
55.240 10.45169
55.245 10.623789
55.250 10.389278
55.255 10.126572
55.260 9.719969
55.265 9.996575
55.270 10.165369
55.275 10.376227
55.280 10.651985
55.285 10.465418
55.290 10.177272
55.295 10.463771
55.300 10.383483
55.305 10.300841
55.310 9.644968
55.315 9.384027
55.320 9.739891
55.325 9.895709
55.330 9.844522
55.335 9.979648
55.340 10.025732
55.345 10.366882
55.350 10.413657
55.355 10.340048
55.360 10.311341
55.365 10.572844
55.370 11.069091
55.375 11.047377
55.380 10.674792
55.385 10.567195
55.390 10.439106
55.395 10.445653
55.400 9.924235
55.405 9.770648
55.410 9.567397
55.415 10.19196
55.420 10.78018
55.425 11.149348
55.430 11.512636
55.435 11.719489
55.440 11.623374
55.445 11.885551
55.450 11.703538
55.455 11.409175
55.460 11.340562
55.465 11.099913
55.470 11.199222
55.475 11.011574
55.480 11.116768
55.485 11.316307
55.490 11.422729
55.495 11.516954
55.500 11.459461
55.505 11.443741
55.510 11.770919
55.515 11.444554
55.520 11.077165
55.525 10.895099
55.530 10.650299
55.535 10.80059
55.540 10.426713
55.545 9.97871
55.550 10.033173
55.555 10.26972
55.560 10.054224
55.565 10.493977
55.570 10.528307
55.575 11.037437
55.580 11.974363
55.585 11.890818
55.590 11.481365
55.595 11.368867
55.600 11.063484
55.605 11.332449
55.610 11.274967
55.615 10.792783
55.620 11.062243
55.625 11.527409
55.630 11.717105
55.635 11.448674
55.640 11.145834
55.645 11.18062
55.650 11.199335
55.655 10.983285
55.660 11.007656
55.665 11.068728
55.670 11.398024
55.675 11.371006
55.680 10.954787
55.685 11.118288
55.690 11.395736
55.695 11.948246
55.700 12.24936
55.705 11.690407
55.710 11.582331
55.715 11.562904
55.720 11.389401
55.725 11.217155
55.730 10.449066
55.735 10.063537
55.740 9.962399
55.745 9.807801
55.750 9.942885
55.755 9.786597
55.760 9.898421
55.765 10.616069
55.770 11.156103
55.775 11.713563
55.780 11.934046
55.785 11.653458
55.790 12.226864
55.795 12.156075
55.800 11.767831
55.805 11.490715
55.810 11.282568
55.815 11.579243
55.820 11.473836
55.825 11.004248
55.830 11.787356
55.835 12.49671
55.840 12.856881
55.845 12.951751
55.850 13.260404
55.855 13.744167
55.860 13.824019
55.865 13.04042
55.870 12.416366
55.875 12.481091
55.880 12.327868
55.885 12.375854
55.890 12.680404
55.895 12.604549
55.900 12.57712
55.905 12.536954
55.910 12.394576
55.915 12.730816
55.920 12.508572
55.925 12.042117
55.930 11.941314
55.935 12.035242
55.940 11.747361
55.945 11.781378
55.950 11.352979
55.955 10.792366
55.960 10.9183
55.965 10.900869
55.970 10.55097
55.975 10.47972
55.980 10.413629
55.985 10.509031
55.990 11.140903
55.995 11.299967
56.000 11.457058
56.005 11.653075
56.010 12.181778
56.015 12.060096
56.020 11.749854
56.025 11.3097
56.030 11.350854
56.035 11.539765
56.040 11.57535
56.045 11.115884
56.050 11.102226
56.055 11.533799
56.060 11.37954
56.065 11.159762
56.070 11.061693
56.075 11.015731
56.080 11.115618
56.085 11.248754
56.090 10.85852
56.095 11.082409
56.100 11.496555
56.105 11.905076
56.110 11.696774
56.115 11.571914
56.120 11.63061
56.125 11.736142
56.130 11.461681
56.135 11.052823
56.140 11.199068
56.145 12.275033
56.150 12.481437
56.155 12.49052
56.160 12.738141
56.165 13.290154
56.170 13.367314
56.175 12.807728
56.180 11.99871
56.185 11.987857
56.190 12.12706
56.195 12.077959
56.200 12.138631
56.205 12.078022
56.210 12.045319
56.215 12.511138
56.220 12.821662
56.225 12.973413
56.230 13.465856
56.235 13.107635
56.240 13.330429
56.245 13.375274
56.250 13.153024
56.255 12.799273
56.260 12.317994
56.265 11.846205
56.270 11.956968
56.275 11.787221
56.280 12.248128
56.285 12.424799
56.290 12.281059
56.295 12.099068
56.300 11.600859
56.305 11.592648
56.310 11.218699
56.315 10.784789
56.320 11.321068
56.325 12.102452
56.330 12.089087
56.335 12.047338
56.340 11.721736
56.345 11.878133
56.350 11.64648
56.355 10.958317
56.360 10.476448
56.365 10.852347
56.370 11.015726
56.375 11.418952
56.380 11.646969
56.385 11.550451
56.390 11.338628
56.395 11.400228
56.400 11.562055
56.405 11.551958
56.410 11.286855
56.415 11.287508
56.420 11.715444
56.425 11.691174
56.430 11.643217
56.435 11.64194
56.440 11.607364
56.445 11.483621
56.450 11.772026
56.455 11.797217
56.460 12.022849
56.465 12.26453
56.470 11.955392
56.475 12.223396
56.480 12.543395
56.485 12.555451
56.490 13.216039
56.495 12.940995
56.500 12.894588
56.505 13.247705
56.510 13.600954
56.515 13.574039
56.520 13.147741
56.525 13.18811
56.530 13.665914
56.535 13.286188
56.540 12.990854
56.545 13.043339
56.550 12.879631
56.555 12.7788
56.560 11.918122
56.565 11.954866
56.570 12.445776
56.575 12.417475
56.580 11.780258
56.585 11.549953
56.590 11.381124
56.595 11.244699
56.600 11.446026
56.605 11.695636
56.610 11.702413
56.615 12.303714
56.620 13.055511
56.625 13.343269
56.630 13.379889
56.635 12.493729
56.640 11.728847
56.645 11.84521
56.650 11.349467
56.655 10.688125
56.660 10.548505
56.665 10.950285
56.670 11.597989
56.675 12.504067
56.680 12.874371
56.685 13.601583
56.690 13.909023
56.695 14.128647
56.700 14.060858
56.705 13.904263
56.710 14.0819
56.715 13.76268
56.720 13.608524
56.725 13.414921
56.730 13.46916
56.735 12.984445
56.740 13.198178
56.745 12.905706
56.750 12.742165
56.755 12.714593
56.760 12.841244
56.765 12.961211
56.770 12.956808
56.775 12.746349
56.780 12.988825
56.785 12.76958
56.790 12.693226
56.795 12.474249
56.800 12.307931
56.805 12.730637
56.810 12.958128
56.815 12.923294
56.820 12.943644
56.825 12.813561
56.830 13.357085
56.835 13.497965
56.840 13.617347
56.845 13.990592
56.850 13.858266
56.855 14.095049
56.860 14.650231
56.865 14.667358
56.870 14.485843
56.875 14.224337
56.880 14.227401
56.885 14.186327
56.890 13.900994
56.895 13.280652
56.900 13.16841
56.905 13.640091
56.910 13.827905
56.915 13.774377
56.920 14.089263
56.925 14.258549
56.930 14.411828
56.935 14.159038
56.940 13.68691
56.945 13.245011
56.950 12.594107
56.955 12.086775
56.960 12.047321
56.965 12.2892
56.970 12.790077
56.975 12.990582
56.980 12.813351
56.985 13.350636
56.990 13.926819
56.995 14.135698
57.000 13.801662
57.005 13.537987
57.010 14.085248
57.015 14.450332
57.020 13.683941
57.025 13.214036
57.030 13.108448
57.035 13.811089
57.040 13.583194
57.045 13.056512
57.050 13.179553
57.055 13.790248
57.060 13.974896
57.065 13.72136
57.070 13.505379
57.075 13.063254
57.080 12.59505
57.085 12.115316
57.090 12.022979
57.095 11.878284
57.100 11.746779
57.105 11.871927
57.110 12.573641
57.115 13.155543
57.120 13.297506
57.125 13.212662
57.130 13.545059
57.135 13.709984
57.140 13.246081
57.145 13.089796
57.150 12.973583
57.155 13.221483
57.160 13.054048
57.165 12.931921
57.170 12.801366
57.175 13.113948
57.180 13.242443
57.185 13.384418
57.190 13.870233
57.195 13.849722
57.200 13.856176
57.205 13.766551
57.210 13.292747
57.215 13.232778
57.220 13.015865
57.225 12.5403
57.230 12.649836
57.235 12.928231
57.240 13.344239
57.245 13.696157
57.250 13.638792
57.255 13.357147
57.260 13.301019
57.265 13.068996
57.270 12.793361
57.275 12.723486
57.280 12.635233
57.285 12.782139
57.290 13.111948
57.295 13.423998
57.300 13.717996
57.305 13.621054
57.310 13.573593
57.315 13.519217
57.320 13.777614
57.325 13.803555
57.330 13.819778
57.335 13.705267
57.340 13.578204
57.345 13.418183
57.350 13.302447
57.355 12.956631
57.360 13.173738
57.365 12.981327
57.370 13.446879
57.375 13.852654
57.380 14.028958
57.385 13.850389
57.390 13.693441
57.395 13.592952
57.400 13.46379
57.405 12.996913
57.410 12.990979
57.415 13.320181
57.420 14.09184
57.425 14.23686
57.430 14.051537
57.435 13.915781
57.440 13.911208
57.445 13.748652
57.450 13.571118
57.455 13.489338
57.460 13.954074
57.465 14.130987
57.470 14.300192
57.475 14.228458
57.480 14.028244
57.485 13.372432
57.490 12.85305
57.495 12.353674
57.500 12.736031
57.505 13.138212
57.510 13.500394
57.515 14.05379
57.520 14.007134
57.525 13.886876
57.530 13.636062
57.535 13.591907
57.540 13.747942
57.545 13.863837
57.550 13.911247
57.555 14.789478
57.560 15.371459
57.565 15.539585
57.570 15.059615
57.575 14.920263
57.580 14.632442
57.585 14.035202
57.590 13.691689
57.595 13.278897
57.600 13.871029
57.605 13.778874
57.610 13.655058
57.615 13.794289
57.620 14.32092
57.625 14.034281
57.630 14.139805
57.635 13.362732
57.640 13.326759
57.645 13.538445
57.650 13.250175
57.655 12.907825
57.660 13.101418
57.665 12.695553
57.670 12.778826
57.675 12.871108
57.680 12.733811
57.685 13.054378
57.690 13.03382
57.695 13.024536
57.700 14.054058
57.705 13.861481
57.710 14.167803
57.715 14.436117
57.720 14.421091
57.725 14.659482
57.730 14.581242
57.735 13.793671
57.740 13.642516
57.745 12.765695
57.750 12.644156
57.755 12.627762
57.760 12.877485
57.765 13.342395
57.770 13.857722
57.775 13.846118
57.780 14.491148
57.785 14.385992
57.790 13.722365
57.795 13.106923
57.800 12.70203
57.805 12.88558
57.810 13.124422
57.815 13.021662
57.820 13.022449
57.825 13.337192
57.830 13.714988
57.835 13.56097
57.840 13.545974
57.845 13.371045
57.850 12.666413
57.855 12.959795
57.860 13.116715
57.865 13.043523
57.870 13.571704
57.875 13.910765
57.880 14.546767
57.885 15.11224
57.890 14.7833
57.895 14.994275
57.900 14.443695
57.905 14.027893
57.910 13.769256
57.915 13.327602
57.920 13.566846
57.925 13.719489
57.930 13.596173
57.935 13.761938
57.940 13.6215
57.945 13.357187
57.950 13.015652
57.955 12.940712
57.960 12.552712
57.965 12.355565
57.970 12.714024
57.975 12.717832
57.980 13.251678
57.985 14.056768
57.990 14.64655
57.995 15.014737
58.000 14.932541
58.005 14.952538
58.010 14.64159
58.015 14.084311
58.020 13.544148
58.025 12.922112
58.030 13.21384
58.035 13.436785
58.040 13.110958
58.045 13.556756
58.050 13.870929
58.055 14.043478
58.060 14.221292
58.065 13.993233
58.070 14.123549
58.075 14.017909
58.080 13.73889
58.085 13.693323
58.090 13.820015
58.095 13.671961
58.100 13.690357
58.105 13.919057
58.110 14.486574
58.115 15.159055
58.120 15.310706
58.125 15.416583
58.130 15.443278
58.135 15.410803
58.140 15.690173
58.145 15.606483
58.150 15.714315
58.155 15.627355
58.160 14.725359
58.165 14.88887
58.170 15.574375
58.175 15.800253
58.180 15.629862
58.185 14.565965
58.190 14.491785
58.195 14.952653
58.200 14.547058
58.205 13.740548
58.210 13.069164
58.215 13.222949
58.220 14.130112
58.225 14.327639
58.230 14.319762
58.235 14.657783
58.240 14.670701
58.245 14.660033
58.250 14.251319
58.255 14.125652
58.260 13.964997
58.265 13.785304
58.270 13.213151
58.275 13.165163
58.280 13.405473
58.285 13.559547
58.290 13.3269
58.295 13.376966
58.300 13.731198
58.305 13.817063
58.310 13.528814
58.315 13.395914
58.320 13.83541
58.325 13.687386
58.330 13.490842
58.335 13.165344
58.340 13.481311
58.345 13.742729
58.350 13.18077
58.355 12.772828
58.360 12.93912
58.365 13.123619
58.370 13.57397
58.375 13.592536
58.380 13.903796
58.385 14.106665
58.390 14.015495
58.395 13.970949
58.400 13.913762
58.405 13.744271
58.410 13.915709
58.415 13.654473
58.420 13.495507
58.425 13.605536
58.430 13.913281
58.435 14.497676
58.440 14.245722
58.445 13.967794
58.450 14.09446
58.455 14.480875
58.460 14.870181
58.465 14.336781
58.470 13.895615
58.475 14.347512
58.480 14.778692
58.485 15.049104
58.490 15.189116
58.495 14.865289
58.500 14.809565
58.505 14.854992
58.510 14.818196
58.515 14.544076
58.520 14.183182
58.525 13.687714
