!@!!GADDS PLOTSO FILE: Chi integration type
!@!!Title/SampleName: map-142
!@!!Comment: ?
!@!!User: Bruker Instrument Administrator
!@!!Site: University of Illinois Chicago
!@!!Frame: map-142_01_000.gfrm
!@!!Wavelengths    1.54184   1.54056   1.54439
!@!!Frame angles: 2Theta: 63.000 Omega: 50.000 Phi: 0.000 Chi: 90.000
!@!!Integration range: 2Theta: 53.000 to 73.000  Gamma: -105.000 to -75.000
!@!!Integration method: bin normalized
!@!N
!@!SS
!@!M
!@!L 0.0 0.0 0.0 0.0
!@!XDegrees
!@!YCounts
53.000 9.619231
53.005 9.715565
53.010 9.933824
53.015 9.700036
53.020 9.563153
53.025 9.537131
53.030 9.886218
53.035 10.049417
53.040 10.067866
53.045 9.942088
53.050 10.328236
53.055 10.408558
53.060 10.190496
53.065 10.230211
53.070 9.720378
53.075 9.52951
53.080 8.800587
53.085 8.726007
53.090 9.332669
53.095 9.521011
53.100 9.593831
53.105 10.041407
53.110 10.268661
53.115 10.926234
53.120 10.780478
53.125 10.521434
53.130 10.468585
53.135 10.038936
53.140 9.92518
53.145 10.395265
53.150 10.765199
53.155 10.810776
53.160 10.917743
53.165 11.106957
53.170 11.404128
53.175 10.575608
53.180 9.716509
53.185 9.5266
53.190 9.871582
53.195 10.155585
53.200 10.333185
53.205 10.552564
53.210 11.433424
53.215 11.542983
53.220 11.662244
53.225 11.252527
53.230 11.234669
53.235 11.411558
53.240 10.918106
53.245 10.742773
53.250 10.844815
53.255 10.59872
53.260 10.211766
53.265 9.568411
53.270 9.734832
53.275 10.065207
53.280 10.088403
53.285 10.094719
53.290 10.61072
53.295 10.939981
53.300 10.818415
53.305 10.578763
53.310 10.512327
53.315 10.596572
53.320 10.873515
53.325 10.670251
53.330 10.688415
53.335 10.861736
53.340 10.997345
53.345 10.985227
53.350 10.441483
53.355 10.164147
53.360 10.113028
53.365 9.806067
53.370 9.427034
53.375 9.177811
53.380 9.090614
53.385 9.615123
53.390 9.777645
53.395 9.862718
53.400 10.170544
53.405 10.443868
53.410 10.931287
53.415 11.254565
53.420 11.810061
53.425 11.653178
53.430 11.745995
53.435 11.77448
53.440 11.562383
53.445 11.281405
53.450 10.858326
53.455 10.359805
53.460 10.699396
53.465 10.941187
53.470 11.374211
53.475 11.736813
53.480 12.032095
53.485 11.876287
53.490 11.659204
53.495 11.602982
53.500 11.080882
53.505 10.7656
53.510 10.854752
53.515 11.143586
53.520 11.397094
53.525 11.701854
53.530 11.668476
53.535 11.588566
53.540 11.591172
53.545 11.371229
53.550 10.967713
53.555 11.047764
53.560 10.64516
53.565 10.774575
53.570 10.762189
53.575 10.58445
53.580 10.610016
53.585 10.677431
53.590 11.071088
53.595 11.525796
53.600 11.714705
53.605 11.957477
53.610 11.84397
53.615 11.75525
53.620 11.724984
53.625 10.961252
53.630 11.003302
53.635 11.300973
53.640 11.282475
53.645 11.23771
53.650 11.029748
53.655 11.278399
53.660 10.977188
53.665 10.913673
53.670 10.913099
53.675 11.042937
53.680 11.158725
53.685 11.343027
53.690 11.474809
53.695 11.863113
53.700 11.456254
53.705 11.074513
53.710 11.116323
53.715 10.748683
53.720 10.933702
53.725 10.906454
53.730 10.992813
53.735 11.49125
53.740 11.562371
53.745 11.662106
53.750 11.536745
53.755 11.072437
53.760 11.037624
53.765 11.073905
53.770 10.948647
53.775 11.554425
53.780 12.017927
53.785 12.488727
53.790 12.3225
53.795 11.968503
53.800 11.697184
53.805 11.431502
53.810 11.150871
53.815 10.822621
53.820 10.578005
53.825 10.794997
53.830 10.975826
53.835 11.218716
53.840 11.00861
53.845 11.050555
53.850 11.01981
53.855 11.027121
53.860 11.291958
53.865 11.379709
53.870 11.524539
53.875 11.395448
53.880 11.011828
53.885 11.035331
53.890 11.025915
53.895 11.001425
53.900 10.649512
53.905 10.928417
53.910 11.073446
53.915 11.561898
53.920 11.751765
53.925 11.59488
53.930 11.699354
53.935 11.542692
53.940 11.300751
53.945 10.949244
53.950 10.422952
53.955 10.186967
53.960 10.467077
53.965 10.384027
53.970 10.380744
53.975 10.511065
53.980 10.97729
53.985 11.544109
53.990 11.877843
53.995 11.777429
54.000 11.818422
54.005 12.285788
54.010 12.344786
54.015 12.734483
54.020 12.896472
54.025 12.651161
54.030 12.78859
54.035 12.708756
54.040 11.980932
54.045 11.949721
54.050 11.431047
54.055 10.850884
54.060 10.843324
54.065 10.560315
54.070 10.727132
54.075 10.921167
54.080 10.520013
54.085 10.238689
54.090 10.248883
54.095 10.120671
54.100 10.039063
54.105 9.680501
54.110 9.820093
54.115 10.042778
54.120 10.126423
54.125 10.356391
54.130 10.535575
54.135 10.371273
54.140 10.345051
54.145 9.985772
54.150 10.14207
54.155 10.29567
54.160 10.46018
54.165 10.664289
54.170 10.654689
54.175 11.045844
54.180 11.293331
54.185 11.401234
54.190 11.550284
54.195 11.617269
54.200 12.036021
54.205 12.08259
54.210 12.022549
54.215 11.831859
54.220 11.235452
54.225 11.05422
54.230 10.787598
54.235 10.823551
54.240 11.02709
54.245 10.723248
54.250 11.302435
54.255 11.445022
54.260 11.437895
54.265 11.702911
54.270 12.227789
54.275 12.775748
54.280 12.696131
54.285 12.4354
54.290 12.904207
54.295 12.645611
54.300 12.278124
54.305 11.28973
54.310 11.168461
54.315 11.804825
54.320 11.619044
54.325 11.944777
54.330 12.325479
54.335 12.383071
54.340 12.453901
54.345 12.053483
54.350 11.690897
54.355 11.556744
54.360 11.292745
54.365 11.351836
54.370 11.490744
54.375 11.423573
54.380 11.00167
54.385 11.292411
54.390 11.569905
54.395 11.443113
54.400 11.286533
54.405 11.479988
54.410 12.122669
54.415 12.423853
54.420 12.147068
54.425 11.91079
54.430 12.260243
54.435 12.573746
54.440 12.682329
54.445 12.62935
54.450 12.774837
54.455 13.141191
54.460 12.847284
54.465 12.136746
54.470 11.659055
54.475 11.503742
54.480 11.574546
54.485 11.264382
54.490 11.310266
54.495 11.385423
54.500 11.391349
54.505 11.442498
54.510 10.987696
54.515 10.864505
54.520 11.267992
54.525 10.929276
54.530 11.066632
54.535 11.034321
54.540 11.200627
54.545 11.260316
54.550 11.124866
54.555 11.189986
54.560 11.396821
54.565 11.788371
54.570 11.707939
54.575 11.544307
54.580 11.723156
54.585 11.052845
54.590 10.847518
54.595 10.994416
54.600 11.369844
54.605 11.316955
54.610 11.066528
54.615 11.311524
54.620 11.836768
54.625 11.588654
54.630 11.221275
54.635 10.635434
54.640 10.92979
54.645 11.011276
54.650 10.966722
54.655 10.918363
54.660 10.844949
54.665 10.993552
54.670 11.233456
54.675 11.614782
54.680 12.096077
54.685 12.375889
54.690 12.585061
54.695 12.922108
54.700 12.759204
54.705 12.625062
54.710 12.321978
54.715 11.922214
54.720 11.594852
54.725 11.404675
54.730 11.290034
54.735 11.690117
54.740 11.947699
54.745 11.67868
54.750 11.801245
54.755 11.963424
54.760 11.953192
54.765 11.775625
54.770 11.547362
54.775 11.383575
54.780 11.674479
54.785 11.224312
54.790 10.86661
54.795 11.317264
54.800 11.256824
54.805 11.335312
54.810 11.819967
54.815 11.56151
54.820 11.908472
54.825 12.235353
54.830 12.229062
54.835 12.575197
54.840 12.499202
54.845 13.048266
54.850 13.703168
54.855 13.897755
54.860 13.753848
54.865 13.336155
54.870 13.038691
54.875 13.192121
54.880 12.934084
54.885 12.879327
54.890 12.761785
54.895 13.026982
54.900 13.564934
54.905 13.651371
54.910 13.41745
54.915 13.396348
54.920 12.825253
54.925 12.278233
54.930 11.752193
54.935 11.162921
54.940 11.231217
54.945 10.960357
54.950 11.86486
54.955 12.738142
54.960 13.003695
54.965 13.639265
54.970 14.282381
54.975 14.074282
54.980 13.790646
54.985 12.985705
54.990 12.770469
54.995 12.6699
55.000 12.166569
55.005 11.779889
55.010 12.142359
55.015 12.200996
55.020 12.055532
55.025 12.503236
55.030 12.935864
55.035 12.626092
55.040 12.231004
55.045 12.073974
55.050 12.443495
55.055 12.838078
55.060 12.349365
55.065 12.502556
55.070 12.714066
55.075 13.037488
55.080 12.990414
55.085 12.340636
55.090 11.909074
55.095 11.874952
55.100 12.224947
55.105 12.753572
55.110 13.16812
55.115 13.578598
55.120 13.462281
55.125 13.422123
55.130 13.278296
55.135 12.771166
55.140 12.499548
55.145 12.314986
55.150 12.435549
55.155 12.581005
55.160 12.607141
55.165 12.713374
55.170 12.988028
55.175 13.304915
55.180 13.054646
55.185 13.324139
55.190 13.740294
55.195 13.691593
55.200 13.716711
55.205 13.510091
55.210 13.570493
55.215 13.782306
55.220 13.617414
55.225 13.539673
55.230 13.466906
55.235 13.860864
55.240 13.820515
55.245 13.42772
55.250 13.208099
55.255 12.6928
55.260 12.775945
55.265 12.58043
55.270 12.041013
55.275 11.872241
55.280 11.970272
55.285 11.792213
55.290 12.097095
55.295 12.255797
55.300 12.269815
55.305 12.855238
55.310 13.103917
55.315 13.012167
55.320 13.137728
55.325 12.965522
55.330 12.91228
55.335 12.765121
55.340 11.822938
55.345 11.65256
55.350 11.542308
55.355 11.85712
55.360 12.346299
55.365 12.369869
55.370 12.359667
55.375 12.434661
55.380 12.591044
55.385 12.482111
55.390 12.35334
55.395 12.081063
55.400 12.268785
55.405 12.495992
55.410 12.931838
55.415 12.941765
55.420 13.046936
55.425 13.604128
55.430 14.011728
55.435 13.848558
55.440 13.825996
55.445 13.231735
55.450 12.754153
55.455 12.546984
55.460 11.591827
55.465 11.581354
55.470 11.896501
55.475 11.935553
55.480 12.188825
55.485 12.903014
55.490 12.944151
55.495 12.602654
55.500 12.847702
55.505 13.07805
55.510 13.098054
55.515 13.105622
55.520 12.643676
55.525 13.102654
55.530 13.475021
55.535 12.992298
55.540 12.715838
55.545 13.073475
55.550 13.333553
55.555 13.400571
55.560 12.867951
55.565 13.079675
55.570 12.840693
55.575 12.877173
55.580 12.832916
55.585 12.818836
55.590 12.888491
55.595 12.671544
55.600 13.004004
55.605 13.736801
55.610 14.034883
55.615 14.142923
55.620 13.871256
55.625 13.961158
55.630 14.070397
55.635 13.885005
55.640 13.672276
55.645 13.243113
55.650 13.139884
55.655 13.667206
55.660 13.910795
55.665 13.317655
55.670 12.994802
55.675 13.280608
55.680 13.448556
55.685 12.623013
55.690 12.402346
55.695 12.612806
55.700 13.237675
55.705 13.135499
55.710 12.711637
55.715 12.860448
55.720 13.442116
55.725 13.237597
55.730 13.402101
55.735 13.19611
55.740 13.096146
55.745 12.935959
55.750 12.646678
55.755 12.367655
55.760 12.426844
55.765 12.249745
55.770 12.395447
55.775 12.881481
55.780 13.15836
55.785 13.199976
55.790 13.041501
55.795 12.858466
55.800 12.770967
55.805 13.311343
55.810 13.605086
55.815 13.852283
55.820 14.187991
55.825 14.788506
55.830 14.91
55.835 15.245362
55.840 14.647626
55.845 14.290403
55.850 14.024734
55.855 13.725218
55.860 13.162859
55.865 12.865687
55.870 11.90333
55.875 11.736805
55.880 11.41782
55.885 11.524714
55.890 11.922178
55.895 12.152988
55.900 12.116896
55.905 12.337192
55.910 12.504506
55.915 12.678646
55.920 12.829425
55.925 12.984529
55.930 13.20682
55.935 13.252665
55.940 13.582554
55.945 13.796174
55.950 13.512671
55.955 13.436653
55.960 13.28707
55.965 13.32371
55.970 13.555041
55.975 13.27937
55.980 13.532002
55.985 13.988816
55.990 13.761166
55.995 13.589507
56.000 13.810119
56.005 13.759796
56.010 13.795368
56.015 13.402264
56.020 13.548274
56.025 13.582771
56.030 13.818715
56.035 14.085475
56.040 14.088686
56.045 14.223071
56.050 14.162157
56.055 13.795437
56.060 13.499944
56.065 13.500206
56.070 13.609139
56.075 14.01987
56.080 14.111691
56.085 14.459869
56.090 14.628248
56.095 14.190513
56.100 13.820856
56.105 13.276695
56.110 12.899215
56.115 13.03705
56.120 13.083482
56.125 13.479567
56.130 13.95634
56.135 14.125389
56.140 14.372136
56.145 14.303022
56.150 13.85088
56.155 14.300278
56.160 14.492858
56.165 14.478527
56.170 14.284523
56.175 13.96314
56.180 13.695217
56.185 13.895088
56.190 13.626453
56.195 12.908237
56.200 12.585183
56.205 12.525167
56.210 12.574766
56.215 13.052819
56.220 12.7294
56.225 12.973457
56.230 13.824677
56.235 14.239838
56.240 13.939547
56.245 13.757522
56.250 13.429186
56.255 13.52223
56.260 12.804641
56.265 12.302318
56.270 12.18334
56.275 12.375267
56.280 12.243727
56.285 12.230255
56.290 12.123029
56.295 12.103056
56.300 12.181986
56.305 12.439063
56.310 12.680677
56.315 12.449379
56.320 12.714913
56.325 13.06667
56.330 13.178789
56.335 13.410472
56.340 13.333215
56.345 13.910937
56.350 14.330973
56.355 13.809521
56.360 13.564135
56.365 13.343772
56.370 12.925441
56.375 12.869835
56.380 12.488465
56.385 12.380906
56.390 12.674978
56.395 12.788024
56.400 13.211564
56.405 13.5158
56.410 13.720961
56.415 13.713205
56.420 13.711756
56.425 13.416757
56.430 13.230886
56.435 13.455104
56.440 12.861868
56.445 12.916041
56.450 13.276542
56.455 13.424797
56.460 14.212522
56.465 14.443543
56.470 14.260976
56.475 14.643157
56.480 14.48349
56.485 14.396395
56.490 14.182567
56.495 13.542317
56.500 13.370499
56.505 13.573511
56.510 13.767675
56.515 13.828215
56.520 14.163308
56.525 14.714618
56.530 15.717464
56.535 15.884759
56.540 15.565324
56.545 15.445943
56.550 15.282122
56.555 14.710174
56.560 13.978298
56.565 13.643111
56.570 14.051796
56.575 14.377841
56.580 14.441288
56.585 14.154609
56.590 14.283952
56.595 14.513408
56.600 14.482342
56.605 14.609417
56.610 14.674728
56.615 14.577469
56.620 15.030736
56.625 15.575399
56.630 15.29107
56.635 14.836553
56.640 14.334003
56.645 14.230309
56.650 14.204014
56.655 13.569475
56.660 13.828298
56.665 14.050516
56.670 14.331438
56.675 14.860849
56.680 14.931445
56.685 15.26862
56.690 15.823865
56.695 15.209255
56.700 15.438465
56.705 15.268767
56.710 15.323839
56.715 15.332335
56.720 15.046211
56.725 15.478983
56.730 15.882609
56.735 15.976165
56.740 16.214445
56.745 16.191267
56.750 16.060146
56.755 16.012638
56.760 15.55324
56.765 15.24868
56.770 14.858467
56.775 14.562942
56.780 14.707597
56.785 14.93508
56.790 14.776582
56.795 14.499001
56.800 13.896933
56.805 13.981779
56.810 13.810167
56.815 13.750659
56.820 13.671172
56.825 14.000505
56.830 13.855044
56.835 14.28264
56.840 14.350349
56.845 13.936721
56.850 13.194071
56.855 12.955675
56.860 12.638769
56.865 13.184444
56.870 13.025982
56.875 12.659656
56.880 13.526877
56.885 14.159731
56.890 14.360232
56.895 14.18389
56.900 14.243237
56.905 13.94382
56.910 13.695122
56.915 13.463831
56.920 13.509648
56.925 13.52605
56.930 13.661959
56.935 13.892516
56.940 14.378239
56.945 14.768267
56.950 14.165797
56.955 13.555346
56.960 13.244794
56.965 13.172226
56.970 12.921024
56.975 12.965864
56.980 13.758151
56.985 13.948841
56.990 13.990466
56.995 14.305457
57.000 14.717612
57.005 14.866344
57.010 14.657171
57.015 14.097889
57.020 14.346657
57.025 14.674004
57.030 14.310163
57.035 13.596758
57.040 13.640475
57.045 13.488929
57.050 13.662625
57.055 13.721861
57.060 13.847301
57.065 13.766599
57.070 14.115618
57.075 14.502846
57.080 14.695359
57.085 14.687099
57.090 14.693438
57.095 14.804777
57.100 15.364561
57.105 15.571816
57.110 15.205521
57.115 14.710713
57.120 14.68924
57.125 14.986689
57.130 15.140531
57.135 14.750445
57.140 14.684109
57.145 15.616909
57.150 16.36648
57.155 15.821473
57.160 15.52115
57.165 16.137655
57.170 16.559956
57.175 15.701479
57.180 14.699331
57.185 13.988849
57.190 13.766793
57.195 13.458163
57.200 12.813439
57.205 12.840113
57.210 13.248466
57.215 13.562978
57.220 14.066951
57.225 15.219946
57.230 15.226484
57.235 15.469071
57.240 15.277689
57.245 14.908617
57.250 14.866912
57.255 15.427176
57.260 15.328129
57.265 15.067113
57.270 15.171454
57.275 15.375807
57.280 16.058783
57.285 15.906188
57.290 15.865397
57.295 16.028757
57.300 16.338127
57.305 16.335119
57.310 16.274904
57.315 16.088461
57.320 16.161547
57.325 15.699551
57.330 15.321755
57.335 14.882819
57.340 14.586803
57.345 14.041385
57.350 14.379139
57.355 14.440665
57.360 14.584375
57.365 14.426939
57.370 15.370886
57.375 15.560784
57.380 15.748793
57.385 15.677294
57.390 15.643991
57.395 15.998958
57.400 16.430225
57.405 16.575485
57.410 16.56583
57.415 16.52166
57.420 16.878784
57.425 16.614908
57.430 16.473724
57.435 15.998773
57.440 15.072005
57.445 14.773153
57.450 14.299231
57.455 13.702182
57.460 13.482359
57.465 13.091543
57.470 13.25326
57.475 13.454201
57.480 13.858953
57.485 14.04934
57.490 13.585864
57.495 13.980113
57.500 14.067528
57.505 13.95474
57.510 13.683155
57.515 13.677562
57.520 13.747069
57.525 14.198248
57.530 14.193793
57.535 14.723636
57.540 15.336767
57.545 15.64164
57.550 15.755994
57.555 15.933885
57.560 16.097343
57.565 15.240562
57.570 14.615354
57.575 14.508338
57.580 14.632846
57.585 14.433361
57.590 14.900407
57.595 15.560647
57.600 16.116661
57.605 16.229319
57.610 16.046049
57.615 16.071157
57.620 15.982329
57.625 15.546562
57.630 14.826322
57.635 14.371103
57.640 14.03793
57.645 13.939553
57.650 14.273536
57.655 14.55704
57.660 13.837342
57.665 13.666983
57.670 13.861285
57.675 14.455753
57.680 14.633749
57.685 14.414756
57.690 14.478661
57.695 15.179519
57.700 15.099504
57.705 15.427606
57.710 15.590538
57.715 15.739221
57.720 15.356219
57.725 15.204248
57.730 15.032194
57.735 15.283562
57.740 15.095533
57.745 14.484326
57.750 14.411383
57.755 14.833286
57.760 14.893172
57.765 14.837308
57.770 14.642651
57.775 15.342744
57.780 15.855811
57.785 16.205709
57.790 16.364859
57.795 16.729877
57.800 17.240931
57.805 17.284233
57.810 16.492132
57.815 16.175133
57.820 15.783952
57.825 15.862512
57.830 15.841933
57.835 15.59098
57.840 15.197634
57.845 15.139348
57.850 15.625669
57.855 15.68752
57.860 15.2832
57.865 14.908267
57.870 15.013062
57.875 15.312452
57.880 15.323551
57.885 14.862034
57.890 14.501401
57.895 14.526691
57.900 14.531374
57.905 14.104196
57.910 13.683799
57.915 13.449524
57.920 13.384582
57.925 13.843196
57.930 14.018026
57.935 14.542259
57.940 15.333495
57.945 15.654189
57.950 16.234844
57.955 16.468098
57.960 16.53451
57.965 16.590324
57.970 15.806413
57.975 15.334891
57.980 15.302102
57.985 14.711246
57.990 14.154151
57.995 13.886521
58.000 13.909888
58.005 14.053214
58.010 14.349508
58.015 14.972617
58.020 15.122065
58.025 15.855201
58.030 15.908829
58.035 15.745438
58.040 15.929029
58.045 16.130625
58.050 15.99338
58.055 15.469217
58.060 15.238317
58.065 15.420789
58.070 15.984965
58.075 16.308981
58.080 15.661443
58.085 15.888942
58.090 16.693272
58.095 16.543255
58.100 16.17882
58.105 15.672277
58.110 15.444575
58.115 15.477081
58.120 14.94134
58.125 14.824203
58.130 15.169211
58.135 15.275146
58.140 15.88892
58.145 16.586092
58.150 17.053791
58.155 17.629078
58.160 17.247869
58.165 17.197449
58.170 16.829668
58.175 16.12615
58.180 15.775217
58.185 15.736429
58.190 15.289367
58.195 15.333083
58.200 15.512427
58.205 15.796277
58.210 16.016426
58.215 16.010586
58.220 15.66342
58.225 15.67405
58.230 16.100367
58.235 15.71943
58.240 15.82937
58.245 15.702044
58.250 15.672632
58.255 15.86599
58.260 16.164431
58.265 15.544427
58.270 16.174267
58.275 15.83278
58.280 15.804864
58.285 15.676403
58.290 15.665795
58.295 15.728354
58.300 15.716194
58.305 15.441888
58.310 16.162401
58.315 15.554273
58.320 15.61522
58.325 15.445666
58.330 15.449455
58.335 15.688279
58.340 16.145063
58.345 16.312841
58.350 16.990692
58.355 17.21525
58.360 17.308197
58.365 17.307842
58.370 17.369528
58.375 16.875275
58.380 16.148628
58.385 15.751806
58.390 15.854468
58.395 16.280983
58.400 16.725727
58.405 16.894073
58.410 16.865807
58.415 16.947582
58.420 17.098803
58.425 17.091343
58.430 16.524918
58.435 16.091457
58.440 16.210478
58.445 16.586929
