!@!!GADDS PLOTSO FILE: Chi integration type
!@!!Title/SampleName: map-59
!@!!Comment: ?
!@!!User: Bruker Instrument Administrator
!@!!Site: University of Illinois Chicago
!@!!Frame: map-59_01_000.gfrm
!@!!Wavelengths    1.54184   1.54056   1.54439
!@!!Frame angles: 2Theta: 63.000 Omega: 50.000 Phi: 0.000 Chi: 90.000
!@!!Integration range: 2Theta: 53.000 to 73.000  Gamma: -105.000 to -75.000
!@!!Integration method: bin normalized
!@!N
!@!SS
!@!M
!@!L 0.0 0.0 0.0 0.0
!@!XDegrees
!@!YCounts
53.000 5.558336
53.005 5.288555
53.010 5.155191
53.015 5.397465
53.020 5.436474
53.025 5.280641
53.030 5.577479
53.035 5.916423
53.040 6.45641
53.045 6.546346
53.050 6.201112
53.055 6.485512
53.060 6.385239
53.065 6.220838
53.070 5.971437
53.075 5.863309
53.080 6.134846
53.085 6.216536
53.090 6.23965
53.095 6.592715
53.100 6.898111
53.105 7.186389
53.110 7.252624
53.115 7.03451
53.120 7.24721
53.125 7.564337
53.130 7.353386
53.135 7.311148
53.140 7.360077
53.145 6.920189
53.150 7.005158
53.155 6.72084
53.160 6.962749
53.165 6.820748
53.170 6.755943
53.175 6.658139
53.180 6.725142
53.185 6.934911
53.190 6.67924
53.195 6.700293
53.200 6.925829
53.205 6.840919
53.210 6.733498
53.215 7.066638
53.220 7.39809
53.225 7.348967
53.230 7.028701
53.235 6.952521
53.240 7.0988
53.245 7.196478
53.250 7.094892
53.255 7.163978
53.260 7.296997
53.265 7.317281
53.270 7.289242
53.275 7.145028
53.280 6.991544
53.285 6.431219
53.290 6.448092
53.295 6.637064
53.300 6.785177
53.305 6.519739
53.310 6.566483
53.315 6.661255
53.320 6.601609
53.325 6.262845
53.330 6.308585
53.335 6.460896
53.340 6.595569
53.345 6.635392
53.350 6.530035
53.355 6.778939
53.360 6.840788
53.365 6.757843
53.370 6.777675
53.375 6.764236
53.380 6.671606
53.385 6.726072
53.390 6.75347
53.395 7.09597
53.400 7.44276
53.405 7.509573
53.410 7.370892
53.415 7.964289
53.420 8.001663
53.425 8.013576
53.430 7.601469
53.435 7.299286
53.440 7.288847
53.445 7.197449
53.450 6.692849
53.455 6.811787
53.460 6.342321
53.465 6.215795
53.470 6.72144
53.475 6.937345
53.480 6.990788
53.485 7.278448
53.490 7.116775
53.495 6.827017
53.500 6.761136
53.505 5.980218
53.510 6.084846
53.515 6.043012
53.520 6.025971
53.525 6.45147
53.530 6.953398
53.535 6.916454
53.540 7.115781
53.545 7.439151
53.550 7.553502
53.555 7.137661
53.560 7.166114
53.565 7.221198
53.570 7.312146
53.575 7.147734
53.580 6.964453
53.585 7.038956
53.590 7.57059
53.595 7.822867
53.600 7.986208
53.605 8.215457
53.610 8.291018
53.615 8.052235
53.620 7.829383
53.625 7.408745
53.630 7.30276
53.635 7.473041
53.640 7.757254
53.645 7.92044
53.650 7.965055
53.655 8.033005
53.660 8.561421
53.665 8.156449
53.670 7.588526
53.675 7.598247
53.680 7.467085
53.685 7.408419
53.690 7.324613
53.695 7.322486
53.700 7.450375
53.705 7.398015
53.710 7.319551
53.715 7.340305
53.720 7.59383
53.725 7.553337
53.730 7.375825
53.735 7.277933
53.740 7.238828
53.745 7.529984
53.750 8.058439
53.755 8.306692
53.760 8.689121
53.765 8.981668
53.770 9.024967
53.775 8.808877
53.780 8.473969
53.785 7.818978
53.790 7.431727
53.795 7.209694
53.800 7.198082
53.805 7.116527
53.810 7.140522
53.815 7.377961
53.820 7.447968
53.825 7.014527
53.830 6.686612
53.835 6.585379
53.840 6.938704
53.845 6.661157
53.850 6.672432
53.855 6.684731
53.860 6.896197
53.865 7.344083
53.870 7.74234
53.875 7.936511
53.880 8.345664
53.885 8.255728
53.890 8.019142
53.895 8.279718
53.900 8.088407
53.905 7.538071
53.910 7.141829
53.915 6.95546
53.920 7.554425
53.925 8.017831
53.930 7.623952
53.935 7.798486
53.940 7.762675
53.945 7.845789
53.950 7.888623
53.955 7.294077
53.960 7.157022
53.965 7.081124
53.970 7.010968
53.975 7.667336
53.980 7.60309
53.985 7.789607
53.990 8.091798
53.995 8.393598
54.000 8.699376
54.005 8.316351
54.010 7.813343
54.015 7.498476
54.020 7.165831
54.025 7.112049
54.030 7.050217
54.035 7.729935
54.040 8.183559
54.045 8.69172
54.050 8.473785
54.055 8.106066
54.060 7.892244
54.065 7.680546
54.070 7.142241
54.075 7.003641
54.080 6.874242
54.085 6.95339
54.090 7.320345
54.095 7.142545
54.100 7.19805
54.105 7.077954
54.110 6.987685
54.115 7.406139
54.120 7.896582
54.125 7.869317
54.130 7.704981
54.135 7.341531
54.140 7.406729
54.145 7.123349
54.150 6.619477
54.155 6.944386
54.160 7.264474
54.165 7.631818
54.170 7.843134
54.175 8.033038
54.180 8.351302
54.185 8.467721
54.190 8.373127
54.195 8.160466
54.200 8.369695
54.205 8.477276
54.210 8.708502
54.215 9.007905
54.220 8.578115
54.225 8.464606
54.230 8.218361
54.235 8.153492
54.240 7.885817
54.245 7.578618
54.250 7.386866
54.255 7.652089
54.260 7.624598
54.265 7.816472
54.270 8.001339
54.275 8.067898
54.280 8.102486
54.285 8.289418
54.290 8.318467
54.295 8.356269
54.300 8.327127
54.305 8.405673
54.310 8.764759
54.315 8.76588
54.320 8.895593
54.325 9.167206
54.330 9.399419
54.335 9.623796
54.340 9.389735
54.345 9.243446
54.350 9.41192
54.355 9.188541
54.360 8.940215
54.365 8.761598
54.370 8.644699
54.375 8.480805
54.380 7.962467
54.385 7.776819
54.390 7.693897
54.395 7.866678
54.400 7.745719
54.405 7.603063
54.410 7.582211
54.415 7.853327
54.420 8.049032
54.425 8.329783
54.430 8.203317
54.435 8.234353
54.440 8.709607
54.445 8.596738
54.450 8.490414
54.455 8.185976
54.460 7.703165
54.465 7.510899
54.470 7.492258
54.475 7.424422
54.480 7.508645
54.485 7.781216
54.490 7.983184
54.495 8.127975
54.500 8.336336
54.505 8.922168
54.510 9.407922
54.515 9.447726
54.520 9.374082
54.525 9.548972
54.530 9.840204
54.535 9.63587
54.540 9.127056
54.545 8.814472
54.550 8.734181
54.555 8.592081
54.560 8.467597
54.565 8.446822
54.570 7.995004
54.575 7.870655
54.580 8.123827
54.585 8.02445
54.590 7.90723
54.595 7.998212
54.600 8.08918
54.605 8.479665
54.610 8.596956
54.615 8.781333
54.620 9.300816
54.625 9.347548
54.630 9.128995
54.635 9.062916
54.640 9.174903
54.645 8.976539
54.650 8.811314
54.655 9.265303
54.660 9.455091
54.665 9.41947
54.670 9.998386
54.675 9.894606
54.680 9.816905
54.685 9.254406
54.690 8.348577
54.695 8.209942
54.700 7.907633
54.705 7.662473
54.710 7.941119
54.715 7.562661
54.720 8.05983
54.725 8.716427
54.730 8.933331
54.735 9.433023
54.740 9.543185
54.745 9.660127
54.750 9.890374
54.755 9.584198
54.760 9.376042
54.765 9.074053
54.770 8.935621
54.775 8.94656
54.780 8.793639
54.785 8.641621
54.790 8.709277
54.795 8.418438
54.800 8.576003
54.805 8.10957
54.810 8.014974
54.815 8.302871
54.820 8.123085
54.825 8.211946
54.830 8.318227
54.835 8.271011
54.840 8.492639
54.845 8.050833
54.850 8.654176
54.855 9.120843
54.860 9.273469
54.865 9.382685
54.870 9.660001
54.875 9.790333
54.880 9.922803
54.885 9.09434
54.890 8.719791
54.895 8.695425
54.900 8.529523
54.905 8.393451
54.910 8.282516
54.915 7.991979
54.920 8.198525
54.925 8.565171
54.930 8.687794
54.935 8.360532
54.940 8.258514
54.945 8.799016
54.950 9.510547
54.955 9.697908
54.960 9.527274
54.965 9.493407
54.970 9.761314
54.975 9.631531
54.980 8.883576
54.985 8.524683
54.990 8.280683
54.995 7.939208
55.000 7.786194
55.005 7.917484
55.010 7.921566
55.015 8.090978
55.020 8.560565
55.025 9.057509
55.030 9.407248
55.035 9.532289
55.040 9.419854
55.045 9.331785
55.050 9.168153
55.055 8.852926
55.060 8.640676
55.065 8.440925
55.070 8.261171
55.075 8.225871
55.080 8.722114
55.085 8.707816
55.090 8.8668
55.095 8.671248
55.100 8.703484
55.105 8.768099
55.110 9.012444
55.115 8.818988
55.120 8.412396
55.125 8.317845
55.130 8.81377
55.135 8.934102
55.140 8.941087
55.145 9.095937
55.150 9.269994
55.155 9.205665
55.160 8.903181
55.165 8.858179
55.170 9.016588
55.175 8.936788
55.180 8.782306
55.185 9.192806
55.190 9.415971
55.195 9.477902
55.200 8.716282
55.205 8.617649
55.210 8.461765
55.215 8.250101
55.220 8.132945
55.225 8.382994
55.230 8.579508
55.235 9.115176
55.240 9.116695
55.245 9.607066
55.250 9.56738
55.255 9.822082
55.260 10.160821
55.265 10.493798
55.270 10.714504
55.275 10.766882
55.280 10.563791
55.285 10.65729
55.290 10.47973
55.295 9.865731
55.300 9.216495
55.305 9.009757
55.310 8.743546
55.315 8.374353
55.320 7.976032
55.325 7.756643
55.330 7.911068
55.335 8.315546
55.340 7.760029
55.345 8.224796
55.350 8.651098
55.355 9.027375
55.360 9.014266
55.365 9.382965
55.370 9.729322
55.375 9.897236
55.380 9.956055
55.385 10.115177
55.390 10.414922
55.395 10.271731
55.400 9.339725
55.405 9.010885
55.410 9.251689
55.415 9.239287
55.420 8.763151
55.425 9.053674
55.430 9.471577
55.435 10.136665
55.440 10.908694
55.445 11.015507
55.450 11.22157
55.455 11.12231
55.460 10.816991
55.465 11.079999
55.470 10.607177
55.475 9.862264
55.480 9.650968
55.485 9.250391
55.490 9.491439
55.495 9.040851
55.500 8.9067
55.505 9.497787
55.510 9.998723
55.515 10.20663
55.520 10.166347
55.525 10.035846
55.530 9.869333
55.535 9.855453
55.540 9.191012
55.545 8.808318
55.550 8.871324
55.555 8.871325
55.560 8.641301
55.565 8.495756
55.570 8.117911
55.575 8.290703
55.580 8.006424
55.585 8.082336
55.590 8.921019
55.595 9.092662
55.600 9.516689
55.605 10.247601
55.610 10.360703
55.615 10.465885
55.620 10.214508
55.625 10.27419
55.630 10.58005
55.635 10.896996
55.640 10.821914
55.645 10.857244
55.650 11.039294
55.655 11.051535
55.660 10.737039
55.665 10.603427
55.670 10.490392
55.675 9.978082
55.680 10.142446
55.685 10.047036
55.690 10.622996
55.695 10.887875
55.700 11.215235
55.705 11.126505
55.710 10.998376
55.715 11.190449
55.720 11.278315
55.725 10.751863
55.730 10.224815
55.735 9.84406
55.740 9.916632
55.745 10.446419
55.750 10.573674
55.755 10.179296
55.760 10.403443
55.765 10.648834
55.770 10.78689
55.775 10.670725
55.780 10.433434
55.785 10.329046
55.790 10.410768
55.795 10.253803
55.800 10.101995
55.805 10.250387
55.810 10.255629
55.815 9.96683
55.820 10.225656
55.825 10.430723
55.830 10.380928
55.835 10.421297
55.840 10.304379
55.845 10.734358
55.850 11.230855
55.855 10.86385
55.860 10.497334
55.865 10.362509
55.870 9.885586
55.875 9.598695
55.880 9.014014
55.885 8.355
55.890 8.30683
55.895 8.736866
55.900 8.949192
55.905 9.28631
55.910 9.425588
55.915 9.915064
55.920 10.725156
55.925 10.947331
55.930 10.98246
55.935 11.476382
55.940 11.323155
55.945 11.6045
55.950 11.828149
55.955 11.543207
55.960 11.322512
55.965 11.135977
55.970 10.773522
55.975 10.871213
55.980 10.410265
55.985 9.934603
55.990 10.011067
55.995 10.049467
56.000 10.124065
56.005 10.048348
56.010 10.216587
56.015 10.132107
56.020 10.30781
56.025 10.199051
56.030 10.415584
56.035 10.476033
56.040 10.74045
56.045 10.971935
56.050 11.841711
56.055 12.036251
56.060 11.911233
56.065 11.581382
56.070 11.121475
56.075 10.706484
56.080 10.458246
56.085 10.019081
56.090 9.789667
56.095 10.083775
56.100 10.23169
56.105 10.220205
56.110 10.328599
56.115 10.125355
56.120 9.814794
56.125 9.777722
56.130 9.519243
56.135 9.688634
56.140 9.867483
56.145 10.179263
56.150 10.400558
56.155 10.505486
56.160 10.260396
56.165 10.549319
56.170 10.635492
56.175 10.568476
56.180 10.477366
56.185 10.384284
56.190 10.380257
56.195 10.339117
56.200 10.026152
56.205 10.425164
56.210 10.456804
56.215 10.325702
56.220 9.892831
56.225 9.949382
56.230 10.293552
56.235 10.669715
56.240 10.494052
56.245 10.359002
56.250 10.439552
56.255 10.622739
56.260 10.349349
56.265 9.961729
56.270 9.623882
56.275 9.789423
56.280 9.894011
56.285 9.739905
56.290 9.951532
56.295 10.748323
56.300 10.734
56.305 11.019248
56.310 10.747342
56.315 11.265368
56.320 12.03083
56.325 11.748179
56.330 11.420695
56.335 11.575688
56.340 11.174684
56.345 11.246655
56.350 10.647133
56.355 10.386095
56.360 10.931684
56.365 11.339467
56.370 11.427243
56.375 11.918221
56.380 12.055831
56.385 12.107162
56.390 11.83829
56.395 11.147181
56.400 10.962605
56.405 10.524197
56.410 9.697719
56.415 9.865911
56.420 9.932693
56.425 10.226802
56.430 10.282792
56.435 10.267159
56.440 10.455267
56.445 10.622378
56.450 10.959845
56.455 12.003054
56.460 12.602131
56.465 13.206996
56.470 13.156288
56.475 13.068955
56.480 12.79495
56.485 11.902362
56.490 11.413618
56.495 11.319307
56.500 10.585047
56.505 10.281565
56.510 10.607878
56.515 11.421928
56.520 11.884171
56.525 11.489916
56.530 11.213537
56.535 11.661236
56.540 12.079811
56.545 11.886782
56.550 11.646021
56.555 10.973151
56.560 10.656254
56.565 10.104587
56.570 9.923195
56.575 9.876248
56.580 9.591633
56.585 9.743206
56.590 10.355934
56.595 11.02933
56.600 11.390525
56.605 11.238757
56.610 11.080906
56.615 11.350139
56.620 11.141088
56.625 10.657096
56.630 10.443007
56.635 11.172806
56.640 11.069571
56.645 10.891175
56.650 10.466321
56.655 10.22891
56.660 10.645453
56.665 10.706428
56.670 10.391768
56.675 11.011983
56.680 11.41744
56.685 11.505538
56.690 11.668547
56.695 11.734676
56.700 11.614281
56.705 11.857148
56.710 11.775934
56.715 11.957485
56.720 12.361249
56.725 12.154409
56.730 11.636365
56.735 11.880687
56.740 11.693334
56.745 12.258504
56.750 12.555262
56.755 12.717189
56.760 12.782274
56.765 12.400664
56.770 11.886308
56.775 11.597651
56.780 11.327478
56.785 11.105093
56.790 11.411506
56.795 11.873545
56.800 12.580401
56.805 12.665553
56.810 12.418642
56.815 12.11369
56.820 11.728294
56.825 11.414021
56.830 11.143101
56.835 10.816493
56.840 10.872885
56.845 11.400601
56.850 11.402122
56.855 11.561509
56.860 11.66012
56.865 12.212253
56.870 12.211293
56.875 12.254121
56.880 11.830044
56.885 11.800289
56.890 11.486523
56.895 11.04996
56.900 10.97518
56.905 11.106998
56.910 11.060871
56.915 11.387711
56.920 11.706209
56.925 12.0316
56.930 12.388294
56.935 12.195462
56.940 12.189943
56.945 12.369609
56.950 12.28594
56.955 12.232636
56.960 12.576771
56.965 12.171148
56.970 12.612482
56.975 12.843414
56.980 13.236728
56.985 13.610376
56.990 13.816096
56.995 13.618591
57.000 13.599857
57.005 13.113542
57.010 12.553283
57.015 11.983328
57.020 11.401093
57.025 10.986014
57.030 11.067712
57.035 11.418296
57.040 11.304136
57.045 11.503504
57.050 11.68716
57.055 11.945414
57.060 11.744656
57.065 11.423176
57.070 11.554644
57.075 11.964563
57.080 11.9481
57.085 11.515376
57.090 11.197926
57.095 11.332309
57.100 11.476001
57.105 11.445085
57.110 11.75615
57.115 11.900037
57.120 12.527042
57.125 12.781312
57.130 12.725016
57.135 12.851736
57.140 13.071171
57.145 12.524496
57.150 11.968359
57.155 11.688601
57.160 11.961882
57.165 12.175188
57.170 11.728322
57.175 11.154618
57.180 11.018616
57.185 11.162404
57.190 11.162384
57.195 11.163696
57.200 10.841037
57.205 10.523451
57.210 10.808212
57.215 11.533627
57.220 12.071424
57.225 11.842162
57.230 11.302597
57.235 11.596983
57.240 12.271075
57.245 11.991417
57.250 11.172384
57.255 11.253949
57.260 11.408431
57.265 12.042636
57.270 12.06225
57.275 11.641852
57.280 11.592012
57.285 11.728994
57.290 11.525856
57.295 11.362444
57.300 11.139729
57.305 11.302367
57.310 11.753916
57.315 12.419799
57.320 12.56065
57.325 12.929635
57.330 13.429584
57.335 13.568091
57.340 13.714197
57.345 13.823869
57.350 13.677653
57.355 12.958769
57.360 12.695241
57.365 12.200488
57.370 11.949273
57.375 11.37822
57.380 10.963782
57.385 11.112021
57.390 11.137672
57.395 10.774875
57.400 10.972385
57.405 11.16458
57.410 11.241464
57.415 11.194882
57.420 11.597407
57.425 12.203195
57.430 12.891602
57.435 12.756988
57.440 13.012616
57.445 13.374158
57.450 13.075181
57.455 12.889299
57.460 13.035878
57.465 12.949195
57.470 12.965492
57.475 12.892178
57.480 12.838243
57.485 13.488283
57.490 13.334585
57.495 12.878305
57.500 12.651976
57.505 12.752203
57.510 12.519325
57.515 12.81616
57.520 12.470874
57.525 12.375014
57.530 12.352694
57.535 12.387756
57.540 12.301462
57.545 11.86926
57.550 11.403632
57.555 11.035354
57.560 11.285144
57.565 11.046608
57.570 11.007906
57.575 11.088087
57.580 11.6188
57.585 11.578997
57.590 11.406833
57.595 11.247064
57.600 11.173979
57.605 11.266698
57.610 11.4253
57.615 11.395177
57.620 11.921193
57.625 12.799014
57.630 13.345557
57.635 13.146914
57.640 13.087811
57.645 12.676597
57.650 12.15535
57.655 11.72658
57.660 10.778625
57.665 10.494078
57.670 10.949232
57.675 10.871218
57.680 11.371956
57.685 11.874662
57.690 11.806347
57.695 12.327779
57.700 12.792567
57.705 13.101563
57.710 13.328455
57.715 13.520865
57.720 13.835439
57.725 13.945599
57.730 13.966514
57.735 13.848166
57.740 13.476667
57.745 13.245811
57.750 12.84635
57.755 12.578131
57.760 12.592688
57.765 12.158442
57.770 11.861073
57.775 12.298748
57.780 12.159847
57.785 12.314387
57.790 12.353704
57.795 12.358957
57.800 12.196669
57.805 11.80879
57.810 11.59362
57.815 11.6283
57.820 11.169255
57.825 10.963753
57.830 11.00321
57.835 11.775062
57.840 12.506091
57.845 12.695243
57.850 12.740284
57.855 13.053338
57.860 13.109835
57.865 12.825096
57.870 12.317522
57.875 12.09189
57.880 12.201704
57.885 12.617058
57.890 12.984252
57.895 13.089368
57.900 13.349996
57.905 13.389832
57.910 13.964926
57.915 14.060841
57.920 13.971547
57.925 14.161618
57.930 14.364789
57.935 14.352016
57.940 13.960796
57.945 13.581101
57.950 13.512755
57.955 13.372729
57.960 13.014192
57.965 12.302958
57.970 11.837299
57.975 11.957419
57.980 11.640741
57.985 11.430405
57.990 11.299796
57.995 10.789664
58.000 11.032002
58.005 11.623223
58.010 11.810993
58.015 11.762167
58.020 11.891517
58.025 11.965318
58.030 12.550228
58.035 12.594694
58.040 12.576484
58.045 12.688462
58.050 12.904982
58.055 13.333292
58.060 14.037838
58.065 14.27222
58.070 14.371576
58.075 14.576755
58.080 14.591372
58.085 14.227231
58.090 14.004216
58.095 13.27323
58.100 12.716061
58.105 13.0702
58.110 13.089939
58.115 12.852088
58.120 12.808333
58.125 12.525425
58.130 13.074131
58.135 13.412229
58.140 13.106432
58.145 12.768919
58.150 12.363497
58.155 12.407175
58.160 12.157848
58.165 11.517615
58.170 11.250484
58.175 11.091534
58.180 11.724434
58.185 12.589687
58.190 12.772068
58.195 12.785264
58.200 13.16093
58.205 13.880393
58.210 13.483788
58.215 12.415072
58.220 11.657304
58.225 11.69197
58.230 12.444593
58.235 12.148566
58.240 11.716946
58.245 12.456047
58.250 12.918154
58.255 13.2343
58.260 12.712175
58.265 12.589019
58.270 12.720393
58.275 12.604455
58.280 12.328793
58.285 12.361741
58.290 12.060431
58.295 11.906696
58.300 12.331412
58.305 12.856788
58.310 12.930252
58.315 13.134065
58.320 13.49264
58.325 13.784698
58.330 13.992219
58.335 13.427389
58.340 13.18367
58.345 13.136345
58.350 13.095957
58.355 13.03947
58.360 13.407827
58.365 13.835177
58.370 13.626392
58.375 13.497658
58.380 13.616112
58.385 13.470265
58.390 13.480169
58.395 13.296876
58.400 13.033902
58.405 13.17493
58.410 13.175211
58.415 12.910571
58.420 13.113168
58.425 13.476158
58.430 13.999789
58.435 13.795481
58.440 13.601011
58.445 13.622279
58.450 14.231617
58.455 14.073379
58.460 13.369873
58.465 12.51298
58.470 12.907429
58.475 12.74477
58.480 12.804511
58.485 12.559449
58.490 12.637191
58.495 12.949265
58.500 13.081716
58.505 13.744103
58.510 14.39323
58.515 14.362334
58.520 14.431058
58.525 14.710772
58.530 14.451474
58.535 14.040525
58.540 13.2299
58.545 12.726155
58.550 12.477839
58.555 12.488167
58.560 12.073956
58.565 12.403326
58.570 12.860899
58.575 12.953598
58.580 13.301223
58.585 13.621498
58.590 13.368751
