!@!!GADDS PLOTSO FILE: Chi integration type
!@!!Title/SampleName: map-c0
!@!!Comment: ?
!@!!User: Bruker Instrument Administrator
!@!!Site: University of Illinois Chicago
!@!!Frame: map-c0_01_000.gfrm
!@!!Wavelengths    1.54184   1.54056   1.54439
!@!!Frame angles: 2Theta: 63.000 Omega: 50.000 Phi: 0.000 Chi: 90.000
!@!!Integration range: 2Theta: 53.000 to 73.000  Gamma: -105.000 to -75.000
!@!!Integration method: bin normalized
!@!N
!@!SS
!@!M
!@!L 0.0 0.0 0.0 0.0
!@!XDegrees
!@!YCounts
53.000 5.9344
53.005 6.13569
53.010 5.831494
53.015 5.676487
53.020 5.629397
53.025 5.52941
53.030 5.548909
53.035 5.595321
53.040 5.550854
53.045 5.745242
53.050 5.900812
53.055 5.72041
53.060 5.413485
53.065 5.470722
53.070 5.22772
53.075 4.866849
53.080 4.938709
53.085 4.73189
53.090 5.100693
53.095 5.125697
53.100 4.754546
53.105 5.161595
53.110 5.432927
53.115 5.763034
53.120 6.125676
53.125 5.82021
53.130 6.152221
53.135 6.371384
53.140 5.999982
53.145 5.887715
53.150 5.897863
53.155 5.934073
53.160 5.736794
53.165 5.607189
53.170 5.453931
53.175 5.974682
53.180 5.932643
53.185 5.955189
53.190 5.893293
53.195 5.828936
53.200 5.962465
53.205 5.853333
53.210 5.841889
53.215 6.311908
53.220 6.238242
53.225 6.356532
53.230 6.372047
53.235 6.212852
53.240 6.410124
53.245 6.413232
53.250 5.784196
53.255 5.779073
53.260 5.84118
53.265 5.970849
53.270 5.848269
53.275 5.67279
53.280 5.319437
53.285 5.598768
53.290 6.040481
53.295 6.023341
53.300 6.146884
53.305 6.340948
53.310 6.466788
53.315 6.274367
53.320 6.393303
53.325 6.212931
53.330 6.255846
53.335 6.150778
53.340 6.05193
53.345 6.365076
53.350 6.460536
53.355 6.179533
53.360 5.811442
53.365 6.064948
53.370 6.244841
53.375 6.017306
53.380 5.921557
53.385 6.035053
53.390 5.942569
53.395 6.046611
53.400 5.897461
53.405 6.293474
53.410 6.632794
53.415 6.721172
53.420 6.813237
53.425 6.881332
53.430 6.913473
53.435 6.784364
53.440 6.475067
53.445 6.355849
53.450 6.338637
53.455 6.289281
53.460 6.005771
53.465 5.918414
53.470 6.063335
53.475 6.468766
53.480 6.37494
53.485 6.243869
53.490 6.113695
53.495 6.206328
53.500 6.329528
53.505 5.79756
53.510 5.225851
53.515 5.111665
53.520 5.230485
53.525 5.798161
53.530 5.984028
53.535 5.97719
53.540 5.847826
53.545 5.855553
53.550 5.843051
53.555 6.036777
53.560 5.840502
53.565 5.713042
53.570 5.683757
53.575 6.116463
53.580 6.406177
53.585 6.59657
53.590 6.518532
53.595 6.264027
53.600 6.447005
53.605 6.305532
53.610 6.226471
53.615 6.438012
53.620 6.290233
53.625 6.058465
53.630 5.989687
53.635 6.340485
53.640 6.627813
53.645 6.467628
53.650 6.491738
53.655 6.45661
53.660 6.75597
53.665 6.70213
53.670 6.522349
53.675 6.622858
53.680 6.352549
53.685 6.140043
53.690 5.995296
53.695 6.035699
53.700 6.111397
53.705 6.13309
53.710 6.161393
53.715 6.48455
53.720 6.700625
53.725 6.797799
53.730 6.74388
53.735 6.614967
53.740 6.712248
53.745 6.652309
53.750 6.328278
53.755 6.183012
53.760 6.276606
53.765 6.394567
53.770 6.269858
53.775 6.127019
53.780 6.179491
53.785 6.329727
53.790 6.499263
53.795 5.975526
53.800 5.90823
53.805 5.732136
53.810 5.54904
53.815 5.391533
53.820 5.450499
53.825 5.622598
53.830 6.292743
53.835 6.310355
53.840 6.568173
53.845 7.070055
53.850 7.148591
53.855 6.932942
53.860 6.779796
53.865 6.586496
53.870 6.478483
53.875 6.067406
53.880 5.603452
53.885 5.665991
53.890 5.84538
53.895 6.168962
53.900 6.386917
53.905 6.671161
53.910 7.424863
53.915 7.378392
53.920 7.166125
53.925 6.859065
53.930 6.666776
53.935 6.453638
53.940 6.353887
53.945 6.140581
53.950 6.756158
53.955 7.207805
53.960 7.418051
53.965 7.396683
53.970 7.326695
53.975 7.412561
53.980 7.464366
53.985 6.885798
53.990 6.853479
53.995 6.921629
54.000 7.338969
54.005 7.610991
54.010 7.548753
54.015 7.544641
54.020 7.803029
54.025 7.827363
54.030 7.806508
54.035 7.94817
54.040 8.147771
54.045 7.843647
54.050 7.659369
54.055 7.606531
54.060 7.523203
54.065 6.93712
54.070 6.406427
54.075 6.021055
54.080 6.439077
54.085 6.442263
54.090 6.227149
54.095 6.435743
54.100 6.554725
54.105 6.625265
54.110 6.935373
54.115 7.040212
54.120 6.802329
54.125 7.019492
54.130 6.944339
54.135 7.709721
54.140 8.026109
54.145 7.581962
54.150 7.283192
54.155 7.25038
54.160 7.494887
54.165 7.527895
54.170 7.011137
54.175 6.89204
54.180 7.500713
54.185 7.879684
54.190 7.771053
54.195 7.579195
54.200 7.595816
54.205 7.671361
54.210 7.819353
54.215 7.518033
54.220 7.362222
54.225 7.630215
54.230 7.629493
54.235 7.916804
54.240 8.093834
54.245 7.699273
54.250 7.640194
54.255 7.720937
54.260 8.196125
54.265 8.39484
54.270 8.810518
54.275 8.681776
54.280 8.700756
54.285 8.396213
54.290 8.336524
54.295 7.93686
54.300 7.044263
54.305 6.470473
54.310 6.253542
54.315 6.598132
54.320 7.218027
54.325 7.2002
54.330 7.351627
54.335 7.604579
54.340 7.739183
54.345 7.660718
54.350 7.26063
54.355 7.100776
54.360 6.871898
54.365 6.646452
54.370 6.778704
54.375 6.676349
54.380 6.862107
54.385 7.018971
54.390 6.889455
54.395 7.165639
54.400 7.429809
54.405 7.16186
54.410 6.979727
54.415 6.558331
54.420 6.436106
54.425 6.612733
54.430 6.264856
54.435 6.09333
54.440 6.621143
54.445 7.272435
54.450 7.46759
54.455 7.301527
54.460 6.828749
54.465 6.929955
54.470 7.049578
54.475 6.737756
54.480 6.805237
54.485 7.065536
54.490 7.646189
54.495 8.138245
54.500 8.096091
54.505 8.062905
54.510 7.692536
54.515 7.580584
54.520 7.623438
54.525 7.454586
54.530 7.442346
54.535 7.230436
54.540 7.354891
54.545 7.492965
54.550 7.497206
54.555 7.538159
54.560 7.421688
54.565 7.807193
54.570 8.031768
54.575 7.927098
54.580 8.2661
54.585 8.31174
54.590 8.158219
54.595 7.852242
54.600 7.22023
54.605 6.830009
54.610 7.090416
54.615 6.707125
54.620 6.513843
54.625 6.046446
54.630 5.798011
54.635 5.724636
54.640 5.805542
54.645 5.954984
54.650 5.934625
54.655 6.203875
54.660 6.563591
54.665 6.598507
54.670 7.037639
54.675 6.900149
54.680 6.447442
54.685 6.351638
54.690 6.714998
54.695 7.271225
54.700 7.42307
54.705 7.07175
54.710 7.051025
54.715 7.087889
54.720 7.251593
54.725 6.704154
54.730 6.47167
54.735 6.846142
54.740 7.132498
54.745 7.506705
54.750 7.659787
54.755 7.722804
54.760 7.871675
54.765 8.045135
54.770 7.923292
54.775 7.889975
54.780 7.998168
54.785 8.09995
54.790 7.663285
54.795 7.213348
54.800 7.040751
54.805 7.349545
54.810 7.540375
54.815 7.502661
54.820 7.549346
54.825 8.05321
54.830 8.255716
54.835 8.185518
54.840 7.947493
54.845 7.913518
54.850 7.917518
54.855 7.803493
54.860 7.793812
54.865 8.10006
54.870 8.239684
54.875 8.076082
54.880 8.346372
54.885 8.393968
54.890 8.755787
54.895 9.26995
54.900 9.200798
54.905 9.204792
54.910 9.256783
54.915 9.151273
54.920 8.95662
54.925 8.415164
54.930 8.136499
54.935 7.883841
54.940 7.402423
54.945 7.106516
54.950 6.622816
54.955 6.566642
54.960 6.716866
54.965 6.841873
54.970 7.002351
54.975 7.31636
54.980 7.443929
54.985 7.389656
54.990 6.939632
54.995 6.511428
55.000 6.136596
55.005 6.517854
55.010 6.439727
55.015 6.704082
55.020 7.135195
55.025 7.541133
55.030 7.737911
55.035 7.857835
55.040 7.839797
55.045 8.064644
55.050 7.969777
55.055 7.814749
55.060 7.842716
55.065 8.138231
55.070 8.224247
55.075 8.115357
55.080 7.968412
55.085 8.14023
55.090 8.412706
55.095 8.547546
55.100 8.033951
55.105 8.534668
55.110 8.989113
55.115 9.280743
55.120 9.097557
55.125 9.087756
55.130 9.096036
55.135 9.168084
55.140 8.787493
55.145 8.286313
55.150 7.918717
55.155 8.221744
55.160 8.163573
55.165 8.4079
55.170 8.455532
55.175 8.532781
55.180 9.006126
55.185 9.361842
55.190 9.226822
55.195 8.965251
55.200 8.597847
55.205 8.183741
55.210 7.837053
55.215 7.815461
55.220 7.785325
55.225 7.625336
55.230 8.009185
55.235 8.15412
55.240 8.321951
55.245 7.94934
55.250 7.65009
55.255 7.149894
55.260 6.806714
55.265 6.851811
55.270 7.005929
55.275 7.146482
55.280 7.376037
55.285 7.224453
55.290 7.527429
55.295 7.555255
55.300 7.266207
55.305 7.340214
55.310 7.380196
55.315 7.328508
55.320 7.446197
55.325 7.445096
55.330 7.382367
55.335 7.149817
55.340 6.732404
55.345 6.560653
55.350 6.637709
55.355 6.683109
55.360 6.619272
55.365 6.770019
55.370 7.152194
55.375 7.615918
55.380 7.90023
55.385 7.995949
55.390 7.752541
55.395 7.882244
55.400 7.832984
55.405 7.899861
55.410 7.650371
55.415 7.484465
55.420 7.435743
55.425 7.389803
55.430 7.862028
55.435 8.22936
55.440 8.233633
55.445 8.327942
55.450 8.814801
55.455 9.181645
55.460 9.616881
55.465 9.307593
55.470 9.592535
55.475 9.511479
55.480 9.199804
55.485 9.098303
55.490 9.0414
55.495 8.933099
55.500 8.727944
55.505 8.216153
55.510 8.492484
55.515 8.417543
55.520 8.529214
55.525 8.564199
55.530 8.07317
55.535 8.006828
55.540 8.211567
55.545 8.456185
55.550 8.855373
55.555 8.947496
55.560 9.050061
55.565 9.363922
55.570 9.234131
55.575 8.976257
55.580 9.164124
55.585 8.790233
55.590 8.564538
55.595 8.338663
55.600 8.484656
55.605 9.045005
55.610 9.130492
55.615 8.735541
55.620 9.0819
55.625 9.210664
55.630 9.741609
55.635 9.920511
55.640 9.191853
55.645 9.067935
55.650 9.1146
55.655 8.844442
55.660 8.482886
55.665 8.200291
55.670 7.986785
55.675 8.010076
55.680 7.761305
55.685 7.487873
55.690 7.351398
55.695 7.451132
55.700 7.39704
55.705 7.848486
55.710 8.168221
55.715 8.386037
55.720 8.379758
55.725 8.729922
55.730 8.580958
55.735 8.226424
55.740 7.745285
55.745 7.888991
55.750 7.930901
55.755 8.007442
55.760 7.874906
55.765 8.276366
55.770 8.453542
55.775 8.723615
55.780 9.052079
55.785 9.292297
55.790 9.240455
55.795 9.367731
55.800 9.368101
55.805 9.381448
55.810 8.837732
55.815 8.193208
55.820 8.042377
55.825 7.795182
55.830 7.47471
55.835 7.691024
55.840 8.136611
55.845 8.710371
55.850 8.965703
55.855 9.413413
55.860 9.96958
55.865 10.139146
55.870 9.393307
55.875 9.195159
55.880 8.956839
55.885 8.460086
55.890 7.828241
55.895 7.618393
55.900 7.594376
55.905 8.022758
55.910 8.529908
55.915 8.527214
55.920 8.944826
55.925 9.393437
55.930 9.359003
55.935 9.501195
55.940 9.331802
55.945 9.010034
55.950 9.223385
55.955 9.059872
55.960 8.950085
55.965 9.085886
55.970 8.740348
55.975 8.737955
55.980 8.69961
55.985 8.596972
55.990 9.041659
55.995 8.737202
56.000 8.584625
56.005 8.939375
56.010 9.122693
56.015 8.884162
56.020 8.950226
56.025 8.619845
56.030 9.128153
56.035 9.430573
56.040 9.379955
56.045 9.261392
56.050 9.557848
56.055 9.824465
56.060 9.928631
56.065 9.509597
56.070 9.688555
56.075 9.530787
56.080 9.655372
56.085 9.15079
56.090 8.506995
56.095 8.408051
56.100 8.249385
56.105 8.222844
56.110 8.041883
56.115 7.761292
56.120 8.226174
56.125 8.382858
56.130 8.29674
56.135 8.24028
56.140 8.022817
56.145 8.101658
56.150 7.973809
56.155 7.996856
56.160 8.269174
56.165 8.519707
56.170 8.479299
56.175 8.25737
56.180 8.197738
56.185 8.157314
56.190 7.950098
56.195 7.761209
56.200 7.943155
56.205 7.818183
56.210 7.92198
56.215 8.814844
56.220 9.227035
56.225 9.512469
56.230 9.643748
56.235 9.583927
56.240 9.912639
56.245 9.862731
56.250 9.144238
56.255 9.044952
56.260 9.257607
56.265 9.543487
56.270 9.349593
56.275 9.131624
56.280 9.086497
56.285 9.218593
56.290 9.359632
56.295 9.071087
56.300 8.674175
56.305 9.433557
56.310 9.753039
56.315 9.994831
56.320 10.043051
56.325 9.792006
56.330 10.158108
56.335 10.338246
56.340 9.979981
56.345 9.942246
56.350 9.847148
56.355 9.715569
56.360 9.323671
56.365 8.8886
56.370 8.720175
56.375 8.691029
56.380 8.734871
56.385 8.851833
56.390 8.938249
56.395 8.612405
56.400 8.613728
56.405 8.598569
56.410 8.062891
56.415 7.707569
56.420 7.209527
56.425 7.481626
56.430 8.00437
56.435 7.898424
56.440 8.135937
56.445 8.660076
56.450 9.024017
56.455 9.019608
56.460 8.701054
56.465 8.499223
56.470 8.692883
56.475 8.706886
56.480 8.792867
56.485 8.89668
56.490 9.31511
56.495 9.265833
56.500 9.413029
56.505 9.441623
56.510 9.190853
56.515 8.897744
56.520 8.993228
56.525 8.962575
56.530 9.188213
56.535 9.368557
56.540 9.03988
56.545 9.226559
56.550 9.392821
56.555 9.427991
56.560 9.672704
56.565 9.702826
56.570 9.36113
56.575 9.508
56.580 9.207693
56.585 8.889396
56.590 8.875484
56.595 8.874274
56.600 8.716472
56.605 9.013756
56.610 9.297873
56.615 9.627922
56.620 9.741019
56.625 9.452337
56.630 9.228998
56.635 9.170628
56.640 8.8307
56.645 8.76435
56.650 8.578958
56.655 8.958544
56.660 8.738758
56.665 8.902897
56.670 9.769884
56.675 10.464092
56.680 10.607818
56.685 10.534799
56.690 10.184415
56.695 10.473746
56.700 10.210681
56.705 9.724686
56.710 9.123477
56.715 8.759568
56.720 8.691912
56.725 8.763324
56.730 9.214117
56.735 9.064588
56.740 8.968554
56.745 9.162006
56.750 9.93855
56.755 10.484483
56.760 10.852173
56.765 10.574315
56.770 10.600158
56.775 10.538101
56.780 10.930284
56.785 10.628179
56.790 10.334358
56.795 10.064818
56.800 10.341853
56.805 10.811098
56.810 10.780758
56.815 10.092843
56.820 9.60642
56.825 9.340492
56.830 9.247466
56.835 9.370546
56.840 9.415819
56.845 9.788834
56.850 10.38159
56.855 10.833622
56.860 10.800617
56.865 10.491583
56.870 9.89145
56.875 9.893227
56.880 9.783143
56.885 9.615111
56.890 9.437338
56.895 9.657942
56.900 9.597161
56.905 9.62624
56.910 9.682589
56.915 9.407196
56.920 9.385075
56.925 9.783845
56.930 9.776405
56.935 9.925537
56.940 10.010531
56.945 9.627075
56.950 9.570797
56.955 9.541961
56.960 9.733257
56.965 10.149815
56.970 10.039541
56.975 9.998065
56.980 10.520746
56.985 10.764724
56.990 10.689847
56.995 10.687916
57.000 10.442451
57.005 10.61339
57.010 10.628087
57.015 10.43586
57.020 10.28699
57.025 10.216747
57.030 9.897196
57.035 9.75913
57.040 9.84844
57.045 9.902291
57.050 9.751512
57.055 9.68162
57.060 9.47545
57.065 9.701837
57.070 9.637259
57.075 9.368749
57.080 9.395948
57.085 9.253093
57.090 9.332169
57.095 9.552606
57.100 9.736048
57.105 10.061666
57.110 10.414312
57.115 10.8771
57.120 11.123068
57.125 11.253652
57.130 11.155748
57.135 10.827119
57.140 10.759436
57.145 10.441072
57.150 9.722537
57.155 9.42204
57.160 9.089316
57.165 8.792827
57.170 8.568568
57.175 8.675905
57.180 9.135802
57.185 9.754726
57.190 10.702006
57.195 10.962555
57.200 11.32231
57.205 11.863877
57.210 11.586526
57.215 11.597982
57.220 11.160879
57.225 10.641032
57.230 10.853558
57.235 10.977463
57.240 11.202691
57.245 11.052559
57.250 10.788617
57.255 11.158232
57.260 10.979058
57.265 10.706554
57.270 10.519339
57.275 10.078365
57.280 10.3743
57.285 10.948299
57.290 10.824432
57.295 11.347098
57.300 11.628348
57.305 11.736159
57.310 11.863535
57.315 11.86281
57.320 11.332067
57.325 11.321808
57.330 11.466328
57.335 11.417899
57.340 11.359683
57.345 11.684421
57.350 12.361004
57.355 12.666861
57.360 12.137963
57.365 11.425633
57.370 11.17402
57.375 10.972572
57.380 10.434159
57.385 9.906264
57.390 10.128992
57.395 10.968679
57.400 10.789578
57.405 10.622477
57.410 10.337281
57.415 10.300459
57.420 10.118618
57.425 10.215559
57.430 9.881186
57.435 10.18508
57.440 10.585505
57.445 11.208448
57.450 11.537832
57.455 11.351637
57.460 11.125896
57.465 11.058978
57.470 11.157354
57.475 11.14281
57.480 10.44875
57.485 10.235173
57.490 10.467946
57.495 10.294169
57.500 10.245343
57.505 10.084372
57.510 10.068559
57.515 10.417912
57.520 10.225928
57.525 10.097022
57.530 10.7913
57.535 11.183984
57.540 11.284892
57.545 11.513726
57.550 11.567535
57.555 12.040325
57.560 11.97662
57.565 12.069715
57.570 11.73469
57.575 11.762552
57.580 11.679659
57.585 11.941622
57.590 11.927982
57.595 11.826247
57.600 11.520018
57.605 11.349062
57.610 11.048059
57.615 11.083323
57.620 10.94107
57.625 10.865784
57.630 10.488586
57.635 10.693425
57.640 10.78435
57.645 10.798445
57.650 10.78239
57.655 10.963931
57.660 11.01639
57.665 10.738278
57.670 10.551348
57.675 11.168915
57.680 11.25604
57.685 11.072769
57.690 10.810823
57.695 11.235757
57.700 11.539328
57.705 11.152508
57.710 10.734197
57.715 10.703061
57.720 10.496549
57.725 9.917707
57.730 9.650959
57.735 9.780377
57.740 9.866671
57.745 10.098173
57.750 10.314856
57.755 10.733519
57.760 11.331746
57.765 11.153005
57.770 11.448689
57.775 11.588045
57.780 11.66799
57.785 11.793511
57.790 11.735259
57.795 11.318306
57.800 11.033941
57.805 10.665244
57.810 10.53965
57.815 10.060094
57.820 9.994037
57.825 9.765071
57.830 9.955363
57.835 10.809232
57.840 10.900387
57.845 11.00927
57.850 11.187021
57.855 10.934017
57.860 11.508714
57.865 11.763913
57.870 11.506969
57.875 11.505235
57.880 11.297052
57.885 10.984669
57.890 10.993597
57.895 10.282661
57.900 10.239403
57.905 10.384406
57.910 10.561133
57.915 11.096864
57.920 11.42935
57.925 11.632863
57.930 11.76966
57.935 12.248686
57.940 12.128605
57.945 11.924823
57.950 11.848263
57.955 11.772549
57.960 11.564606
57.965 11.626325
57.970 10.971708
57.975 11.373126
57.980 11.387294
57.985 11.179795
57.990 11.142626
57.995 11.162231
58.000 11.714122
58.005 11.868764
58.010 11.351756
58.015 11.424912
58.020 11.190155
58.025 11.354789
58.030 11.576718
58.035 11.296392
58.040 11.685469
58.045 12.00525
58.050 12.336778
58.055 12.921675
58.060 12.978231
58.065 12.99218
58.070 13.078546
58.075 13.513514
58.080 13.653932
58.085 13.713404
58.090 13.800415
58.095 13.61694
58.100 13.477911
58.105 13.402951
58.110 13.720328
58.115 13.901361
58.120 13.63335
58.125 13.827784
58.130 13.509549
58.135 13.101248
58.140 12.65232
58.145 11.75113
58.150 11.245699
58.155 11.167776
58.160 10.861314
58.165 11.477983
58.170 11.740297
58.175 11.378117
58.180 11.585881
58.185 12.003609
58.190 12.140161
58.195 11.930005
58.200 11.684515
58.205 11.839156
58.210 11.960747
58.215 11.654552
58.220 11.680181
58.225 11.540207
58.230 11.661402
58.235 11.6689
58.240 11.960224
58.245 11.972139
58.250 12.135833
58.255 12.509609
58.260 13.348347
58.265 13.982682
58.270 14.132895
58.275 14.054501
58.280 14.144046
58.285 13.805495
58.290 13.484509
58.295 13.105098
58.300 12.857749
58.305 12.820978
58.310 12.708562
58.315 12.316133
58.320 12.595512
58.325 12.506667
58.330 12.290378
58.335 12.644333
58.340 13.004434
58.345 13.488623
58.350 14.310086
58.355 14.355343
58.360 14.136337
58.365 14.056213
58.370 13.7066
58.375 13.760973
58.380 14.118406
58.385 14.608194
58.390 15.113918
58.395 15.321271
58.400 15.365938
58.405 15.6938
58.410 15.954053
58.415 15.56338
58.420 15.292631
58.425 15.479956
58.430 16.19198
58.435 16.911072
58.440 16.961527
58.445 17.092123
58.450 17.149883
58.455 17.651691
58.460 17.658167
58.465 17.160822
58.470 17.177637
58.475 17.1668
58.480 17.795752
58.485 18.164513
58.490 18.556713
58.495 19.295847
58.500 19.881529
58.505 19.658911
58.510 19.791698
58.515 19.496723
58.520 19.293652
58.525 18.314095
58.530 17.827543
58.535 17.906986
58.540 18.347847
58.545 18.664061
58.550 18.962702
58.555 19.4063
58.560 20.365749
58.565 20.563492
58.570 20.360363
58.575 20.391785
58.580 20.870165
58.585 21.349594
58.590 21.943865
58.595 22.652164
58.600 22.877312
58.605 23.830563
58.610 24.054113
58.615 24.022833
58.620 24.196354
58.625 24.69385
58.630 25.475288
58.635 26.232849
58.640 26.708494
58.645 26.853245
58.650 26.931822
58.655 27.263275
58.660 26.707256
58.665 25.786331
58.670 25.125191
