!@!!GADDS PLOTSO FILE: Chi integration type
!@!!Title/SampleName: map-163
!@!!Comment: ?
!@!!User: Bruker Instrument Administrator
!@!!Site: University of Illinois Chicago
!@!!Frame: map-163_01_000.gfrm
!@!!Wavelengths    1.54184   1.54056   1.54439
!@!!Frame angles: 2Theta: 63.000 Omega: 50.000 Phi: 0.000 Chi: 90.000
!@!!Integration range: 2Theta: 53.000 to 73.000  Gamma: -105.000 to -75.000
!@!!Integration method: bin normalized
!@!N
!@!SS
!@!M
!@!L 0.0 0.0 0.0 0.0
!@!XDegrees
!@!YCounts
53.000 4.380232
53.005 4.235006
53.010 3.99231
53.015 3.88117
53.020 3.872417
53.025 4.090611
53.030 4.013873
53.035 3.854074
53.040 3.674188
53.045 3.595376
53.050 3.340267
53.055 3.291745
53.060 3.131465
53.065 3.351137
53.070 3.360852
53.075 3.410906
53.080 3.786339
53.085 4.147512
53.090 4.333467
53.095 4.185567
53.100 4.222348
53.105 4.38744
53.110 4.604194
53.115 4.852053
53.120 4.682835
53.125 4.586213
53.130 4.630282
53.135 4.572623
53.140 4.524177
53.145 4.597247
53.150 4.210541
53.155 4.248195
53.160 4.539547
53.165 4.299503
53.170 4.322657
53.175 4.295037
53.180 4.375646
53.185 4.284844
53.190 4.27284
53.195 4.164409
53.200 4.302805
53.205 4.33587
53.210 4.133156
53.215 4.090667
53.220 4.214973
53.225 4.307536
53.230 4.435862
53.235 4.451755
53.240 4.442613
53.245 4.56875
53.250 4.569706
53.255 4.712064
53.260 4.778532
53.265 4.680459
53.270 4.704181
53.275 4.799459
53.280 5.059936
53.285 5.093632
53.290 5.027152
53.295 4.838727
53.300 5.126405
53.305 5.084333
53.310 4.842556
53.315 4.325267
53.320 4.084405
53.325 3.929342
53.330 4.007391
53.335 3.768413
53.340 3.597782
53.345 3.725755
53.350 3.741344
53.355 3.876405
53.360 4.354553
53.365 4.654571
53.370 4.981302
53.375 5.165517
53.380 5.379205
53.385 5.609975
53.390 5.436905
53.395 5.032101
53.400 4.331946
53.405 3.933777
53.410 3.588202
53.415 3.387249
53.420 3.394187
53.425 3.135537
53.430 3.285533
53.435 3.601096
53.440 3.607208
53.445 4.060788
53.450 4.096057
53.455 4.091193
53.460 4.436565
53.465 4.617234
53.470 4.822218
53.475 4.778704
53.480 4.531585
53.485 4.893703
53.490 5.016042
53.495 5.085211
53.500 4.968821
53.505 5.130055
53.510 5.330133
53.515 5.155769
53.520 4.851132
53.525 4.71082
53.530 4.523635
53.535 4.663507
53.540 4.634226
53.545 4.659657
53.550 4.557908
53.555 4.401537
53.560 4.617892
53.565 4.480386
53.570 3.864373
53.575 3.710424
53.580 3.53789
53.585 3.450902
53.590 3.55328
53.595 3.383224
53.600 3.592502
53.605 3.892427
53.610 3.668995
53.615 3.961965
53.620 4.181321
53.625 4.038649
53.630 4.303182
53.635 4.535563
53.640 4.737443
53.645 5.089448
53.650 4.940482
53.655 4.978247
53.660 4.836125
53.665 4.850236
53.670 4.968074
53.675 4.969603
53.680 5.113012
53.685 5.048968
53.690 4.999021
53.695 5.094944
53.700 4.990978
53.705 4.548642
53.710 4.599267
53.715 4.44386
53.720 4.746932
53.725 4.664667
53.730 4.680391
53.735 4.669871
53.740 5.025054
53.745 5.195898
53.750 5.083791
53.755 5.289962
53.760 5.818277
53.765 5.775304
53.770 5.533657
53.775 5.508403
53.780 5.48958
53.785 5.754946
53.790 5.456104
53.795 4.977218
53.800 5.105414
53.805 5.349377
53.810 5.289306
53.815 5.32862
53.820 5.173354
53.825 5.340639
53.830 5.345196
53.835 5.26369
53.840 5.033844
53.845 4.871657
53.850 4.769355
53.855 4.835595
53.860 4.581835
53.865 4.571661
53.870 4.460541
53.875 4.53491
53.880 4.604555
53.885 4.448269
53.890 4.266622
53.895 4.396286
53.900 4.494299
53.905 4.658825
53.910 4.578662
53.915 4.404494
53.920 4.431708
53.925 4.740414
53.930 4.670913
53.935 4.648905
53.940 4.581871
53.945 4.566437
53.950 4.654694
53.955 4.634211
53.960 4.379506
53.965 4.454467
53.970 4.922919
53.975 4.979551
53.980 4.949623
53.985 5.004119
53.990 5.359151
53.995 5.813253
54.000 5.772411
54.005 5.580045
54.010 5.468041
54.015 5.569162
54.020 5.50071
54.025 5.088408
54.030 5.15594
54.035 5.140313
54.040 5.175189
54.045 5.535141
54.050 5.438086
54.055 5.467237
54.060 5.39022
54.065 5.072405
54.070 5.262977
54.075 5.209835
54.080 5.264993
54.085 5.546433
54.090 6.119712
54.095 6.301554
54.100 6.302615
54.105 6.474983
54.110 6.69846
54.115 6.794615
54.120 6.364198
54.125 5.655953
54.130 5.712919
54.135 6.056164
54.140 6.095435
54.145 5.836698
54.150 5.782014
54.155 6.172885
54.160 6.421155
54.165 6.442864
54.170 6.182765
54.175 5.79957
54.180 5.484755
54.185 5.283429
54.190 5.625043
54.195 5.937019
54.200 5.922175
54.205 6.172698
54.210 6.300383
54.215 6.556081
54.220 6.593078
54.225 6.249701
54.230 5.895852
54.235 5.77367
54.240 5.764376
54.245 5.877311
54.250 5.615184
54.255 5.401643
54.260 5.733288
54.265 6.000565
54.270 6.136574
54.275 5.92682
54.280 5.825322
54.285 6.025976
54.290 6.115874
54.295 5.859593
54.300 5.445765
54.305 5.327716
54.310 5.530807
54.315 5.700045
54.320 5.741459
54.325 5.567082
54.330 5.425677
54.335 5.494446
54.340 5.191221
54.345 5.196624
54.350 5.118485
54.355 5.079722
54.360 5.059026
54.365 5.046103
54.370 4.960582
54.375 5.3631
54.380 5.481862
54.385 5.377083
54.390 5.497373
54.395 5.702315
54.400 5.917049
54.405 6.235507
54.410 6.171262
54.415 6.166646
54.420 6.128102
54.425 5.97176
54.430 5.942215
54.435 5.770314
54.440 5.676959
54.445 5.628701
54.450 5.677966
54.455 5.974997
54.460 6.008429
54.465 5.803454
54.470 5.522112
54.475 5.337238
54.480 5.308309
54.485 5.349952
54.490 5.344604
54.495 5.592267
54.500 5.517091
54.505 5.499198
54.510 5.3061
54.515 5.28344
54.520 4.906081
54.525 4.561436
54.530 4.230086
54.535 4.118557
54.540 4.125838
54.545 4.081121
54.550 4.046631
54.555 4.259237
54.560 4.417236
54.565 4.647503
54.570 4.918652
54.575 4.855855
54.580 4.840014
54.585 4.793427
54.590 4.923021
54.595 5.075169
54.600 4.870486
54.605 4.747085
54.610 4.718404
54.615 4.589735
54.620 4.857348
54.625 4.702652
54.630 4.836499
54.635 5.34927
54.640 5.821834
54.645 6.357731
54.650 6.300498
54.655 6.020909
54.660 6.070282
54.665 6.145276
54.670 6.11303
54.675 5.384041
54.680 4.987149
54.685 5.267934
54.690 5.34582
54.695 5.084429
54.700 4.870131
54.705 4.837666
54.710 5.163662
54.715 5.111539
54.720 4.82892
54.725 4.981569
54.730 4.955397
54.735 4.895805
54.740 5.015512
54.745 5.295548
54.750 5.332557
54.755 5.170633
54.760 4.931697
54.765 4.962899
54.770 5.033047
54.775 4.852681
54.780 4.687958
54.785 4.612414
54.790 4.784377
54.795 4.914972
54.800 5.058582
54.805 5.156939
54.810 5.54768
54.815 6.050984
54.820 6.527481
54.825 6.609527
54.830 6.573777
54.835 6.270931
54.840 6.04974
54.845 5.525734
54.850 5.179363
54.855 5.066325
54.860 5.243808
54.865 5.355867
54.870 5.718147
54.875 5.719141
54.880 5.591161
54.885 5.515526
54.890 5.353886
54.895 5.11304
54.900 4.932171
54.905 4.586077
54.910 4.524296
54.915 4.387785
54.920 4.36456
54.925 4.749341
54.930 4.973723
54.935 5.126114
54.940 4.923287
54.945 4.816794
54.950 4.993493
54.955 4.920502
54.960 4.455539
54.965 4.081864
54.970 4.114693
54.975 4.458875
54.980 4.637317
54.985 4.506483
54.990 4.497092
54.995 4.590211
55.000 4.935717
55.005 5.195911
55.010 5.289684
55.015 5.329731
55.020 5.724395
55.025 5.983808
55.030 5.998609
55.035 5.868301
55.040 5.546745
55.045 5.860523
55.050 5.750743
55.055 5.246542
55.060 5.197124
55.065 5.014824
55.070 4.832932
55.075 4.745328
55.080 4.460023
55.085 4.365333
55.090 4.338383
55.095 4.242327
55.100 4.398588
55.105 4.598135
55.110 4.888274
55.115 5.387054
55.120 6.083487
55.125 6.293372
55.130 6.568968
55.135 6.857658
55.140 6.873936
55.145 6.77627
55.150 6.214034
55.155 5.570409
55.160 5.224771
55.165 4.675763
55.170 4.375607
55.175 4.186616
55.180 4.263738
55.185 4.749013
55.190 5.345823
55.195 5.834322
55.200 6.191163
55.205 6.1117
55.210 6.371624
55.215 6.075231
55.220 5.53132
55.225 5.165708
55.230 4.825605
55.235 4.635799
55.240 4.889939
55.245 5.103933
55.250 5.295202
55.255 5.742943
55.260 5.807484
55.265 6.15872
55.270 6.359294
55.275 6.095699
55.280 6.09968
55.285 6.106218
55.290 5.716556
55.295 5.800601
55.300 5.476289
55.305 5.438015
55.310 5.290712
55.315 5.102531
55.320 5.236506
55.325 5.278636
55.330 5.148905
55.335 5.323266
55.340 5.431149
55.345 5.258732
55.350 5.290457
55.355 5.346777
55.360 5.328676
55.365 5.105316
55.370 4.687748
55.375 4.599769
55.380 4.787966
55.385 4.81049
55.390 4.724906
55.395 4.367309
55.400 4.504467
55.405 4.694672
55.410 4.485106
55.415 4.043453
55.420 3.822191
55.425 4.076743
55.430 4.378191
55.435 4.219378
55.440 4.412033
55.445 4.460002
55.450 4.558956
55.455 4.3699
55.460 4.349123
55.465 4.766819
55.470 4.699866
55.475 4.589595
55.480 4.816064
55.485 4.834592
55.490 4.851409
55.495 4.97922
55.500 4.958548
55.505 5.114805
55.510 5.216969
55.515 5.342961
55.520 5.485712
55.525 5.470078
55.530 5.256573
55.535 5.279505
55.540 5.444395
55.545 5.693777
55.550 5.678414
55.555 5.842093
55.560 5.978134
55.565 6.037013
55.570 5.866431
55.575 5.447649
55.580 5.044328
55.585 4.822088
55.590 4.615916
55.595 4.653303
55.600 4.442576
55.605 4.510038
55.610 4.669997
55.615 4.795088
55.620 4.790071
55.625 4.693435
55.630 4.510451
55.635 4.514596
55.640 4.51265
55.645 4.683431
55.650 4.847312
55.655 5.125073
55.660 5.282691
55.665 5.414305
55.670 5.668382
55.675 5.895137
55.680 5.814526
55.685 5.883752
55.690 6.017995
55.695 5.917695
55.700 5.926835
55.705 5.711876
55.710 5.512078
55.715 5.475852
55.720 5.116395
55.725 4.838369
55.730 4.638107
55.735 4.651934
55.740 4.468006
55.745 4.262195
55.750 4.502418
55.755 4.586796
55.760 4.901816
55.765 5.026112
55.770 4.929358
55.775 5.031531
55.780 5.312541
55.785 5.020651
55.790 4.930342
55.795 4.801288
55.800 4.976137
55.805 5.20433
55.810 5.181983
55.815 4.961556
55.820 4.982346
55.825 5.5069
55.830 5.426623
55.835 5.495352
55.840 5.481099
55.845 5.4814
55.850 5.376723
55.855 5.296836
55.860 5.105826
55.865 5.008823
55.870 4.81031
55.875 4.659662
55.880 4.477548
55.885 4.495301
55.890 4.545601
55.895 4.653468
55.900 5.077103
55.905 5.114069
55.910 5.256801
55.915 5.900037
55.920 6.124026
55.925 5.918263
55.930 5.474761
55.935 5.022684
55.940 4.950727
55.945 5.026078
55.950 4.825398
55.955 4.935967
55.960 4.886201
55.965 5.080546
55.970 5.149752
55.975 5.147445
55.980 5.005679
55.985 4.639241
55.990 4.503409
55.995 4.644336
56.000 4.661497
56.005 4.765282
56.010 5.007579
56.015 4.712386
56.020 4.685381
56.025 5.039861
56.030 4.793664
56.035 4.957517
56.040 4.929099
56.045 4.832069
56.050 5.259301
56.055 5.225082
56.060 5.103511
56.065 5.593759
56.070 5.553032
56.075 5.476818
56.080 5.577532
56.085 5.781198
56.090 5.697194
56.095 5.552001
56.100 5.194489
56.105 5.431621
56.110 5.51568
56.115 5.190977
56.120 5.048877
56.125 5.235072
56.130 5.602445
56.135 5.793942
56.140 5.65369
56.145 5.752407
56.150 5.781984
56.155 5.936233
56.160 5.893902
56.165 5.410268
56.170 5.285454
56.175 5.07335
56.180 5.102318
56.185 5.274861
56.190 5.142235
56.195 4.952098
56.200 5.425225
56.205 5.373919
56.210 5.720047
56.215 6.157428
56.220 6.358554
56.225 6.534658
56.230 7.036314
56.235 7.005649
56.240 7.033391
56.245 6.588776
56.250 6.166703
56.255 5.826083
56.260 5.674179
56.265 5.35287
56.270 4.951316
56.275 5.001407
56.280 4.898019
56.285 4.718862
56.290 4.791608
56.295 4.734766
56.300 4.660233
56.305 4.885918
56.310 4.849479
56.315 4.951813
56.320 4.875383
56.325 4.957913
56.330 5.167017
56.335 5.444737
56.340 5.628787
56.345 5.700495
56.350 5.728965
56.355 5.626546
56.360 5.327415
56.365 5.19194
56.370 4.714964
56.375 4.440703
56.380 4.45591
56.385 4.735938
56.390 5.172075
56.395 5.410736
56.400 5.591621
56.405 6.131728
56.410 6.505843
56.415 6.526893
56.420 6.228666
56.425 5.934957
56.430 5.896906
56.435 5.798262
56.440 5.636515
56.445 5.694657
56.450 5.611549
56.455 5.66194
56.460 5.890913
56.465 6.14209
56.470 6.066277
56.475 6.005767
56.480 5.800238
56.485 5.97936
56.490 6.553652
56.495 6.163523
56.500 5.815402
56.505 5.892128
56.510 6.045446
56.515 6.059982
56.520 6.076716
56.525 5.633036
56.530 5.702164
56.535 5.846129
56.540 6.00461
56.545 6.027654
56.550 5.68499
56.555 5.876672
56.560 5.892364
56.565 5.949273
56.570 5.666736
56.575 5.340501
56.580 5.371123
56.585 5.384245
56.590 5.454697
56.595 5.601677
56.600 5.613676
56.605 5.886593
56.610 5.904994
56.615 6.010098
56.620 5.892799
56.625 5.316378
56.630 5.18494
56.635 5.062674
56.640 4.876661
56.645 4.794347
56.650 4.692354
56.655 4.444814
56.660 4.622532
56.665 4.871874
56.670 4.967734
56.675 4.81124
56.680 5.064592
56.685 5.210622
56.690 5.486208
56.695 5.493299
56.700 5.535876
56.705 5.583056
56.710 5.734319
56.715 5.329571
56.720 5.503928
56.725 5.75977
56.730 5.845121
56.735 5.772297
56.740 5.731392
56.745 5.622149
56.750 5.520874
56.755 5.515536
56.760 5.591194
56.765 5.631509
56.770 6.044858
56.775 6.151402
56.780 6.159926
56.785 6.406649
56.790 6.471058
56.795 6.571942
56.800 6.611602
56.805 6.35979
56.810 6.42569
56.815 6.607965
56.820 6.546036
56.825 6.289127
56.830 6.513103
56.835 6.263779
56.840 6.473302
56.845 6.553813
56.850 6.388838
56.855 6.314041
56.860 6.22938
56.865 6.010375
56.870 6.422483
56.875 6.217899
56.880 6.167288
56.885 6.024412
56.890 6.148122
56.895 5.97245
56.900 5.934709
56.905 5.680755
56.910 5.515038
56.915 5.364067
56.920 5.541913
56.925 5.421215
56.930 5.552266
56.935 5.46972
56.940 5.360811
56.945 5.176533
56.950 5.236787
56.955 5.238711
56.960 5.416012
56.965 5.446073
56.970 5.745953
56.975 6.387141
56.980 6.767331
56.985 6.92101
56.990 7.275542
56.995 7.062968
57.000 6.921762
57.005 6.289746
57.010 5.670768
57.015 5.796589
57.020 5.679479
57.025 5.631666
57.030 5.653852
57.035 5.489355
57.040 5.960514
57.045 6.281164
57.050 6.384679
57.055 6.554262
57.060 6.537864
57.065 6.616099
57.070 6.765714
57.075 6.339395
57.080 5.947353
57.085 5.398025
57.090 5.003788
57.095 4.891388
57.100 4.746768
57.105 4.491276
57.110 4.563017
57.115 4.483899
57.120 4.623166
57.125 4.596578
57.130 4.567401
57.135 4.648053
57.140 4.767802
57.145 4.411465
57.150 4.36581
57.155 4.25078
57.160 4.352333
57.165 4.242362
57.170 4.452491
57.175 4.684402
57.180 4.89608
57.185 5.009935
57.190 5.197331
57.195 5.464515
57.200 5.649969
57.205 5.951123
57.210 6.053157
57.215 6.177611
57.220 6.281427
57.225 6.335044
57.230 5.953439
57.235 5.490036
57.240 4.925672
57.245 5.027388
57.250 5.002661
57.255 5.045025
57.260 5.124299
57.265 5.341346
57.270 5.538797
57.275 5.878377
57.280 5.765038
57.285 5.860065
57.290 5.794373
57.295 5.965628
57.300 6.196171
57.305 6.447926
57.310 6.319054
57.315 6.093297
57.320 6.450676
57.325 6.30242
57.330 6.050784
57.335 5.784176
57.340 5.384068
57.345 5.530333
57.350 5.939494
57.355 6.036874
57.360 6.50368
57.365 6.775013
57.370 6.772209
57.375 6.742782
57.380 6.67607
57.385 6.590303
57.390 6.356216
57.395 6.160365
57.400 6.560799
57.405 7.12471
57.410 7.524867
57.415 7.382808
57.420 6.905371
57.425 6.387558
57.430 6.140083
57.435 5.513357
57.440 5.0288
57.445 4.7594
57.450 4.781916
57.455 4.944392
57.460 5.260482
57.465 5.219051
57.470 5.425736
57.475 5.553565
57.480 5.675384
57.485 5.97507
57.490 5.722655
57.495 5.533819
57.500 5.595349
57.505 5.369184
57.510 5.448762
57.515 5.53842
57.520 5.263531
57.525 5.436313
57.530 5.621117
57.535 5.331564
57.540 5.415438
57.545 5.00202
57.550 4.792398
57.555 4.83709
57.560 5.18494
57.565 5.20378
57.570 5.405233
57.575 5.472706
57.580 5.661199
57.585 5.879497
57.590 5.764188
57.595 5.554787
57.600 5.415421
57.605 5.220683
57.610 4.986778
57.615 4.876184
57.620 4.664658
57.625 4.998343
57.630 5.110578
57.635 5.050424
57.640 5.674258
57.645 6.002202
57.650 6.293792
57.655 6.543487
57.660 6.584115
57.665 6.684725
57.670 7.066669
57.675 6.617944
57.680 6.392747
57.685 6.356899
57.690 6.400617
57.695 6.315299
57.700 6.100611
57.705 5.829458
57.710 5.885516
57.715 5.980447
57.720 5.717624
57.725 5.460291
57.730 5.476498
57.735 5.193856
57.740 5.487717
57.745 5.600688
57.750 5.777544
57.755 5.91446
57.760 5.866947
57.765 5.691632
57.770 5.880759
57.775 5.582331
57.780 5.629944
57.785 5.654817
57.790 5.667428
57.795 5.777659
57.800 5.845014
57.805 6.089298
57.810 6.295853
57.815 6.145571
57.820 5.786264
57.825 5.925267
57.830 6.282005
57.835 6.271057
57.840 6.134021
57.845 5.802047
57.850 5.890629
57.855 6.036206
57.860 6.1107
57.865 5.884399
57.870 5.803837
57.875 5.925169
57.880 6.237951
57.885 6.193121
57.890 6.293119
57.895 6.03726
57.900 6.212558
57.905 6.352708
57.910 6.256344
57.915 6.441948
57.920 6.82787
57.925 6.766329
57.930 6.683598
57.935 6.412176
57.940 5.800292
57.945 5.439025
57.950 5.387124
57.955 5.085557
57.960 5.017066
57.965 4.774792
57.970 4.946723
57.975 5.596228
57.980 5.651319
57.985 5.669652
57.990 5.879677
57.995 5.872663
58.000 6.158133
58.005 6.397621
58.010 6.29984
58.015 6.330858
58.020 5.855504
58.025 5.8834
58.030 6.318789
58.035 6.672625
58.040 6.693719
58.045 6.822585
58.050 7.159655
58.055 7.476071
58.060 7.123736
58.065 6.801266
58.070 6.527007
58.075 6.463017
58.080 6.128941
58.085 5.523001
58.090 5.380045
58.095 5.425662
58.100 5.278368
58.105 4.779666
58.110 4.304945
58.115 4.584707
58.120 4.938911
58.125 5.078005
58.130 5.160705
58.135 5.335346
58.140 5.546312
58.145 5.843895
58.150 5.625982
58.155 5.367451
58.160 5.149755
58.165 4.912724
58.170 4.822901
58.175 4.997438
58.180 4.850485
58.185 4.800261
58.190 4.723962
58.195 4.90306
58.200 5.173834
58.205 5.180582
58.210 4.883311
58.215 5.274354
58.220 5.700475
58.225 6.16128
58.230 6.111825
58.235 5.903226
58.240 6.032734
58.245 6.197638
58.250 5.961277
58.255 5.576119
58.260 5.394304
58.265 5.610742
58.270 5.718698
58.275 5.604246
58.280 5.728692
58.285 5.80251
58.290 6.143411
58.295 6.280073
58.300 6.228485
58.305 6.385948
58.310 6.532268
58.315 6.461063
58.320 6.694579
58.325 6.389868
58.330 6.072081
58.335 5.973853
58.340 5.624645
58.345 5.544707
58.350 5.338056
58.355 5.518601
58.360 5.559469
58.365 5.654543
58.370 5.682957
58.375 5.838446
58.380 5.661438
58.385 6.006089
58.390 5.76816
58.395 5.829572
58.400 5.744748
58.405 5.776317
58.410 5.685535
58.415 5.631945
58.420 5.311377
58.425 4.971209
58.430 5.272702
58.435 5.601586
58.440 5.729148
58.445 5.959605
58.450 6.067189
58.455 6.179667
58.460 6.953806
58.465 7.005132
58.470 6.68204
58.475 6.575043
58.480 6.60033
58.485 6.637902
58.490 6.578671
58.495 5.997107
58.500 5.91386
58.505 5.87214
58.510 5.887373
58.515 5.77532
58.520 5.569659
58.525 5.863074
58.530 6.237854
58.535 6.252284
58.540 6.631304
58.545 6.4359
58.550 6.516426
58.555 6.346767
58.560 6.174749
58.565 5.773242
58.570 5.930912
58.575 5.70815
58.580 6.189525
58.585 6.356657
58.590 6.511971
58.595 6.433235
58.600 6.560904
58.605 6.358296
58.610 6.320951
58.615 5.922706
58.620 5.697115
58.625 5.996963
58.630 5.714795
58.635 5.562838
58.640 5.320311
58.645 5.03834
58.650 4.949533
58.655 5.139728
58.660 4.883621
58.665 4.895524
58.670 5.079544
58.675 5.224393
58.680 5.339092
58.685 5.562871
58.690 5.641579
58.695 6.045022
58.700 6.63884
58.705 6.69063
58.710 6.72043
58.715 6.793484
58.720 6.600136
58.725 6.438437
58.730 6.507686
58.735 6.023842
58.740 5.708507
58.745 5.690936
58.750 5.764415
58.755 5.921273
58.760 6.015457
