!@!!GADDS PLOTSO FILE: Chi integration type
!@!!Title/SampleName: map-139
!@!!Comment: ?
!@!!User: Bruker Instrument Administrator
!@!!Site: University of Illinois Chicago
!@!!Frame: map-139_01_000.gfrm
!@!!Wavelengths    1.54184   1.54056   1.54439
!@!!Frame angles: 2Theta: 63.000 Omega: 50.000 Phi: 0.000 Chi: 90.000
!@!!Integration range: 2Theta: 53.000 to 73.000  Gamma: -105.000 to -75.000
!@!!Integration method: bin normalized
!@!N
!@!SS
!@!M
!@!L 0.0 0.0 0.0 0.0
!@!XDegrees
!@!YCounts
53.000 7.88818
53.005 7.947059
53.010 7.461148
53.015 7.368165
53.020 7.269742
53.025 7.121017
53.030 7.079623
53.035 6.943905
53.040 7.07813
53.045 7.267684
53.050 7.528568
53.055 7.55106
53.060 7.689203
53.065 7.982192
53.070 7.877361
53.075 7.756371
53.080 7.702452
53.085 7.631609
53.090 7.411102
53.095 7.240123
53.100 7.300493
53.105 7.675873
53.110 7.742441
53.115 7.554672
53.120 7.644614
53.125 8.093084
53.130 8.241036
53.135 8.38547
53.140 8.36506
53.145 8.476234
53.150 8.510246
53.155 8.570169
53.160 8.48015
53.165 8.153883
53.170 8.117203
53.175 8.286932
53.180 8.184652
53.185 8.375652
53.190 8.73837
53.195 8.979813
53.200 8.739728
53.205 8.141482
53.210 7.882513
53.215 7.971763
53.220 7.982452
53.225 7.730391
53.230 7.996628
53.235 8.040012
53.240 7.901907
53.245 7.513824
53.250 7.495002
53.255 7.218213
53.260 6.99639
53.265 7.093806
53.270 7.464612
53.275 8.023253
53.280 8.677967
53.285 8.631304
53.290 8.919244
53.295 9.106214
53.300 9.05576
53.305 9.099795
53.310 9.001158
53.315 8.977599
53.320 9.132687
53.325 8.992077
53.330 8.721333
53.335 8.472829
53.340 8.226912
53.345 7.837528
53.350 7.645358
53.355 7.658236
53.360 7.497953
53.365 7.692111
53.370 8.057645
53.375 8.072494
53.380 8.600516
53.385 8.94088
53.390 8.885485
53.395 8.970528
53.400 8.611153
53.405 8.525957
53.410 8.656835
53.415 8.29679
53.420 8.35745
53.425 8.385312
53.430 8.50816
53.435 8.776139
53.440 8.820922
53.445 8.81487
53.450 8.649278
53.455 8.548012
53.460 8.300203
53.465 8.165215
53.470 7.560461
53.475 7.380818
53.480 7.069024
53.485 6.788713
53.490 6.789659
53.495 7.193685
53.500 7.613956
53.505 8.195807
53.510 8.568626
53.515 8.641444
53.520 8.430235
53.525 8.175691
53.530 7.911931
53.535 7.858396
53.540 7.647573
53.545 7.637334
53.550 7.945425
53.555 8.490853
53.560 8.650655
53.565 9.256948
53.570 9.355895
53.575 9.324955
53.580 9.704144
53.585 9.773439
53.590 9.529109
53.595 9.316465
53.600 9.407147
53.605 9.596255
53.610 9.605239
53.615 9.361803
53.620 9.537914
53.625 9.590865
53.630 9.507533
53.635 9.307952
53.640 9.306985
53.645 9.209033
53.650 9.033811
53.655 9.291583
53.660 9.062263
53.665 8.726868
53.670 8.556794
53.675 8.542321
53.680 8.548209
53.685 8.563348
53.690 8.757298
53.695 8.916327
53.700 9.099763
53.705 8.978423
53.710 8.676009
53.715 8.667646
53.720 8.84859
53.725 8.698692
53.730 8.727906
53.735 8.272366
53.740 8.303431
53.745 9.068104
53.750 9.182894
53.755 8.696684
53.760 8.445396
53.765 8.504346
53.770 8.621256
53.775 7.962942
53.780 7.121943
53.785 6.959639
53.790 7.047709
53.795 7.425128
53.800 7.404449
53.805 7.622196
53.810 8.360934
53.815 8.710126
53.820 8.581375
53.825 8.433751
53.830 8.542132
53.835 8.769835
53.840 8.73593
53.845 8.467944
53.850 8.586715
53.855 8.891725
53.860 8.901998
53.865 8.410582
53.870 8.43879
53.875 8.737449
53.880 8.948248
53.885 8.536393
53.890 8.26515
53.895 8.959641
53.900 9.664474
53.905 9.910908
53.910 9.352716
53.915 9.663197
53.920 10.156291
53.925 10.231118
53.930 9.887533
53.935 9.567301
53.940 8.822145
53.945 9.11469
53.950 8.77719
53.955 8.602395
53.960 8.452551
53.965 8.146002
53.970 8.548824
53.975 8.973349
53.980 8.521111
53.985 8.664322
53.990 8.721106
53.995 9.07528
54.000 8.964326
54.005 8.547181
54.010 8.788469
54.015 8.801431
54.020 8.642584
54.025 8.673808
54.030 8.909256
54.035 9.442816
54.040 9.401017
54.045 9.310112
54.050 9.550054
54.055 9.554125
54.060 9.439183
54.065 9.177481
54.070 9.094814
54.075 9.442414
54.080 9.839606
54.085 10.22875
54.090 10.246857
54.095 10.113044
54.100 9.942369
54.105 9.758937
54.110 9.497559
54.115 9.490957
54.120 9.092612
54.125 9.001441
54.130 9.321856
54.135 9.220712
54.140 9.136014
54.145 9.140135
54.150 9.162516
54.155 9.825789
54.160 9.617861
54.165 9.700275
54.170 9.944107
54.175 10.250283
54.180 10.463263
54.185 10.201823
54.190 10.162286
54.195 10.206462
54.200 10.172326
54.205 10.194101
54.210 9.187026
54.215 8.633346
54.220 8.629695
54.225 8.749085
54.230 8.994036
54.235 8.996315
54.240 8.888359
54.245 9.622926
54.250 10.242889
54.255 9.849182
54.260 9.590131
54.265 9.24472
54.270 9.687946
54.275 9.900454
54.280 10.031334
54.285 9.950913
54.290 10.163628
54.295 10.153498
54.300 10.210413
54.305 9.790045
54.310 9.282025
54.315 8.924246
54.320 8.762132
54.325 8.793063
54.330 8.96183
54.335 8.865918
54.340 9.311904
54.345 9.570632
54.350 9.728583
54.355 9.698678
54.360 9.549283
54.365 9.507974
54.370 9.928535
54.375 9.564527
54.380 9.89866
54.385 10.029527
54.390 10.052341
54.395 10.380468
54.400 10.282846
54.405 10.205498
54.410 10.359178
54.415 9.642754
54.420 9.201632
54.425 9.000457
54.430 8.808656
54.435 9.061324
54.440 9.193352
54.445 9.263111
54.450 9.660203
54.455 9.958352
54.460 10.210427
54.465 9.908936
54.470 9.479365
54.475 9.004816
54.480 8.96635
54.485 9.185612
54.490 9.419407
54.495 9.399973
54.500 9.533149
54.505 9.746862
54.510 9.965417
54.515 9.811498
54.520 9.786236
54.525 9.892316
54.530 10.026555
54.535 10.188846
54.540 10.047462
54.545 9.676734
54.550 9.909255
54.555 9.777244
54.560 9.87157
54.565 9.748287
54.570 9.816175
54.575 9.973814
54.580 10.389212
54.585 10.07598
54.590 9.651147
54.595 9.119111
54.600 8.896614
54.605 8.881063
54.610 9.245351
54.615 9.2812
54.620 10.043531
54.625 10.255981
54.630 10.418037
54.635 10.080733
54.640 10.101275
54.645 10.079316
54.650 9.698428
54.655 9.165008
54.660 9.245601
54.665 9.44606
54.670 9.948658
54.675 9.412677
54.680 9.31197
54.685 9.545149
54.690 9.63051
54.695 9.563941
54.700 9.246138
54.705 8.9639
54.710 8.91176
54.715 8.813062
54.720 8.583705
54.725 8.591382
54.730 8.728075
54.735 9.018448
54.740 9.417539
54.745 9.634746
54.750 9.410502
54.755 9.153013
54.760 8.922036
54.765 9.246678
54.770 9.279915
54.775 8.887887
54.780 8.645188
54.785 8.525319
54.790 8.862296
54.795 8.826556
54.800 8.382278
54.805 8.199709
54.810 8.572593
54.815 8.980779
54.820 9.277863
54.825 9.260279
54.830 9.718128
54.835 10.007762
54.840 10.341578
54.845 10.485917
54.850 10.558064
54.855 10.780615
54.860 11.03725
54.865 10.98387
54.870 10.894089
54.875 10.96509
54.880 11.722661
54.885 11.382271
54.890 11.625311
54.895 11.572193
54.900 11.740417
54.905 11.674596
54.910 10.967406
54.915 10.045248
54.920 9.996179
54.925 8.896115
54.930 8.648474
54.935 8.790302
54.940 8.802787
54.945 8.997244
54.950 9.604685
54.955 9.824083
54.960 10.471183
54.965 10.432754
54.970 10.532701
54.975 10.578958
54.980 10.585333
54.985 10.640461
54.990 10.674607
54.995 10.233802
55.000 9.857069
55.005 9.627912
55.010 9.805355
55.015 9.632579
55.020 9.121606
55.025 9.268174
55.030 9.383407
55.035 9.579206
55.040 9.524577
55.045 9.333622
55.050 9.4805
55.055 10.119291
55.060 10.320498
55.065 10.466801
55.070 10.084625
55.075 9.964605
55.080 10.131834
55.085 9.974563
55.090 9.758184
55.095 9.50841
55.100 9.487837
55.105 10.000267
55.110 10.269354
55.115 10.863829
55.120 10.84525
55.125 10.885453
55.130 11.254716
55.135 11.324904
55.140 11.452414
55.145 11.201979
55.150 10.956001
55.155 11.287744
55.160 10.958802
55.165 11.036992
55.170 11.339453
55.175 11.34579
55.180 11.6097
55.185 11.197322
55.190 11.194174
55.195 10.85149
55.200 10.530642
55.205 9.882158
55.210 9.569308
55.215 9.226177
55.220 9.120741
55.225 9.043194
55.230 9.351103
55.235 9.367723
55.240 9.50916
55.245 9.352717
55.250 9.738573
55.255 9.801263
55.260 9.929239
55.265 10.352377
55.270 10.783492
55.275 10.995314
55.280 11.365298
55.285 11.058971
55.290 11.109739
55.295 10.938976
55.300 10.316875
55.305 10.315068
55.310 10.269261
55.315 10.227406
55.320 10.47211
55.325 10.183597
55.330 10.024222
55.335 10.241391
55.340 10.287096
55.345 10.533254
55.350 10.566107
55.355 10.275413
55.360 10.452952
55.365 10.526061
55.370 10.204374
55.375 10.046529
55.380 10.229677
55.385 10.399935
55.390 10.688921
55.395 10.845142
55.400 11.058064
55.405 11.284
55.410 11.41504
55.415 11.062755
55.420 11.12821
55.425 10.838472
55.430 10.852034
55.435 11.083012
55.440 11.492696
55.445 11.097773
55.450 11.092158
55.455 11.30062
55.460 11.172848
55.465 10.953249
55.470 10.42599
55.475 10.679594
55.480 11.285462
55.485 10.902806
55.490 10.757375
55.495 10.91203
55.500 11.347805
55.505 12.036612
55.510 11.590272
55.515 11.227437
55.520 11.368879
55.525 11.485773
55.530 11.080586
55.535 10.282755
55.540 9.612226
55.545 9.375906
55.550 10.052639
55.555 9.843684
55.560 10.413552
55.565 11.178527
55.570 11.962171
55.575 12.215243
55.580 12.651886
55.585 12.552276
55.590 12.610517
55.595 12.349676
55.600 12.357384
55.605 12.177621
55.610 12.094814
55.615 11.652349
55.620 11.299567
55.625 10.867431
55.630 10.443316
55.635 10.07527
55.640 10.083442
55.645 9.613626
55.650 9.049128
55.655 9.071278
55.660 9.609073
55.665 9.583927
55.670 9.504997
55.675 9.388474
55.680 9.636293
55.685 10.135615
55.690 10.2335
55.695 9.946963
55.700 10.168723
55.705 10.285403
55.710 10.412639
55.715 10.545645
55.720 10.811697
55.725 11.050424
55.730 11.110206
55.735 10.835176
55.740 11.024531
55.745 11.191503
55.750 11.568233
55.755 11.098499
55.760 10.783051
55.765 10.750719
55.770 10.837327
55.775 10.206104
55.780 9.985497
55.785 9.791391
55.790 10.303272
55.795 10.77663
55.800 10.960018
55.805 10.905492
55.810 11.336364
55.815 11.372887
55.820 11.581839
55.825 11.372258
55.830 11.1612
55.835 11.768488
55.840 12.098844
55.845 12.104481
55.850 12.25148
55.855 11.949215
55.860 11.736854
55.865 11.566534
55.870 10.975376
55.875 10.954778
55.880 11.237092
55.885 11.505109
55.890 11.722446
55.895 12.00356
55.900 11.8862
55.905 11.851825
55.910 12.134112
55.915 11.323908
55.920 11.04093
55.925 11.156336
55.930 11.052484
55.935 11.599469
55.940 11.717844
55.945 11.819295
55.950 12.150668
55.955 12.155157
55.960 12.183907
55.965 11.760555
55.970 11.285959
55.975 10.909979
55.980 10.417096
55.985 10.654746
55.990 10.665301
55.995 10.896252
56.000 11.248238
56.005 10.902674
56.010 11.122235
56.015 11.284407
56.020 11.025498
56.025 10.68806
56.030 10.706738
56.035 10.873043
56.040 10.985825
56.045 10.724509
56.050 10.326631
56.055 10.569208
56.060 11.004954
56.065 10.754691
56.070 11.010762
56.075 11.155105
56.080 11.299067
56.085 11.598642
56.090 11.51822
56.095 11.233897
56.100 11.080351
56.105 10.583561
56.110 10.736195
56.115 11.051252
56.120 11.09982
56.125 10.982217
56.130 11.07698
56.135 11.031629
56.140 11.043197
56.145 10.298411
56.150 9.796538
56.155 9.894222
56.160 9.801312
56.165 10.001131
56.170 10.458313
56.175 11.029823
56.180 11.453479
56.185 11.97582
56.190 12.112922
56.195 11.992358
56.200 12.086954
56.205 12.221562
56.210 11.873053
56.215 12.022467
56.220 11.403012
56.225 11.381222
56.230 11.897304
56.235 11.816133
56.240 11.850721
56.245 12.018375
56.250 11.910171
56.255 11.930671
56.260 11.765404
56.265 11.559844
56.270 12.016738
56.275 12.028922
56.280 11.816771
56.285 12.033653
56.290 12.105338
56.295 12.259093
56.300 11.95276
56.305 11.316228
56.310 11.296772
56.315 11.512539
56.320 11.412398
56.325 12.147308
56.330 12.159239
56.335 12.074917
56.340 12.266125
56.345 12.336999
56.350 11.922328
56.355 11.755464
56.360 11.184436
56.365 10.962155
56.370 10.885956
56.375 10.960935
56.380 10.32929
56.385 10.867149
56.390 10.782772
56.395 10.417604
56.400 10.489534
56.405 10.557304
56.410 10.581352
56.415 10.987719
56.420 11.037102
56.425 10.983209
56.430 11.72114
56.435 11.543531
56.440 11.66146
56.445 11.679888
56.450 11.973284
56.455 12.116262
56.460 12.355434
56.465 11.965963
56.470 12.004737
56.475 11.985803
56.480 11.924305
56.485 11.456967
56.490 11.887124
56.495 12.24182
56.500 12.114556
56.505 12.153671
56.510 12.063075
56.515 12.184179
56.520 12.514905
56.525 11.865296
56.530 12.006168
56.535 12.463599
56.540 12.264642
56.545 12.633185
56.550 12.323853
56.555 12.45368
56.560 12.851019
56.565 12.404312
56.570 12.592995
56.575 12.749191
56.580 12.656335
56.585 12.739753
56.590 12.290535
56.595 12.849399
56.600 12.921459
56.605 12.583185
56.610 12.25769
56.615 12.246536
56.620 12.399477
56.625 12.281322
56.630 11.143292
56.635 11.341971
56.640 11.869278
56.645 11.916529
56.650 12.234
56.655 12.457051
56.660 12.093945
56.665 12.108482
56.670 12.043031
56.675 12.262144
56.680 12.062107
56.685 11.56455
56.690 11.495781
56.695 11.788694
56.700 11.964187
56.705 11.810168
56.710 11.40593
56.715 11.946035
56.720 12.28786
56.725 12.357949
56.730 12.854916
56.735 13.377399
56.740 13.359709
56.745 13.789015
56.750 13.730699
56.755 13.768218
56.760 13.827145
56.765 13.092208
56.770 12.714695
56.775 12.775438
56.780 12.614327
56.785 12.623019
56.790 12.368631
56.795 12.143347
56.800 12.835442
56.805 12.710559
56.810 12.657933
56.815 12.601738
56.820 12.418802
56.825 12.413005
56.830 12.229061
56.835 12.661136
56.840 13.17683
56.845 12.881919
56.850 12.88599
56.855 13.334866
56.860 13.612365
56.865 13.832895
56.870 13.219462
56.875 12.710642
56.880 12.706701
56.885 12.721928
56.890 12.452023
56.895 12.514981
56.900 12.413939
56.905 12.328957
56.910 12.61284
56.915 12.880143
56.920 12.592711
56.925 12.092574
56.930 11.986129
56.935 11.408384
56.940 11.761281
56.945 11.751647
56.950 11.67848
56.955 11.865516
56.960 12.002968
56.965 12.221652
56.970 12.928232
56.975 12.745478
56.980 12.737137
56.985 12.971186
56.990 13.273786
56.995 13.465178
57.000 13.43869
57.005 12.762914
57.010 12.491824
57.015 12.554307
57.020 12.348135
57.025 11.880852
57.030 11.670648
57.035 11.852739
57.040 11.970206
57.045 11.544469
57.050 11.417135
57.055 11.493939
57.060 11.567565
57.065 11.956177
57.070 11.848015
57.075 12.348768
57.080 12.644779
57.085 12.466115
57.090 11.866949
57.095 11.913665
57.100 12.03687
57.105 11.559461
57.110 11.087412
57.115 10.796305
57.120 10.6144
57.125 10.75601
57.130 10.633725
57.135 10.388622
57.140 10.615472
57.145 11.009933
57.150 11.848543
57.155 12.274041
57.160 12.740559
57.165 12.837787
57.170 12.917809
57.175 13.480106
57.180 13.205317
57.185 12.919721
57.190 12.6108
57.195 12.662722
57.200 12.432005
57.205 12.237612
57.210 11.866879
57.215 11.569424
57.220 11.352499
57.225 11.89507
57.230 11.98351
57.235 12.143775
57.240 12.295558
57.245 12.707166
57.250 13.174146
57.255 13.260679
57.260 13.037231
57.265 12.826882
57.270 12.577203
57.275 12.723779
57.280 13.107052
57.285 12.73982
57.290 12.905066
57.295 12.849665
57.300 13.217651
57.305 13.124322
57.310 12.597003
57.315 12.674286
57.320 13.052798
57.325 13.000212
57.330 12.901506
57.335 12.690233
57.340 12.909967
57.345 12.675868
57.350 11.799884
57.355 11.738395
57.360 11.256689
57.365 11.072048
57.370 10.914417
57.375 11.187738
57.380 11.61914
57.385 11.72664
57.390 12.048671
57.395 12.32569
57.400 12.181809
57.405 12.382095
57.410 12.074381
57.415 12.126805
57.420 12.261602
57.425 12.093636
57.430 11.966808
57.435 12.219648
57.440 12.487203
57.445 12.592891
57.450 12.419979
57.455 12.348101
57.460 12.032028
57.465 12.581851
57.470 12.667847
57.475 12.6422
57.480 13.153239
57.485 13.156152
57.490 13.534707
57.495 14.129606
57.500 13.230257
57.505 12.797603
57.510 12.388206
57.515 11.901328
57.520 11.491613
57.525 10.532454
57.530 10.12776
57.535 10.199348
57.540 10.338497
57.545 10.503747
57.550 10.893691
57.555 11.558764
57.560 12.502232
57.565 13.114328
57.570 13.781331
57.575 14.285239
57.580 14.463346
57.585 14.202173
57.590 14.322216
57.595 13.855913
57.600 14.055872
57.605 14.312963
57.610 14.156868
57.615 13.855773
57.620 14.100313
57.625 13.942681
57.630 14.796353
57.635 14.457382
57.640 14.269828
57.645 14.15702
57.650 14.420918
57.655 14.690929
57.660 14.636917
57.665 13.43324
57.670 12.898713
57.675 12.697417
57.680 12.622485
57.685 12.525497
57.690 12.73611
57.695 13.429426
57.700 14.167503
57.705 14.532908
57.710 14.770708
57.715 14.750868
57.720 14.714618
57.725 14.321646
57.730 14.15624
57.735 14.410823
57.740 14.768924
57.745 14.628656
57.750 14.934886
57.755 15.16715
57.760 15.572977
57.765 15.449486
57.770 14.996732
57.775 15.061065
57.780 15.104795
57.785 15.251811
57.790 14.955385
57.795 14.058382
57.800 13.709938
57.805 14.344967
57.810 14.27444
57.815 14.274416
57.820 14.673765
57.825 15.06876
57.830 15.596999
57.835 15.577129
57.840 14.966496
57.845 15.050008
57.850 14.705075
57.855 13.775569
57.860 13.596571
57.865 13.891464
57.870 14.604101
57.875 14.849386
57.880 14.548243
57.885 15.322886
57.890 15.873159
57.895 16.056885
57.900 16.328362
57.905 15.992476
57.910 15.887666
57.915 15.957786
57.920 15.685821
57.925 15.603664
57.930 15.498426
57.935 14.695388
57.940 14.621335
57.945 15.103312
57.950 14.894821
57.955 14.63813
57.960 14.381751
57.965 14.466514
57.970 14.839082
57.975 14.66503
57.980 14.284506
57.985 14.978833
57.990 15.166287
57.995 15.161858
58.000 15.174322
58.005 15.494357
58.010 15.849285
58.015 16.177048
58.020 16.367689
58.025 16.926453
58.030 17.383232
58.035 17.477768
58.040 17.004873
58.045 16.45503
58.050 16.308331
58.055 15.898257
58.060 15.400515
58.065 14.733724
58.070 14.37786
58.075 14.692337
58.080 14.553099
58.085 14.372305
58.090 14.456463
58.095 14.480517
58.100 14.541781
58.105 14.835348
58.110 15.084474
58.115 14.820493
58.120 14.616929
58.125 14.513677
58.130 14.302889
58.135 14.305245
58.140 14.40099
58.145 14.7311
58.150 15.044657
58.155 14.767262
58.160 14.399389
58.165 14.931005
58.170 15.233502
58.175 14.71244
58.180 14.091621
58.185 14.264482
58.190 15.028913
58.195 15.399021
58.200 15.434205
58.205 15.866122
58.210 16.635181
58.215 17.27046
58.220 17.348026
58.225 16.887102
58.230 16.973213
58.235 17.512232
58.240 16.971371
58.245 16.233116
58.250 15.560984
58.255 15.646915
58.260 15.843704
58.265 15.962809
58.270 15.471386
58.275 15.562149
58.280 16.564129
58.285 16.924141
58.290 16.881365
58.295 17.451256
58.300 17.428652
58.305 17.710913
58.310 17.874292
58.315 17.276083
58.320 17.91486
58.325 18.252806
58.330 17.324352
58.335 17.25259
58.340 17.189487
58.345 17.396738
58.350 17.394585
58.355 16.891306
58.360 17.010012
58.365 17.917133
58.370 18.426624
58.375 18.594175
58.380 18.503736
58.385 19.237547
58.390 19.804821
58.395 19.687378
58.400 19.652206
58.405 19.588327
58.410 19.4471
58.415 19.905804
58.420 19.715078
58.425 19.126333
58.430 20.033792
58.435 19.937626
58.440 19.881155
58.445 20.309454
58.450 20.598526
58.455 21.719007
58.460 22.635765
58.465 22.573503
58.470 23.121561
58.475 23.670853
58.480 24.247782
58.485 24.121601
58.490 24.23188
58.495 24.520885
58.500 24.951019
58.505 25.526205
58.510 25.672939
58.515 26.256565
58.520 26.602612
58.525 26.592958
58.530 26.997585
58.535 26.407007
58.540 26.612827
58.545 26.799372
58.550 26.146544
