!@!!GADDS PLOTSO FILE: Chi integration type
!@!!Title/SampleName: map-161
!@!!Comment: ?
!@!!User: Bruker Instrument Administrator
!@!!Site: University of Illinois Chicago
!@!!Frame: map-161_01_000.gfrm
!@!!Wavelengths    1.54184   1.54056   1.54439
!@!!Frame angles: 2Theta: 63.000 Omega: 50.000 Phi: 0.000 Chi: 90.000
!@!!Integration range: 2Theta: 53.000 to 73.000  Gamma: -105.000 to -75.000
!@!!Integration method: bin normalized
!@!N
!@!SS
!@!M
!@!L 0.0 0.0 0.0 0.0
!@!XDegrees
!@!YCounts
53.000 5.900562
53.005 5.858308
53.010 6.080732
53.015 6.180762
53.020 6.396677
53.025 6.440496
53.030 6.509119
53.035 6.672282
53.040 6.610335
53.045 6.738274
53.050 6.940193
53.055 6.652527
53.060 6.706797
53.065 6.600626
53.070 6.717626
53.075 6.772122
53.080 6.224096
53.085 6.102128
53.090 6.315084
53.095 6.48022
53.100 6.450143
53.105 6.695023
53.110 7.240074
53.115 7.400461
53.120 7.399551
53.125 7.641409
53.130 7.657063
53.135 7.806747
53.140 7.647208
53.145 7.547466
53.150 7.499229
53.155 7.312282
53.160 6.709529
53.165 6.74668
53.170 6.432699
53.175 6.045828
53.180 6.037161
53.185 6.03812
53.190 6.533456
53.195 6.852822
53.200 6.729228
53.205 6.682204
53.210 6.618761
53.215 6.653109
53.220 6.776865
53.225 6.494624
53.230 5.963505
53.235 5.81675
53.240 5.879635
53.245 6.052545
53.250 5.811749
53.255 5.78934
53.260 5.706455
53.265 5.899011
53.270 5.944875
53.275 5.896442
53.280 6.033584
53.285 6.105248
53.290 6.379897
53.295 6.344831
53.300 6.461333
53.305 6.556814
53.310 6.576906
53.315 6.799168
53.320 6.690282
53.325 6.67602
53.330 6.690858
53.335 6.674263
53.340 6.610954
53.345 6.677952
53.350 6.712533
53.355 6.422976
53.360 6.433014
53.365 6.738853
53.370 6.598605
53.375 6.31074
53.380 6.156499
53.385 6.290945
53.390 6.626472
53.395 6.721668
53.400 6.585244
53.405 6.857485
53.410 7.03992
53.415 6.980462
53.420 6.735157
53.425 6.168012
53.430 6.039332
53.435 5.904432
53.440 6.297968
53.445 6.107244
53.450 5.870077
53.455 6.077888
53.460 6.544749
53.465 6.913936
53.470 7.07697
53.475 6.703721
53.480 6.845237
53.485 6.860198
53.490 6.986357
53.495 6.802848
53.500 6.493588
53.505 6.368834
53.510 6.428748
53.515 6.342494
53.520 5.920653
53.525 5.874023
53.530 6.107049
53.535 6.25115
53.540 6.430749
53.545 6.515203
53.550 6.712778
53.555 7.129026
53.560 7.048445
53.565 6.984772
53.570 6.866256
53.575 6.959729
53.580 7.105098
53.585 6.74083
53.590 6.37554
53.595 5.918926
53.600 5.588839
53.605 5.300519
53.610 5.233146
53.615 5.279284
53.620 5.649536
53.625 6.071073
53.630 6.630172
53.635 7.043981
53.640 7.334074
53.645 7.561192
53.650 7.817481
53.655 7.699187
53.660 7.635302
53.665 7.4442
53.670 7.674518
53.675 7.577207
53.680 6.858709
53.685 6.595638
53.690 6.294728
53.695 5.971502
53.700 6.090192
53.705 6.249671
53.710 6.351399
53.715 6.327826
53.720 6.162827
53.725 6.414656
53.730 6.379535
53.735 5.789257
53.740 5.574096
53.745 5.677194
53.750 6.346069
53.755 6.81671
53.760 6.858465
53.765 7.171265
53.770 7.75609
53.775 8.011291
53.780 7.839257
53.785 7.717288
53.790 7.941335
53.795 8.15966
53.800 8.129231
53.805 8.131756
53.810 8.263516
53.815 8.651052
53.820 8.455647
53.825 8.644131
53.830 8.604683
53.835 8.105878
53.840 7.601641
53.845 7.190353
53.850 7.197317
53.855 6.893963
53.860 6.594977
53.865 6.935615
53.870 6.801929
53.875 6.912092
53.880 6.625239
53.885 6.600905
53.890 6.410033
53.895 6.259686
53.900 6.493928
53.905 6.818529
53.910 7.347476
53.915 7.672091
53.920 7.803861
53.925 8.063563
53.930 7.867541
53.935 7.910882
53.940 7.900272
53.945 7.449223
53.950 7.479523
53.955 7.144001
53.960 7.607841
53.965 7.82842
53.970 7.699089
53.975 7.764638
53.980 7.855962
53.985 7.74945
53.990 7.721135
53.995 7.306349
54.000 6.997505
54.005 6.821208
54.010 6.592098
54.015 6.387378
54.020 6.455856
54.025 6.809663
54.030 7.049275
54.035 6.981786
54.040 7.040094
54.045 7.226313
54.050 7.360175
54.055 7.454179
54.060 7.385529
54.065 7.544035
54.070 7.795688
54.075 7.681726
54.080 7.539334
54.085 7.369955
54.090 7.205416
54.095 7.038181
54.100 6.826824
54.105 7.091194
54.110 7.512894
54.115 7.686534
54.120 8.014212
54.125 8.375444
54.130 8.444315
54.135 8.291686
54.140 8.126298
54.145 7.76138
54.150 7.71382
54.155 7.293334
54.160 6.806265
54.165 6.55554
54.170 6.599625
54.175 6.470294
54.180 6.591972
54.185 6.498144
54.190 6.677448
54.195 7.297234
54.200 7.41875
54.205 6.98274
54.210 6.888557
54.215 7.042072
54.220 7.14522
54.225 7.102278
54.230 6.769579
54.235 6.79651
54.240 6.764294
54.245 7.118161
54.250 6.927819
54.255 6.931487
54.260 6.920992
54.265 6.748603
54.270 7.14994
54.275 7.402717
54.280 7.291512
54.285 7.496813
54.290 7.453589
54.295 7.770552
54.300 8.062161
54.305 7.904888
54.310 8.080842
54.315 7.685677
54.320 7.629886
54.325 7.604825
54.330 7.276159
54.335 7.099895
54.340 7.026608
54.345 6.918121
54.350 7.101507
54.355 7.045307
54.360 7.081629
54.365 7.292824
54.370 7.554265
54.375 7.561273
54.380 7.753746
54.385 7.496088
54.390 7.501001
54.395 7.153884
54.400 7.050702
54.405 6.940457
54.410 6.851677
54.415 6.497761
54.420 6.628568
54.425 6.532223
54.430 6.718353
54.435 6.611295
54.440 6.174834
54.445 6.397158
54.450 6.698689
54.455 6.878237
54.460 6.906395
54.465 6.864214
54.470 7.386496
54.475 7.739695
54.480 7.877624
54.485 8.102429
54.490 7.968772
54.495 7.749866
54.500 7.770643
54.505 7.339762
54.510 7.725893
54.515 7.679417
54.520 7.522055
54.525 7.747469
54.530 7.911023
54.535 7.695634
54.540 7.517961
54.545 7.158828
54.550 7.230349
54.555 7.548476
54.560 7.734417
54.565 7.88855
54.570 7.943649
54.575 8.00584
54.580 7.509953
54.585 7.475451
54.590 7.253221
54.595 7.391475
54.600 7.367037
54.605 7.375354
54.610 7.33936
54.615 7.486392
54.620 7.376194
54.625 7.767247
54.630 7.782482
54.635 7.593228
54.640 7.827001
54.645 7.968119
54.650 7.945875
54.655 8.003998
54.660 8.234979
54.665 8.458361
54.670 8.712489
54.675 8.752124
54.680 8.828206
54.685 9.145293
54.690 8.839599
54.695 8.382792
54.700 8.083081
54.705 8.028461
54.710 7.592981
54.715 7.458058
54.720 7.347682
54.725 6.999874
54.730 7.483226
54.735 7.429613
54.740 7.296177
54.745 7.30838
54.750 7.123377
54.755 7.20448
54.760 7.032678
54.765 6.559559
54.770 7.029362
54.775 7.534044
54.780 7.991997
54.785 8.4032
54.790 8.625316
54.795 8.788335
54.800 8.788299
54.805 8.166651
54.810 7.764219
54.815 7.749953
54.820 7.634517
54.825 7.523693
54.830 7.26903
54.835 7.265448
54.840 7.616267
54.845 7.583054
54.850 7.27313
54.855 7.10866
54.860 7.108688
54.865 7.064007
54.870 6.894555
54.875 6.98524
54.880 7.126204
54.885 6.914005
54.890 6.817735
54.895 7.145878
54.900 7.331172
54.905 7.370785
54.910 7.224455
54.915 7.199906
54.920 7.070858
54.925 6.911861
54.930 6.422638
54.935 6.087974
54.940 5.820167
54.945 5.975211
54.950 6.576403
54.955 6.788834
54.960 6.94014
54.965 7.295465
54.970 7.609996
54.975 7.826654
54.980 7.670034
54.985 7.857894
54.990 7.955244
54.995 8.019119
55.000 7.887264
55.005 8.025603
55.010 8.413743
55.015 8.6793
55.020 8.088615
55.025 8.029316
55.030 8.106354
55.035 8.08196
55.040 7.777788
55.045 7.316479
55.050 7.155962
55.055 7.573238
55.060 7.459842
55.065 7.193251
55.070 7.207683
55.075 7.217866
55.080 7.190191
55.085 7.099477
55.090 6.889343
55.095 7.39274
55.100 7.931319
55.105 7.907194
55.110 7.856064
55.115 7.795688
55.120 7.820789
55.125 8.149228
55.130 8.09875
55.135 8.015691
55.140 8.179325
55.145 8.358706
55.150 8.083592
55.155 7.713268
55.160 7.650608
55.165 7.65656
55.170 7.736654
55.175 7.76269
55.180 7.670325
55.185 7.941282
55.190 8.075723
55.195 7.819605
55.200 7.521098
55.205 7.6812
55.210 7.77715
55.215 7.95753
55.220 8.372841
55.225 8.853302
55.230 9.107877
55.235 9.310956
55.240 9.037878
55.245 8.942426
55.250 8.625803
55.255 7.538901
55.260 7.151621
55.265 7.050938
55.270 7.009921
55.275 7.343743
55.280 7.712941
55.285 8.012637
55.290 8.181429
55.295 8.048238
55.300 7.575902
55.305 7.35345
55.310 7.111206
55.315 6.786335
55.320 6.754542
55.325 7.224914
55.330 7.307755
55.335 7.179503
55.340 7.061034
55.345 6.974619
55.350 6.982234
55.355 7.01246
55.360 6.76029
55.365 6.898708
55.370 6.947075
55.375 7.342343
55.380 7.620574
55.385 7.625678
55.390 7.44746
55.395 7.813971
55.400 7.943511
55.405 8.419006
55.410 7.865554
55.415 7.495189
55.420 7.504308
55.425 7.483852
55.430 7.364317
55.435 7.412513
55.440 7.099676
55.445 7.559244
55.450 7.834208
55.455 7.818689
55.460 8.052705
55.465 8.186749
55.470 7.984634
55.475 8.161354
55.480 8.154932
55.485 8.414257
55.490 8.603759
55.495 8.194435
55.500 7.741444
55.505 7.771566
55.510 7.692639
55.515 7.489182
55.520 7.622869
55.525 7.498324
55.530 7.367285
55.535 7.818212
55.540 7.748827
55.545 7.192954
55.550 7.281076
55.555 7.171099
55.560 7.481421
55.565 8.158554
55.570 7.905666
55.575 7.955203
55.580 8.324217
55.585 8.266454
55.590 8.417225
55.595 7.991555
55.600 7.544657
55.605 7.832439
55.610 8.192924
55.615 7.913243
55.620 7.657977
55.625 7.169113
55.630 7.037872
55.635 7.035776
55.640 6.795753
55.645 6.846035
55.650 7.231067
55.655 7.501219
55.660 7.801961
55.665 7.868755
55.670 8.124867
55.675 8.16922
55.680 8.338912
55.685 8.350647
55.690 8.289464
55.695 8.452979
55.700 8.478894
55.705 8.671936
55.710 8.251603
55.715 7.784901
55.720 7.361684
55.725 7.101435
55.730 6.981915
55.735 6.862642
55.740 6.768892
55.745 7.297649
55.750 7.628603
55.755 7.807839
55.760 8.05293
55.765 7.84764
55.770 8.042347
55.775 7.966981
55.780 7.483037
55.785 7.22697
55.790 7.131657
55.795 7.232238
55.800 7.459872
55.805 7.051884
55.810 7.096508
55.815 7.552144
55.820 7.838489
55.825 7.838202
55.830 7.691558
55.835 7.927064
55.840 8.123219
55.845 8.235633
55.850 8.131134
55.855 8.001593
55.860 7.754367
55.865 7.826916
55.870 7.473261
55.875 7.610264
55.880 7.458806
55.885 7.681748
55.890 7.656428
55.895 7.919102
55.900 7.53519
55.905 7.477908
55.910 7.451158
55.915 7.515381
55.920 7.510374
55.925 7.802559
55.930 7.748061
55.935 7.959726
55.940 8.664932
55.945 8.783065
55.950 9.025834
55.955 8.865294
55.960 8.821982
55.965 9.077631
55.970 8.90027
55.975 8.385592
55.980 8.151788
55.985 7.45279
55.990 7.332701
55.995 7.376797
56.000 6.957911
56.005 6.999458
56.010 7.071933
56.015 7.301614
56.020 7.742002
56.025 8.004393
56.030 8.443801
56.035 8.793837
56.040 9.151309
56.045 8.812655
56.050 8.571491
56.055 8.43809
56.060 8.555827
56.065 8.325931
56.070 8.171858
56.075 7.689969
56.080 7.823373
56.085 7.704391
56.090 7.147381
56.095 6.690929
56.100 6.436449
56.105 6.202327
56.110 6.675217
56.115 6.985101
56.120 7.263031
56.125 7.754196
56.130 8.016907
56.135 8.449696
56.140 8.660217
56.145 8.294768
56.150 8.131189
56.155 8.213387
56.160 8.225552
56.165 7.972615
56.170 7.894092
56.175 7.901181
56.180 8.267159
56.185 8.63736
56.190 9.020736
56.195 8.942417
56.200 9.050424
56.205 9.045396
56.210 9.16345
56.215 8.677329
56.220 7.820453
56.225 7.249008
56.230 7.456482
56.235 7.71596
56.240 7.921819
56.245 8.042487
56.250 8.364957
56.255 8.784775
56.260 9.164917
56.265 9.181362
56.270 8.563408
56.275 8.384767
56.280 8.322561
56.285 8.496417
56.290 8.815829
56.295 8.395707
56.300 8.230942
56.305 8.549081
56.310 8.310151
56.315 7.745718
56.320 7.543075
56.325 7.177495
56.330 7.471958
56.335 7.536292
56.340 7.225605
56.345 7.379924
56.350 7.815038
56.355 7.833687
56.360 7.549744
56.365 7.757799
56.370 8.077898
56.375 8.314782
56.380 8.175704
56.385 8.053758
56.390 8.076999
56.395 8.286463
56.400 8.051567
56.405 8.145535
56.410 8.300177
56.415 8.721539
56.420 8.803453
56.425 8.941425
56.430 9.105048
56.435 9.258238
56.440 9.14826
56.445 9.009397
56.450 8.87838
56.455 9.113851
56.460 9.153315
56.465 9.018201
56.470 8.606627
56.475 8.582012
56.480 8.698256
56.485 8.868314
56.490 8.762348
56.495 8.761888
56.500 9.015224
56.505 9.687819
56.510 9.604893
56.515 9.430751
56.520 9.44176
56.525 9.597395
56.530 9.821377
56.535 9.56955
56.540 9.028107
56.545 9.210186
56.550 9.139734
56.555 9.032743
56.560 9.169509
56.565 9.072283
56.570 9.243561
56.575 9.159595
56.580 9.181498
56.585 9.249737
56.590 9.386943
56.595 9.510557
56.600 9.365677
56.605 9.460301
56.610 10.111354
56.615 10.385254
56.620 10.45813
56.625 10.254734
56.630 10.221466
56.635 10.414028
56.640 9.886899
56.645 9.235361
56.650 8.93291
56.655 8.593114
56.660 8.050972
56.665 7.59246
56.670 7.517894
56.675 8.274385
56.680 8.96847
56.685 9.326847
56.690 9.763454
56.695 10.192408
56.700 10.428471
56.705 10.110357
56.710 9.289896
56.715 8.599473
56.720 8.567422
56.725 8.416357
56.730 8.049659
56.735 7.859989
56.740 8.593151
56.745 9.092448
56.750 9.52523
56.755 9.420005
56.760 9.613464
56.765 9.941486
56.770 10.346179
56.775 9.998444
56.780 9.994683
56.785 9.779861
56.790 9.396339
56.795 8.982724
56.800 8.793731
56.805 8.777361
56.810 8.955873
56.815 8.976478
56.820 8.787385
56.825 9.101734
56.830 9.430397
56.835 9.598845
56.840 9.171017
56.845 9.173652
56.850 9.026569
56.855 9.300058
56.860 8.816598
56.865 8.706012
56.870 8.735734
56.875 8.612685
56.880 7.969872
56.885 7.832444
56.890 8.155903
56.895 8.402191
56.900 7.797504
56.905 7.303738
56.910 7.554978
56.915 8.060402
56.920 7.928021
56.925 7.481977
56.930 7.350349
56.935 7.813374
56.940 8.363386
56.945 7.980945
56.950 7.840538
56.955 8.098029
56.960 8.545069
56.965 8.867896
56.970 8.896838
56.975 8.734927
56.980 9.107665
56.985 9.137825
56.990 8.740493
56.995 8.333225
57.000 7.902508
57.005 7.578184
57.010 7.608076
57.015 7.353972
57.020 7.370786
57.025 7.55972
57.030 7.547638
57.035 7.960954
57.040 8.239306
57.045 8.276584
57.050 8.379027
57.055 7.926793
57.060 7.820128
57.065 7.798358
57.070 7.720476
57.075 7.772588
57.080 7.759641
57.085 7.713527
57.090 7.793871
57.095 7.827805
57.100 7.679626
57.105 7.697886
57.110 7.592446
57.115 7.748479
57.120 7.912916
57.125 8.064419
57.130 8.882448
57.135 9.145624
57.140 8.737445
57.145 8.454049
57.150 8.185433
57.155 8.003656
57.160 7.955472
57.165 7.180912
57.170 7.507044
57.175 8.292264
57.180 8.526375
57.185 9.004782
57.190 8.953054
57.195 8.884581
57.200 8.871626
57.205 8.672264
57.210 8.308317
57.215 8.194134
57.220 7.704237
57.225 7.869147
57.230 7.907801
57.235 7.798244
57.240 7.433487
57.245 7.242096
57.250 7.358506
57.255 7.866985
57.260 7.678045
57.265 7.477745
57.270 7.852637
57.275 7.956527
57.280 7.766411
57.285 7.371277
57.290 7.053204
57.295 7.147523
57.300 7.407887
57.305 7.343424
57.310 7.22925
57.315 7.227355
57.320 7.449212
57.325 7.973392
57.330 8.236078
57.335 8.252089
57.340 8.313409
57.345 8.507993
57.350 8.490951
57.355 8.677744
57.360 8.688457
57.365 8.79608
57.370 8.761214
57.375 9.088789
57.380 9.384288
57.385 9.37197
57.390 8.912875
57.395 8.611511
57.400 8.345488
57.405 7.989915
57.410 7.248138
57.415 7.153785
57.420 7.463149
57.425 7.506068
57.430 7.64553
57.435 7.854654
57.440 8.152466
57.445 8.458992
57.450 8.25703
57.455 7.97191
57.460 8.425937
57.465 8.4519
57.470 8.738097
57.475 8.66059
57.480 8.824362
57.485 9.238906
57.490 9.745358
57.495 9.620203
57.500 9.609891
57.505 9.431413
57.510 9.263208
57.515 8.877296
57.520 8.702846
57.525 8.009264
57.530 7.93545
57.535 7.937529
57.540 7.668142
57.545 7.949147
57.550 7.959479
57.555 8.28784
57.560 9.139424
57.565 9.030119
57.570 8.702361
57.575 8.708371
57.580 8.951876
57.585 8.882062
57.590 7.955341
57.595 7.177612
57.600 7.185177
57.605 7.456943
57.610 7.569057
57.615 7.421574
57.620 7.707598
57.625 8.702518
57.630 9.219404
57.635 9.149463
57.640 8.996274
57.645 8.802296
57.650 8.969806
57.655 9.096987
57.660 8.369684
57.665 8.083466
57.670 8.352106
57.675 8.432732
57.680 8.640296
57.685 8.38895
57.690 8.445869
57.695 8.682192
57.700 8.584767
57.705 8.357351
57.710 8.893892
57.715 8.825969
57.720 8.835342
57.725 8.726146
57.730 8.968023
57.735 9.291462
57.740 9.264731
57.745 8.328846
57.750 8.340869
57.755 8.433201
57.760 8.245797
57.765 7.639804
57.770 7.177732
57.775 7.547812
57.780 7.781066
57.785 7.906739
57.790 7.802915
57.795 7.9628
57.800 8.483334
57.805 8.683895
57.810 8.58655
57.815 9.021057
57.820 8.837292
57.825 8.53796
57.830 8.665446
57.835 8.799767
57.840 8.770018
57.845 8.620853
57.850 8.359026
57.855 8.592898
57.860 8.811132
57.865 8.294925
57.870 8.053469
57.875 8.258988
57.880 8.392118
57.885 8.530828
57.890 8.911869
57.895 9.113878
57.900 9.384241
57.905 9.278718
57.910 9.004319
57.915 8.900373
57.920 8.801154
57.925 8.573935
57.930 8.692945
57.935 8.695827
57.940 8.683437
57.945 9.102576
57.950 9.095412
57.955 8.887534
57.960 9.027944
57.965 8.677361
57.970 8.617864
57.975 8.442451
57.980 8.156118
57.985 8.361081
57.990 8.351637
57.995 8.411238
58.000 8.736175
58.005 8.749685
58.010 8.849236
58.015 8.685343
58.020 8.324577
58.025 7.958308
58.030 7.560732
58.035 7.4706
58.040 7.607998
58.045 7.524253
58.050 7.531991
58.055 7.778
58.060 8.030753
58.065 8.124697
58.070 8.16912
58.075 8.333062
58.080 8.543577
58.085 8.531112
58.090 8.787163
58.095 8.911906
58.100 9.298845
58.105 9.215886
58.110 8.881587
58.115 9.215605
58.120 9.195443
58.125 8.836424
58.130 8.642807
58.135 8.047234
58.140 8.347706
58.145 8.932807
58.150 9.03658
58.155 9.169302
58.160 9.180902
58.165 9.169936
58.170 9.171651
58.175 8.86021
58.180 8.664782
58.185 8.401189
58.190 8.587511
58.195 8.496442
58.200 8.37763
58.205 8.401608
58.210 8.259741
58.215 7.959126
58.220 7.771381
58.225 7.642337
58.230 7.963978
58.235 8.48009
58.240 8.478665
58.245 8.313347
58.250 8.393327
58.255 8.544453
58.260 8.441097
58.265 8.458684
58.270 8.454761
58.275 8.728973
58.280 8.348056
58.285 8.153069
58.290 8.017982
58.295 8.066943
58.300 8.301901
58.305 8.474348
58.310 8.852442
58.315 9.496421
58.320 9.427345
58.325 9.305421
58.330 8.989001
58.335 8.925564
58.340 8.597571
58.345 8.465285
58.350 7.867198
58.355 7.59368
58.360 7.798263
58.365 7.799676
58.370 7.209965
58.375 6.941428
58.380 6.827693
58.385 6.988605
58.390 7.555166
58.395 7.803019
58.400 8.174885
58.405 8.54499
58.410 8.376478
58.415 8.407204
58.420 8.687223
58.425 8.152495
58.430 8.087095
58.435 7.702466
58.440 7.543064
58.445 7.844354
58.450 7.638289
58.455 7.428771
58.460 7.84815
58.465 7.998669
58.470 8.07362
58.475 8.204414
58.480 8.278827
58.485 8.343123
58.490 8.649812
58.495 8.102232
58.500 8.035915
58.505 8.275431
58.510 8.397324
58.515 8.222801
58.520 8.252696
58.525 8.457276
58.530 8.746139
58.535 8.765949
58.540 8.54833
58.545 8.498697
58.550 8.718329
58.555 8.700577
58.560 8.588933
58.565 8.635526
58.570 8.450233
58.575 8.995466
58.580 9.036502
58.585 9.047363
58.590 9.009067
58.595 8.859159
58.600 8.8613
58.605 9.010908
58.610 8.572619
58.615 8.424349
58.620 8.132059
58.625 8.144137
58.630 8.777943
58.635 8.604802
58.640 8.554571
58.645 8.748583
58.650 8.994816
58.655 9.49787
58.660 9.834102
58.665 9.410155
58.670 9.417891
58.675 9.18586
58.680 8.998305
58.685 9.127287
58.690 8.8569
58.695 8.997126
58.700 9.505808
58.705 9.730773
58.710 9.505198
58.715 9.277858
58.720 8.775599
58.725 8.931301
58.730 8.400462
58.735 8.011209
58.740 8.028157
58.745 8.466148
58.750 8.705283
58.755 9.005726
