!@!!GADDS PLOTSO FILE: Chi integration type
!@!!Title/SampleName: map-f
!@!!Comment: ?
!@!!User: Bruker Instrument Administrator
!@!!Site: University of Illinois Chicago
!@!!Frame: map-f_01_000.gfrm
!@!!Wavelengths    1.54184   1.54056   1.54439
!@!!Frame angles: 2Theta: 63.000 Omega: 50.000 Phi: 0.000 Chi: 90.000
!@!!Integration range: 2Theta: 53.000 to 73.000  Gamma: -105.000 to -75.000
!@!!Integration method: bin normalized
!@!N
!@!SS
!@!M
!@!L 0.0 0.0 0.0 0.0
!@!XDegrees
!@!YCounts
53.000 8.209976
53.005 8.185901
53.010 8.51129
53.015 8.205508
53.020 7.929827
53.025 7.881642
53.030 7.778517
53.035 7.929461
53.040 8.263182
53.045 8.344094
53.050 8.441896
53.055 8.793963
53.060 8.674181
53.065 8.713636
53.070 8.874803
53.075 8.277432
53.080 7.691108
53.085 7.393565
53.090 7.323318
53.095 7.316323
53.100 7.603501
53.105 7.437178
53.110 7.856078
53.115 8.255994
53.120 7.849501
53.125 7.712566
53.130 7.618804
53.135 7.183987
53.140 7.253319
53.145 7.142895
53.150 7.046354
53.155 7.330627
53.160 7.234019
53.165 7.11336
53.170 7.676405
53.175 7.515163
53.180 7.531305
53.185 7.680506
53.190 8.173409
53.195 8.353967
53.200 8.628918
53.205 8.090362
53.210 8.332305
53.215 8.917143
53.220 9.04448
53.225 8.726755
53.230 9.086379
53.235 8.911296
53.240 9.004101
53.245 9.122961
53.250 8.829808
53.255 9.146345
53.260 9.441631
53.265 8.684039
53.270 8.441247
53.275 8.59568
53.280 8.26793
53.285 8.427956
53.290 8.118149
53.295 7.925786
53.300 8.369068
53.305 8.692573
53.310 8.95839
53.315 8.759605
53.320 8.703051
53.325 8.647751
53.330 8.793108
53.335 9.287153
53.340 8.622705
53.345 8.208614
53.350 8.282847
53.355 8.188765
53.360 7.972284
53.365 7.484886
53.370 7.55075
53.375 7.939507
53.380 7.97502
53.385 8.216124
53.390 8.48061
53.395 8.636863
53.400 9.014556
53.405 8.894231
53.410 8.93196
53.415 8.922059
53.420 8.822666
53.425 9.250629
53.430 9.484546
53.435 9.59184
53.440 9.30208
53.445 9.272084
53.450 9.507812
53.455 9.033988
53.460 8.468453
53.465 8.139797
53.470 7.924884
53.475 7.922503
53.480 7.824673
53.485 7.642272
53.490 7.62434
53.495 7.719201
53.500 7.66717
53.505 7.919501
53.510 8.275732
53.515 8.523896
53.520 8.704372
53.525 9.012546
53.530 9.292437
53.535 9.509046
53.540 9.460832
53.545 9.546774
53.550 9.27267
53.555 9.321281
53.560 9.300582
53.565 8.917776
53.570 9.034336
53.575 8.803276
53.580 8.388722
53.585 8.711846
53.590 8.28391
53.595 8.443519
53.600 8.754371
53.605 8.873292
53.610 8.96655
53.615 8.754685
53.620 8.514974
53.625 9.02154
53.630 8.851229
53.635 8.816295
53.640 8.803301
53.645 9.123199
53.650 9.705402
53.655 9.999687
53.660 9.85541
53.665 9.459835
53.670 9.23365
53.675 9.085635
53.680 8.699381
53.685 8.306849
53.690 8.349221
53.695 8.895
53.700 9.45811
53.705 9.578854
53.710 9.310947
53.715 9.380817
53.720 9.283023
53.725 9.570538
53.730 9.248971
53.735 8.941897
53.740 9.344729
53.745 9.732924
53.750 9.806784
53.755 9.815268
53.760 9.853725
53.765 9.981688
53.770 9.958187
53.775 9.7137
53.780 9.933546
53.785 10.049471
53.790 9.830918
53.795 9.370537
53.800 8.823631
53.805 8.580436
53.810 8.325505
53.815 8.258478
53.820 8.249084
53.825 8.044909
53.830 8.103472
53.835 8.980212
53.840 9.572707
53.845 9.5667
53.850 9.423051
53.855 9.572745
53.860 10.570199
53.865 10.252814
53.870 9.638293
53.875 9.602065
53.880 9.676752
53.885 9.57231
53.890 9.515735
53.895 9.186024
53.900 9.208793
53.905 9.339651
53.910 9.051581
53.915 9.18857
53.920 9.275986
53.925 9.041693
53.930 9.157317
53.935 9.315933
53.940 9.307552
53.945 9.068339
53.950 9.14712
53.955 9.156744
53.960 8.986606
53.965 9.108184
53.970 9.123165
53.975 9.171999
53.980 9.728539
53.985 9.869527
53.990 10.245045
53.995 9.948283
54.000 9.697173
54.005 9.720938
54.010 9.999335
54.015 10.100075
54.020 10.065623
54.025 10.080612
54.030 10.879761
54.035 11.159599
54.040 10.950675
54.045 10.518605
54.050 9.626437
54.055 9.096469
54.060 8.92373
54.065 8.239069
54.070 7.91904
54.075 8.146513
54.080 8.609965
54.085 8.789815
54.090 8.738872
54.095 8.875983
54.100 9.806111
54.105 9.836047
54.110 10.143385
54.115 10.474644
54.120 11.005191
54.125 10.999925
54.130 10.453751
54.135 10.346361
54.140 10.64186
54.145 10.412041
54.150 10.225365
54.155 9.978125
54.160 9.733559
54.165 9.659654
54.170 9.414515
54.175 9.038092
54.180 8.501356
54.185 8.423009
54.190 8.786746
54.195 9.505672
54.200 9.971748
54.205 10.350666
54.210 10.492715
54.215 10.513593
54.220 10.325897
54.225 10.025139
54.230 10.50951
54.235 10.090467
54.240 9.9334
54.245 9.786754
54.250 9.864977
54.255 10.122517
54.260 9.953135
54.265 9.171368
54.270 9.542275
54.275 9.343445
54.280 9.624909
54.285 9.476933
54.290 9.321505
54.295 9.240161
54.300 9.855014
54.305 9.600679
54.310 9.658682
54.315 9.873312
54.320 10.035988
54.325 10.252558
54.330 10.587962
54.335 10.461495
54.340 10.269824
54.345 9.939837
54.350 9.774223
54.355 9.990675
54.360 10.487627
54.365 9.953248
54.370 9.727261
54.375 10.103761
54.380 10.04003
54.385 9.887967
54.390 9.572578
54.395 9.205012
54.400 9.559124
54.405 9.312368
54.410 9.337841
54.415 9.475874
54.420 9.678183
54.425 9.632591
54.430 9.847059
54.435 10.146614
54.440 10.22897
54.445 10.346586
54.450 10.616609
54.455 10.788821
54.460 10.397445
54.465 9.942009
54.470 9.669277
54.475 9.793676
54.480 9.549973
54.485 9.341457
54.490 9.358162
54.495 9.342515
54.500 9.319309
54.505 9.132111
54.510 9.455031
54.515 9.619765
54.520 9.526962
54.525 9.592021
54.530 9.999999
54.535 10.527255
54.540 10.356589
54.545 9.563776
54.550 9.4026
54.555 9.37316
54.560 9.683534
54.565 9.797066
54.570 9.627934
54.575 10.205827
54.580 10.612906
54.585 10.967336
54.590 11.090597
54.595 10.928442
54.600 11.284132
54.605 11.191399
54.610 11.002114
54.615 10.888855
54.620 10.432105
54.625 10.444731
54.630 9.990462
54.635 9.765105
54.640 9.887429
54.645 9.72984
54.650 10.16193
54.655 10.633787
54.660 10.525143
54.665 10.729009
54.670 10.96037
54.675 10.522857
54.680 10.48096
54.685 10.158201
54.690 10.145145
54.695 10.034524
54.700 9.99047
54.705 9.672305
54.710 10.086712
54.715 10.440674
54.720 10.363823
54.725 10.156387
54.730 9.9109
54.735 9.926988
54.740 10.368361
54.745 10.087852
54.750 9.762557
54.755 9.694955
54.760 10.025626
54.765 10.526291
54.770 10.412245
54.775 10.422827
54.780 10.99343
54.785 11.216438
54.790 11.43759
54.795 11.799106
54.800 12.07
54.805 12.28301
54.810 12.051656
54.815 11.982334
54.820 11.97469
54.825 11.631644
54.830 11.108309
54.835 10.809774
54.840 10.286071
54.845 10.482192
54.850 10.229411
54.855 10.171224
54.860 10.164349
54.865 10.142813
54.870 10.197395
54.875 10.236455
54.880 10.043267
54.885 10.008799
54.890 10.498273
54.895 10.934524
54.900 11.182841
54.905 11.26732
54.910 11.812675
54.915 12.40922
54.920 12.624421
54.925 12.256647
54.930 11.920028
54.935 11.854303
54.940 11.9027
54.945 11.355996
54.950 10.872424
54.955 10.648756
54.960 10.758059
54.965 11.090148
54.970 10.359443
54.975 10.174386
54.980 10.213714
54.985 10.684805
54.990 10.835497
54.995 10.542006
55.000 11.028249
55.005 11.263539
55.010 11.607683
55.015 12.212431
55.020 11.716574
55.025 11.459452
55.030 11.03363
55.035 10.298038
55.040 10.356755
55.045 10.010414
55.050 9.700846
55.055 9.772416
55.060 9.922413
55.065 10.378364
55.070 10.421536
55.075 10.249985
55.080 10.456152
55.085 9.766215
55.090 9.543279
55.095 9.688412
55.100 9.982685
55.105 10.635494
55.110 10.685693
55.115 10.494708
55.120 11.044465
55.125 11.100481
55.130 11.069013
55.135 10.719481
55.140 10.402363
55.145 10.424477
55.150 10.286309
55.155 10.242945
55.160 10.149462
55.165 10.082743
55.170 10.137395
55.175 10.555559
55.180 11.230913
55.185 11.390602
55.190 11.231342
55.195 11.386364
55.200 10.933996
55.205 10.833148
55.210 10.690987
55.215 10.760326
55.220 10.74278
55.225 11.306651
55.230 11.494651
55.235 11.78613
55.240 11.906109
55.245 11.89122
55.250 12.068316
55.255 12.716168
55.260 12.50586
55.265 12.46814
55.270 12.567433
55.275 12.325364
55.280 12.181933
55.285 11.690067
55.290 11.306349
55.295 11.182932
55.300 11.143091
55.305 11.317448
55.310 11.563722
55.315 11.737914
55.320 11.91992
55.325 12.464263
55.330 12.482288
55.335 12.047632
55.340 11.852551
55.345 11.320313
55.350 10.940955
55.355 10.624782
55.360 10.036552
55.365 10.117405
55.370 10.003288
55.375 10.384174
55.380 10.385904
55.385 10.541636
55.390 10.694793
55.395 10.568381
55.400 10.620824
55.405 10.83711
55.410 11.010607
55.415 11.542294
55.420 12.001766
55.425 12.454779
55.430 13.22638
55.435 13.742888
55.440 13.878305
55.445 13.351665
55.450 12.65771
55.455 12.351492
55.460 11.577026
55.465 11.149398
55.470 10.813865
55.475 10.768579
55.480 11.186705
55.485 11.33338
55.490 11.723488
55.495 11.994851
55.500 11.972532
55.505 12.228834
55.510 12.619148
55.515 12.295643
55.520 12.17876
55.525 11.594004
55.530 12.076561
55.535 11.983511
55.540 11.901057
55.545 11.394698
55.550 11.13133
55.555 11.291308
55.560 11.88532
55.565 11.633395
55.570 11.528328
55.575 11.981305
55.580 12.375172
55.585 12.881866
55.590 12.761923
55.595 12.564234
55.600 12.603776
55.605 12.472631
55.610 12.290607
55.615 12.260467
55.620 12.072997
55.625 12.283397
55.630 12.010791
55.635 11.937817
55.640 12.052584
55.645 11.981694
55.650 11.738978
55.655 11.636731
55.660 11.896524
55.665 11.757195
55.670 12.080521
55.675 11.866401
55.680 11.868505
55.685 11.874141
55.690 11.990158
55.695 11.727264
55.700 11.629693
55.705 10.695745
55.710 10.371064
55.715 10.534507
55.720 10.715411
55.725 10.441781
55.730 10.357069
55.735 10.762978
55.740 11.167714
55.745 11.396913
55.750 11.187316
55.755 10.687465
55.760 10.230382
55.765 10.238523
55.770 10.481962
55.775 10.501328
55.780 10.268626
55.785 10.535954
55.790 11.203416
55.795 11.875815
55.800 12.212489
55.805 12.169348
55.810 12.494849
55.815 12.347665
55.820 12.187542
55.825 11.914724
55.830 12.294828
55.835 13.038033
55.840 13.553346
55.845 13.330117
55.850 13.407159
55.855 13.691381
55.860 13.406316
55.865 12.560882
55.870 11.505351
55.875 11.170236
55.880 11.34451
55.885 11.533275
55.890 11.306419
55.895 11.374846
55.900 11.079855
55.905 10.392658
55.910 10.371694
55.915 10.549028
55.920 10.219441
55.925 10.189462
55.930 10.522565
55.935 11.660851
55.940 12.200963
55.945 12.03824
55.950 12.027539
55.955 12.188248
55.960 12.361979
55.965 12.06413
55.970 11.598095
55.975 11.794997
55.980 11.873423
55.985 11.798982
55.990 11.853627
55.995 11.920929
56.000 12.254113
56.005 12.080886
56.010 11.343341
56.015 11.178033
56.020 11.3561
56.025 11.240474
56.030 11.124899
56.035 11.176601
56.040 11.50923
56.045 11.762202
56.050 11.145023
56.055 10.985897
56.060 10.990577
56.065 10.786314
56.070 10.41349
56.075 10.164681
56.080 10.441905
56.085 10.883185
56.090 11.247073
56.095 11.310664
56.100 11.270314
56.105 11.650588
56.110 12.518504
56.115 12.848157
56.120 13.002187
56.125 12.997287
56.130 13.618746
56.135 13.672512
56.140 13.538487
56.145 13.117048
56.150 12.766339
56.155 13.416424
56.160 13.393792
56.165 12.810679
56.170 13.156981
56.175 12.847369
56.180 12.574877
56.185 12.608862
56.190 11.735544
56.195 12.351782
56.200 12.804029
56.205 12.369495
56.210 12.365353
56.215 12.957405
56.220 13.469841
56.225 13.327383
56.230 13.071675
56.235 13.000699
56.240 13.221878
56.245 13.486546
56.250 12.35336
56.255 11.698626
56.260 11.724047
56.265 11.653748
56.270 11.110068
56.275 10.977258
56.280 10.531273
56.285 11.138033
56.290 11.358433
56.295 11.704794
56.300 11.737659
56.305 11.822412
56.310 12.009319
56.315 12.387155
56.320 12.672276
56.325 12.313842
56.330 11.617138
56.335 11.323842
56.340 11.526057
56.345 11.515437
56.350 11.478906
56.355 11.452094
56.360 11.838673
56.365 12.167801
56.370 12.264572
56.375 12.028286
56.380 11.869233
56.385 11.663588
56.390 11.127422
56.395 10.931026
56.400 11.125392
56.405 10.897173
56.410 11.131361
56.415 11.315229
56.420 12.094245
56.425 12.862103
56.430 12.993455
56.435 12.648523
56.440 12.60427
56.445 12.516141
56.450 12.205036
56.455 11.548134
56.460 11.709708
56.465 11.399777
56.470 11.10871
56.475 11.008506
56.480 10.886684
56.485 10.56112
56.490 10.604336
56.495 10.250327
56.500 10.338108
56.505 10.268506
56.510 10.228419
56.515 10.470161
56.520 11.068254
56.525 11.024472
56.530 11.209421
56.535 11.945296
56.540 12.79915
56.545 13.079439
56.550 12.885989
56.555 12.446697
56.560 12.116902
56.565 12.225099
56.570 11.955669
56.575 11.620131
56.580 12.291241
56.585 12.526872
56.590 13.022253
56.595 13.145359
56.600 12.783476
56.605 12.931877
56.610 12.726151
56.615 11.962689
56.620 11.950095
56.625 11.801739
56.630 11.702211
56.635 11.451532
56.640 11.487336
56.645 11.970269
56.650 12.631822
56.655 12.786151
56.660 13.108488
56.665 13.411489
56.670 13.876403
56.675 13.861762
56.680 13.638506
56.685 13.04311
56.690 13.110815
56.695 13.267677
56.700 12.856432
56.705 12.834341
56.710 12.536268
56.715 12.196727
56.720 12.411538
56.725 12.238433
56.730 12.056415
56.735 13.082516
56.740 12.968664
56.745 13.343806
56.750 13.5974
56.755 13.483718
56.760 13.303583
56.765 13.12194
56.770 12.152077
56.775 11.654491
56.780 11.520229
56.785 12.222212
56.790 12.927899
56.795 12.988702
56.800 13.386396
56.805 14.195467
56.810 14.590969
56.815 14.502757
56.820 13.819895
56.825 13.55105
56.830 13.55514
56.835 13.135021
56.840 12.569321
56.845 12.722959
56.850 12.788471
56.855 13.040329
56.860 13.058454
56.865 12.888162
56.870 13.046128
56.875 13.37362
56.880 13.422588
56.885 13.18605
56.890 12.86416
56.895 12.823746
56.900 12.89712
56.905 13.050644
56.910 12.956732
56.915 12.598001
56.920 12.812222
56.925 13.071984
56.930 12.985373
56.935 13.101446
56.940 13.289503
56.945 13.771184
56.950 13.926638
56.955 13.417618
56.960 13.338746
56.965 13.394053
56.970 13.337957
56.975 13.0919
56.980 12.669883
56.985 12.641782
56.990 12.536075
56.995 12.393456
57.000 12.764141
57.005 12.35151
57.010 11.826184
57.015 11.778057
57.020 12.000366
57.025 12.249207
57.030 11.880486
57.035 11.481696
57.040 12.222747
57.045 12.76451
57.050 12.835382
57.055 13.109384
57.060 13.326428
57.065 13.374968
57.070 13.393707
57.075 13.516167
57.080 13.479135
57.085 13.400657
57.090 12.77346
57.095 12.626239
57.100 12.656599
57.105 12.371373
57.110 11.78615
57.115 11.849332
57.120 12.156283
57.125 12.798605
57.130 12.994499
57.135 13.68934
57.140 14.471621
57.145 14.808304
57.150 14.728598
57.155 14.509654
57.160 14.40053
57.165 14.205427
57.170 14.151185
57.175 13.595246
57.180 14.122066
57.185 14.061622
57.190 13.845415
57.195 13.475266
57.200 13.488555
57.205 13.730798
57.210 13.596677
57.215 13.431746
57.220 13.215252
57.225 13.408548
57.230 13.56762
57.235 13.239094
57.240 12.716359
57.245 12.447838
57.250 12.5915
57.255 13.317381
57.260 13.794856
57.265 13.856959
57.270 13.957584
57.275 14.280732
57.280 14.82679
57.285 14.441898
57.290 14.172547
57.295 14.443422
57.300 15.042842
57.305 14.739326
57.310 14.59675
57.315 14.390717
57.320 14.567197
57.325 14.373898
57.330 13.967975
57.335 14.309062
57.340 14.810586
57.345 15.185378
57.350 15.364543
57.355 15.026772
57.360 15.110851
57.365 14.943189
57.370 14.691866
57.375 14.760984
57.380 14.521844
57.385 14.146563
57.390 14.047967
57.395 14.077613
57.400 14.128336
57.405 13.613428
57.410 12.918478
57.415 12.71135
57.420 12.823732
57.425 13.233783
57.430 12.852649
57.435 12.764049
57.440 13.029297
57.445 13.516734
57.450 13.899593
57.455 14.146677
57.460 14.241803
57.465 14.555961
57.470 14.874804
57.475 14.833362
57.480 14.848603
57.485 14.860541
57.490 14.377913
57.495 13.772716
57.500 13.40259
57.505 13.508373
57.510 13.648134
57.515 13.31119
57.520 13.216037
57.525 13.661177
57.530 14.120943
57.535 14.581471
57.540 14.34391
57.545 14.396787
57.550 14.885639
57.555 15.296257
57.560 15.271534
57.565 15.082393
57.570 14.553445
57.575 14.316117
57.580 13.933697
57.585 13.171288
57.590 13.020212
57.595 13.283387
57.600 13.590835
57.605 13.658437
57.610 13.656498
57.615 13.705531
57.620 13.914535
57.625 13.669653
57.630 13.414661
57.635 13.198714
57.640 13.283991
57.645 13.476424
57.650 13.645737
57.655 13.595458
57.660 13.236276
57.665 13.315358
57.670 13.227079
57.675 13.252162
57.680 13.416066
57.685 13.787508
57.690 14.601538
57.695 14.706729
57.700 14.481493
57.705 14.642035
57.710 14.693683
57.715 14.508356
57.720 13.935345
57.725 13.006413
57.730 13.19206
57.735 13.294555
57.740 13.614647
57.745 13.781259
57.750 13.950274
57.755 14.0626
57.760 14.468062
57.765 14.804973
57.770 14.486342
57.775 14.100267
57.780 14.202134
57.785 13.737059
57.790 13.644236
57.795 13.30373
57.800 13.41844
57.805 13.705527
57.810 13.700066
57.815 13.207342
57.820 13.631227
57.825 13.522649
57.830 13.534373
57.835 13.496286
57.840 13.367681
57.845 12.967544
57.850 13.149735
57.855 13.036117
57.860 13.050072
57.865 13.338676
57.870 13.626726
57.875 13.772517
57.880 14.06807
57.885 14.292651
57.890 14.530733
57.895 14.787191
57.900 14.639725
57.905 14.211948
57.910 14.07687
57.915 14.358814
57.920 14.170239
57.925 14.007803
57.930 13.973488
57.935 13.508343
57.940 14.079331
57.945 14.695958
57.950 15.332619
57.955 15.390765
57.960 15.345816
57.965 15.109115
57.970 15.115834
57.975 14.693632
57.980 14.192538
57.985 13.386593
57.990 13.365703
57.995 13.181709
58.000 13.374645
58.005 13.429985
58.010 13.473967
58.015 13.105865
58.020 12.831053
58.025 13.238958
58.030 13.732566
58.035 13.74477
58.040 13.840075
58.045 13.899495
58.050 14.554275
58.055 14.971565
58.060 15.214982
58.065 15.135509
58.070 15.107995
58.075 15.071445
58.080 14.917532
58.085 15.023864
58.090 14.248167
58.095 13.535801
58.100 13.592114
58.105 13.604671
58.110 13.680762
58.115 13.613097
58.120 13.205737
58.125 13.675194
58.130 13.773898
58.135 13.299558
58.140 13.456832
58.145 13.516911
58.150 13.311734
58.155 13.496211
58.160 13.582903
58.165 13.768065
58.170 14.347549
58.175 14.410799
58.180 14.079511
58.185 14.320637
58.190 14.181652
58.195 13.743805
58.200 13.758562
58.205 13.721769
58.210 13.685243
58.215 13.759842
58.220 13.583454
58.225 13.511417
58.230 13.623539
58.235 13.546736
58.240 13.328836
58.245 13.292781
58.250 13.192091
58.255 13.28443
58.260 13.202314
58.265 13.351854
58.270 13.809159
58.275 13.971071
58.280 14.619068
58.285 15.270084
58.290 15.484488
58.295 15.480101
58.300 15.707504
58.305 15.638652
58.310 15.380881
58.315 14.84854
58.320 14.213562
58.325 13.750624
58.330 14.073039
58.335 13.845755
58.340 13.60785
58.345 13.956418
58.350 13.595413
58.355 13.95506
58.360 14.48987
58.365 14.554237
58.370 14.437806
58.375 14.271661
58.380 13.83938
58.385 14.220665
58.390 14.110141
58.395 14.196767
58.400 14.029692
58.405 13.784398
58.410 13.699523
58.415 13.950702
58.420 14.415975
58.425 15.078029
58.430 15.440967
58.435 15.506387
58.440 16.017523
58.445 16.430273
58.450 16.341635
58.455 16.528219
58.460 16.391424
58.465 15.832951
58.470 15.930432
58.475 15.527142
58.480 15.433867
58.485 15.473877
58.490 15.160247
58.495 15.079502
58.500 15.15488
58.505 15.056836
58.510 15.528101
58.515 15.576856
58.520 15.379107
58.525 14.98545
