!@!!GADDS PLOTSO FILE: Chi integration type
!@!!Title/SampleName: map-e
!@!!Comment: ?
!@!!User: Bruker Instrument Administrator
!@!!Site: University of Illinois Chicago
!@!!Frame: map-e_01_000.gfrm
!@!!Wavelengths    1.54184   1.54056   1.54439
!@!!Frame angles: 2Theta: 63.000 Omega: 50.000 Phi: 0.000 Chi: 90.000
!@!!Integration range: 2Theta: 53.000 to 73.000  Gamma: -105.000 to -75.000
!@!!Integration method: bin normalized
!@!N
!@!SS
!@!M
!@!L 0.0 0.0 0.0 0.0
!@!XDegrees
!@!YCounts
53.000 7.319136
53.005 7.209291
53.010 7.076123
53.015 7.116946
53.020 7.050542
53.025 6.716946
53.030 6.567383
53.035 7.145018
53.040 7.25703
53.045 6.94986
53.050 6.692283
53.055 7.200682
53.060 7.401019
53.065 7.408206
53.070 7.409053
53.075 7.472682
53.080 8.288083
53.085 8.645265
53.090 8.480503
53.095 8.598083
53.100 8.796326
53.105 8.631714
53.110 8.769353
53.115 8.39825
53.120 8.279371
53.125 8.639904
53.130 8.456993
53.135 8.311972
53.140 8.397923
53.145 8.061662
53.150 7.73899
53.155 7.27644
53.160 6.879021
53.165 6.987172
53.170 7.300383
53.175 7.242126
53.180 7.534073
53.185 7.613471
53.190 8.029777
53.195 8.235248
53.200 8.206985
53.205 8.060218
53.210 7.956917
53.215 7.884663
53.220 7.979476
53.225 8.210443
53.230 7.992078
53.235 8.150293
53.240 8.175488
53.245 8.161092
53.250 8.073374
53.255 7.874857
53.260 7.795972
53.265 7.824119
53.270 7.873522
53.275 8.120834
53.280 8.134385
53.285 7.901048
53.290 7.673903
53.295 7.550694
53.300 7.7081
53.305 7.230727
53.310 6.840491
53.315 6.74051
53.320 7.112079
53.325 6.898585
53.330 6.965137
53.335 7.064535
53.340 7.698136
53.345 8.032053
53.350 7.972404
53.355 7.835046
53.360 7.878032
53.365 7.763305
53.370 7.770815
53.375 7.408875
53.380 7.554508
53.385 8.144106
53.390 8.199592
53.395 8.269836
53.400 8.132763
53.405 8.111065
53.410 8.054653
53.415 8.101929
53.420 7.676706
53.425 8.038404
53.430 8.375831
53.435 8.204166
53.440 8.210722
53.445 8.214259
53.450 8.066636
53.455 8.123112
53.460 8.258291
53.465 8.328562
53.470 8.4442
53.475 8.475346
53.480 8.564953
53.485 8.482913
53.490 8.021019
53.495 7.567107
53.500 7.298524
53.505 7.297106
53.510 7.557805
53.515 7.660423
53.520 8.099794
53.525 8.586108
53.530 8.84621
53.535 9.152289
53.540 9.171163
53.545 8.844853
53.550 8.999734
53.555 8.899857
53.560 8.514938
53.565 8.352613
53.570 8.273065
53.575 8.384323
53.580 8.242009
53.585 8.137181
53.590 8.41784
53.595 8.802898
53.600 8.820474
53.605 8.661531
53.610 8.7723
53.615 8.841844
53.620 8.581437
53.625 7.976271
53.630 8.264192
53.635 8.505804
53.640 8.612287
53.645 8.367618
53.650 8.497401
53.655 8.599798
53.660 8.693439
53.665 8.218813
53.670 8.190734
53.675 8.415864
53.680 8.480498
53.685 8.450146
53.690 8.845682
53.695 9.072435
53.700 9.261564
53.705 9.414359
53.710 9.736299
53.715 9.814467
53.720 9.658745
53.725 9.340728
53.730 9.516834
53.735 9.727445
53.740 9.653541
53.745 9.638118
53.750 9.809091
53.755 9.861922
53.760 9.59724
53.765 9.313143
53.770 9.240008
53.775 8.965741
53.780 8.875695
53.785 9.083012
53.790 9.08999
53.795 9.453256
53.800 9.364542
53.805 9.568987
53.810 9.356409
53.815 9.128785
53.820 8.604328
53.825 8.413617
53.830 8.151632
53.835 8.080368
53.840 7.867785
53.845 8.140977
53.850 8.156125
53.855 8.522189
53.860 8.922429
53.865 9.303497
53.870 9.126283
53.875 8.966498
53.880 8.700177
53.885 8.633848
53.890 8.504817
53.895 8.159218
53.900 7.870437
53.905 8.533065
53.910 8.919741
53.915 8.890609
53.920 9.051509
53.925 9.406105
53.930 9.639674
53.935 9.366865
53.940 8.905155
53.945 9.082699
53.950 9.70671
53.955 9.962837
53.960 9.466846
53.965 10.260328
53.970 10.716848
53.975 10.827132
53.980 10.458009
53.985 10.260118
53.990 10.17
53.995 10.043336
54.000 9.247362
54.005 9.293783
54.010 9.143397
54.015 9.071484
54.020 8.916224
54.025 9.001896
54.030 8.862138
54.035 8.951398
54.040 9.092939
54.045 9.336974
54.050 9.70426
54.055 9.804974
54.060 10.080512
54.065 10.155759
54.070 10.018176
54.075 9.783491
54.080 9.699752
54.085 9.649611
54.090 9.115186
54.095 8.671191
54.100 8.644012
54.105 9.190231
54.110 9.249292
54.115 9.108453
54.120 8.998958
54.125 8.974274
54.130 9.010935
54.135 8.734152
54.140 8.207367
54.145 8.643867
54.150 8.596677
54.155 8.580962
54.160 8.502688
54.165 8.512572
54.170 8.830121
54.175 9.199286
54.180 8.864954
54.185 9.029551
54.190 9.303064
54.195 9.504245
54.200 9.545978
54.205 9.592654
54.210 9.309142
54.215 9.485452
54.220 9.489803
54.225 9.203099
54.230 9.129171
54.235 9.016663
54.240 9.143283
54.245 9.083939
54.250 8.812682
54.255 8.904551
54.260 9.545632
54.265 9.573199
54.270 9.578792
54.275 9.645248
54.280 9.455587
54.285 9.176899
54.290 9.022262
54.295 8.451529
54.300 8.425089
54.305 8.331738
54.310 8.178209
54.315 8.073263
54.320 8.074979
54.325 8.04175
54.330 8.293969
54.335 8.427402
54.340 8.326373
54.345 8.046837
54.350 7.995326
54.355 8.04115
54.360 7.989263
54.365 8.076035
54.370 8.295884
54.375 8.679529
54.380 9.094774
54.385 9.309245
54.390 9.279851
54.395 9.610776
54.400 9.779709
54.405 9.538483
54.410 9.408383
54.415 9.125002
54.420 9.063957
54.425 9.124935
54.430 8.969775
54.435 8.714447
54.440 9.009355
54.445 9.83891
54.450 10.297451
54.455 10.357622
54.460 9.949795
54.465 9.743581
54.470 9.80651
54.475 9.616471
54.480 9.377833
54.485 9.202117
54.490 9.793204
54.495 10.241991
54.500 10.439204
54.505 10.19552
54.510 9.963828
54.515 9.602476
54.520 9.435091
54.525 9.00995
54.530 8.828661
54.535 8.459083
54.540 8.682581
54.545 8.51005
54.550 8.722534
54.555 8.839419
54.560 8.753433
54.565 8.438068
54.570 8.434874
54.575 8.524576
54.580 8.707297
54.585 8.624408
54.590 8.44013
54.595 8.478471
54.600 8.678989
54.605 9.130483
54.610 9.060828
54.615 9.018376
54.620 9.459099
54.625 9.14586
54.630 8.968715
54.635 9.055696
54.640 8.764035
54.645 8.582679
54.650 8.573209
54.655 8.974244
54.660 9.444704
54.665 9.419272
54.670 9.677002
54.675 9.851428
54.680 9.625386
54.685 9.120922
54.690 8.828408
54.695 9.08692
54.700 9.355021
54.705 9.157681
54.710 9.261374
54.715 10.003209
54.720 10.043064
54.725 10.163708
54.730 10.298772
54.735 10.431439
54.740 10.670197
54.745 10.54425
54.750 9.945901
54.755 9.954833
54.760 9.740748
54.765 9.7088
54.770 10.072041
54.775 10.175941
54.780 10.489014
54.785 10.612762
54.790 10.49466
54.795 11.103517
54.800 11.213793
54.805 11.072112
54.810 10.830059
54.815 10.652482
54.820 10.685321
54.825 10.300117
54.830 10.508634
54.835 10.350746
54.840 9.989141
54.845 10.028924
54.850 10.333676
54.855 10.84474
54.860 10.813327
54.865 10.512671
54.870 10.719032
54.875 10.942703
54.880 10.9195
54.885 10.982953
54.890 10.843744
54.895 10.959806
54.900 10.983491
54.905 11.149328
54.910 11.374101
54.915 11.544024
54.920 11.314363
54.925 11.310372
54.930 11.141301
54.935 10.686747
54.940 10.088149
54.945 9.782697
54.950 10.240452
54.955 10.060231
54.960 10.115075
54.965 9.918606
54.970 9.902641
54.975 10.16426
54.980 9.748292
54.985 9.189195
54.990 9.162221
54.995 8.939185
55.000 9.287584
55.005 9.280287
55.010 9.385783
55.015 9.766671
55.020 9.620202
55.025 9.796381
55.030 9.941138
55.035 9.897603
55.040 9.727082
55.045 9.567197
55.050 9.625894
55.055 10.268893
55.060 10.304899
55.065 10.079098
55.070 10.405369
55.075 10.613311
55.080 10.724664
55.085 10.228986
55.090 10.054675
55.095 10.294362
55.100 10.220685
55.105 10.510702
55.110 10.592264
55.115 10.313269
55.120 9.761993
55.125 8.975942
55.130 8.99578
55.135 9.239855
55.140 8.879572
55.145 8.924307
55.150 9.376726
55.155 9.799948
55.160 10.252116
55.165 9.707805
55.170 9.335783
55.175 9.225061
55.180 9.546375
55.185 9.797688
55.190 10.093733
55.195 10.256454
55.200 10.683568
55.205 11.128783
55.210 11.152205
55.215 10.937906
55.220 10.743511
55.225 10.60207
55.230 10.569412
55.235 10.222304
55.240 9.864093
55.245 9.838649
55.250 9.611778
55.255 9.180737
55.260 9.234044
55.265 9.205353
55.270 9.131943
55.275 9.139989
55.280 9.173707
55.285 9.23154
55.290 9.346238
55.295 9.560379
55.300 10.046942
55.305 10.18783
55.310 10.299484
55.315 10.511117
55.320 11.056485
55.325 11.533124
55.330 11.221627
55.335 11.229441
55.340 11.608154
55.345 11.881142
55.350 11.663363
55.355 11.083524
55.360 11.397396
55.365 11.069184
55.370 10.807326
55.375 10.17426
55.380 10.008841
55.385 9.881968
55.390 10.100302
55.395 10.122299
55.400 10.324157
55.405 10.85155
55.410 11.505771
55.415 11.18876
55.420 11.166282
55.425 10.950283
55.430 10.73739
55.435 10.89276
55.440 10.52799
55.445 10.346065
55.450 10.651588
55.455 10.762643
55.460 10.899495
55.465 11.193117
55.470 11.404792
55.475 11.6876
55.480 11.827307
55.485 11.750487
55.490 11.977344
55.495 11.877707
55.500 11.754092
55.505 11.464904
55.510 11.303181
55.515 11.254683
55.520 11.283029
55.525 10.998063
55.530 10.548456
55.535 10.645635
55.540 10.228279
55.545 9.964129
55.550 9.412313
55.555 9.173169
55.560 9.152601
55.565 9.341382
55.570 9.091636
55.575 9.300155
55.580 9.687632
55.585 10.105472
55.590 10.435428
55.595 10.373179
55.600 10.398629
55.605 10.928434
55.610 11.789799
55.615 11.970848
55.620 12.020227
55.625 11.972523
55.630 11.965022
55.635 12.179148
55.640 11.925471
55.645 10.762755
55.650 10.462398
55.655 10.448091
55.660 10.546875
55.665 10.922401
55.670 10.796871
55.675 10.826367
55.680 11.531472
55.685 11.65711
55.690 11.527607
55.695 11.387009
55.700 11.181699
55.705 11.017097
55.710 10.866403
55.715 10.414239
55.720 10.483926
55.725 10.52983
55.730 10.683596
55.735 10.901613
55.740 11.428922
55.745 11.827116
55.750 12.021973
55.755 12.192948
55.760 12.201525
55.765 12.005253
55.770 12.019704
55.775 11.322253
55.780 10.620155
55.785 10.391503
55.790 10.285398
55.795 10.374941
55.800 10.152492
55.805 9.904605
55.810 10.144421
55.815 10.081531
55.820 10.074534
55.825 10.208546
55.830 10.271337
55.835 10.277779
55.840 10.148403
55.845 10.120907
55.850 10.487638
55.855 11.090051
55.860 11.263355
55.865 11.159286
55.870 11.052547
55.875 11.341197
55.880 11.362383
55.885 10.961149
55.890 10.273678
55.895 10.052175
55.900 10.399199
55.905 10.722863
55.910 10.698774
55.915 10.906139
55.920 11.211343
55.925 11.516026
55.930 11.970737
55.935 11.956697
55.940 11.932633
55.945 11.794909
55.950 11.842037
55.955 11.883203
55.960 11.378249
55.965 10.321361
55.970 9.854438
55.975 9.794912
55.980 10.078671
55.985 10.366128
55.990 10.695229
55.995 11.416218
56.000 12.385302
56.005 12.703719
56.010 12.536673
56.015 12.105888
56.020 11.86368
56.025 11.348191
56.030 10.709058
56.035 10.607996
56.040 10.938306
56.045 11.119
56.050 11.208747
56.055 11.144037
56.060 11.724348
56.065 11.971465
56.070 11.456417
56.075 10.823347
56.080 10.42811
56.085 10.593385
56.090 10.455502
56.095 10.111136
56.100 10.359698
56.105 11.137362
56.110 12.006339
56.115 12.171662
56.120 11.940421
56.125 11.835622
56.130 11.956266
56.135 11.661378
56.140 10.773727
56.145 10.42772
56.150 10.927215
56.155 11.589571
56.160 12.349177
56.165 12.609562
56.170 12.785547
56.175 12.680674
56.180 12.855784
56.185 12.3284
56.190 11.962409
56.195 11.656756
56.200 11.327772
56.205 11.351056
56.210 11.54189
56.215 11.816041
56.220 12.095712
56.225 11.55396
56.230 11.529785
56.235 11.55956
56.240 11.281796
56.245 10.687785
56.250 10.176509
56.255 10.3683
56.260 10.675403
56.265 10.622687
56.270 10.76425
56.275 11.20593
56.280 12.028952
56.285 12.776196
56.290 12.800202
56.295 12.544688
56.300 12.546693
56.305 12.293381
56.310 12.04051
56.315 11.73343
56.320 11.349157
56.325 11.043918
56.330 11.292045
56.335 11.209047
56.340 11.253367
56.345 11.34389
56.350 11.661853
56.355 12.025144
56.360 12.175443
56.365 11.898107
56.370 11.889108
56.375 12.01781
56.380 11.873533
56.385 11.33717
56.390 11.280514
56.395 11.564907
56.400 11.857872
56.405 11.941353
56.410 11.752791
56.415 11.706705
56.420 11.645477
56.425 11.380457
56.430 11.300964
56.435 11.34285
56.440 12.07786
56.445 12.800416
56.450 12.880795
56.455 12.856924
56.460 12.823362
56.465 12.360223
56.470 11.831553
56.475 10.840083
56.480 10.631767
56.485 10.773426
56.490 11.168234
56.495 11.314371
56.500 11.553864
56.505 12.016938
56.510 12.526008
56.515 12.675176
56.520 12.690064
56.525 12.644827
56.530 12.549923
56.535 12.828342
56.540 12.435388
56.545 12.170983
56.550 11.987435
56.555 11.935244
56.560 12.014094
56.565 11.829372
56.570 11.232929
56.575 11.577792
56.580 11.7862
56.585 11.619274
56.590 11.779649
56.595 11.772718
56.600 11.876785
56.605 11.908928
56.610 11.634719
56.615 11.681355
56.620 11.424809
56.625 11.770448
56.630 12.075708
56.635 12.434147
56.640 12.872206
56.645 12.542715
56.650 12.340855
56.655 12.938245
56.660 12.355799
56.665 11.810218
56.670 11.883018
56.675 12.039042
56.680 12.488016
56.685 12.463923
56.690 12.158458
56.695 12.084017
56.700 12.272839
56.705 12.20916
56.710 12.59734
56.715 12.975404
56.720 13.210481
56.725 12.974564
56.730 12.734631
56.735 13.201213
56.740 13.103278
56.745 12.382581
56.750 12.380342
56.755 12.89933
56.760 13.637156
56.765 13.931229
56.770 13.650286
56.775 13.401305
56.780 13.14893
56.785 13.15941
56.790 12.790258
56.795 12.606057
56.800 12.667917
56.805 12.994735
56.810 13.332017
56.815 13.297462
56.820 12.645424
56.825 12.46347
56.830 12.508113
56.835 12.100407
56.840 12.161254
56.845 12.276416
56.850 12.690615
56.855 12.892306
56.860 13.243236
56.865 13.85375
56.870 13.862385
56.875 13.491974
56.880 13.306086
56.885 13.026807
56.890 13.01124
56.895 12.678815
56.900 12.090714
56.905 12.185744
56.910 12.097342
56.915 12.200159
56.920 12.51474
56.925 12.319231
56.930 12.218829
56.935 12.530764
56.940 12.771299
56.945 13.420716
56.950 13.512599
56.955 13.605041
56.960 13.633202
56.965 13.784729
56.970 13.341021
56.975 12.745107
56.980 11.966573
56.985 12.189987
56.990 12.186081
56.995 12.546535
57.000 12.366333
57.005 13.231275
57.010 13.629645
57.015 13.678041
57.020 13.374417
57.025 13.4137
57.030 13.221674
57.035 13.376798
57.040 13.409288
57.045 13.227715
57.050 13.337291
57.055 14.033492
57.060 13.986975
57.065 14.079211
57.070 13.537769
57.075 13.06717
57.080 13.38262
57.085 12.900432
57.090 12.670039
57.095 12.894833
57.100 13.195974
57.105 13.76187
57.110 14.142609
57.115 14.47248
57.120 15.089054
57.125 14.89562
57.130 14.533517
57.135 14.516404
57.140 13.931706
57.145 13.656624
57.150 13.257114
57.155 12.677298
57.160 12.049439
57.165 11.864985
57.170 11.664601
57.175 11.587277
57.180 11.19449
57.185 11.077908
57.190 11.546769
57.195 12.026923
57.200 12.50033
57.205 12.344274
57.210 12.499165
57.215 12.908154
57.220 13.212299
57.225 12.802254
57.230 12.338934
57.235 12.179017
57.240 12.813432
57.245 12.502041
57.250 11.953454
57.255 11.639553
57.260 11.77675
57.265 11.901118
57.270 11.873433
57.275 11.669308
57.280 11.870633
57.285 12.341006
57.290 12.39378
57.295 12.319224
57.300 12.588995
57.305 12.433927
57.310 12.455614
57.315 12.716393
57.320 12.976532
57.325 13.430345
57.330 13.804161
57.335 13.756269
57.340 14.033007
57.345 14.348246
57.350 14.131355
57.355 13.912188
57.360 13.726429
57.365 13.911967
57.370 13.868071
57.375 13.36495
57.380 13.399761
57.385 13.287969
57.390 13.05561
57.395 13.06777
57.400 13.160349
57.405 13.685602
57.410 13.946564
57.415 13.753018
57.420 13.465302
57.425 13.609759
57.430 13.329813
57.435 13.031558
57.440 12.508833
57.445 12.500804
57.450 12.933148
57.455 13.693565
57.460 14.062713
57.465 14.621568
57.470 14.474149
57.475 14.396277
57.480 14.239942
57.485 14.150387
57.490 13.397612
57.495 12.951341
57.500 12.489117
57.505 12.755615
57.510 13.023506
57.515 12.611382
57.520 12.462391
57.525 13.110103
57.530 13.300081
57.535 13.274968
57.540 13.094768
57.545 13.213327
57.550 13.519397
57.555 13.401428
57.560 13.383463
57.565 13.591116
57.570 13.995726
57.575 14.412775
57.580 14.283669
57.585 14.349065
57.590 14.237698
57.595 13.808935
57.600 13.468197
57.605 13.030513
57.610 12.443646
57.615 12.241673
57.620 12.279676
57.625 12.22153
57.630 11.846768
57.635 11.957238
57.640 12.084945
57.645 12.623189
57.650 12.972431
57.655 13.073651
57.660 12.977317
57.665 13.297944
57.670 13.345406
57.675 13.250425
57.680 13.043896
57.685 13.064824
57.690 13.104081
57.695 13.950917
57.700 14.303444
57.705 14.549572
57.710 14.9008
57.715 14.885363
57.720 14.591163
57.725 14.335371
57.730 13.42369
57.735 13.062231
57.740 13.13365
57.745 12.827826
57.750 12.747403
57.755 13.1373
57.760 13.399539
57.765 13.504889
57.770 13.429962
57.775 13.265388
57.780 13.309216
57.785 13.216674
57.790 12.718998
57.795 12.758891
57.800 13.07257
57.805 13.169612
57.810 13.322316
57.815 13.374741
57.820 13.412919
57.825 13.759679
57.830 13.539944
57.835 13.152059
57.840 13.319639
57.845 12.953043
57.850 13.073229
57.855 13.274013
57.860 13.30549
57.865 13.725705
57.870 13.745964
57.875 13.536885
57.880 14.060248
57.885 14.058002
57.890 14.18095
57.895 14.043339
57.900 14.201762
57.905 14.05226
57.910 13.432234
57.915 12.805301
57.920 12.521932
57.925 11.973415
57.930 11.833999
57.935 11.841373
57.940 12.361666
57.945 12.951876
57.950 13.024821
57.955 12.624763
57.960 12.588482
57.965 12.565667
57.970 12.091838
57.975 12.012782
57.980 12.132799
57.985 12.637264
57.990 13.397212
57.995 13.899569
58.000 14.207265
58.005 14.287585
58.010 14.553205
58.015 14.389561
58.020 13.789344
58.025 13.328768
58.030 13.213656
58.035 13.375299
58.040 13.582879
58.045 13.584162
58.050 13.981659
58.055 14.563563
58.060 15.008889
58.065 15.207695
58.070 15.129603
58.075 15.273446
58.080 14.593148
58.085 14.336402
58.090 14.11519
58.095 13.672717
58.100 13.523361
58.105 13.226183
58.110 13.055765
58.115 12.786383
58.120 12.898396
58.125 13.237457
58.130 13.585462
58.135 13.574901
58.140 13.636717
58.145 13.273556
58.150 13.408127
58.155 13.221247
58.160 12.59934
58.165 12.132115
58.170 11.827383
58.175 12.034672
58.180 12.696286
58.185 13.058205
58.190 13.163405
58.195 13.417747
58.200 13.779538
58.205 13.584148
58.210 12.805477
58.215 12.204732
58.220 12.24105
58.225 12.180113
58.230 12.085296
58.235 12.500315
58.240 12.676406
58.245 12.944809
58.250 12.939446
58.255 12.534965
58.260 13.013925
58.265 13.530038
58.270 13.237025
58.275 13.727631
58.280 14.174093
58.285 14.832756
58.290 15.021833
58.295 15.182902
58.300 14.808166
58.305 14.552741
58.310 14.349632
58.315 13.521993
58.320 13.394608
58.325 14.016299
58.330 14.036717
58.335 14.36851
58.340 14.359424
58.345 14.437263
58.350 15.264317
58.355 15.340581
58.360 14.876649
58.365 14.805814
58.370 14.406784
58.375 14.989726
58.380 14.88073
58.385 14.308994
58.390 14.457449
58.395 13.926111
58.400 13.786922
58.405 14.121887
58.410 13.997079
58.415 14.034652
58.420 13.863014
58.425 13.372392
58.430 13.70507
58.435 13.954738
58.440 14.039889
58.445 14.827642
58.450 15.170251
58.455 16.226645
58.460 16.542959
58.465 16.466066
58.470 16.008783
58.475 15.637549
58.480 15.434977
58.485 15.410516
58.490 14.875218
58.495 14.957943
58.500 14.816719
58.505 14.514027
58.510 14.194137
58.515 13.414286
58.520 13.217758
58.525 13.559964
58.530 13.58986
58.535 13.729216
58.540 14.487967
58.545 14.644001
58.550 14.878013
