!@!!GADDS PLOTSO FILE: Chi integration type
!@!!Title/SampleName: map-17a
!@!!Comment: ?
!@!!User: Bruker Instrument Administrator
!@!!Site: University of Illinois Chicago
!@!!Frame: map-17a_01_000.gfrm
!@!!Wavelengths    1.54184   1.54056   1.54439
!@!!Frame angles: 2Theta: 63.000 Omega: 50.000 Phi: 0.000 Chi: 90.000
!@!!Integration range: 2Theta: 53.000 to 73.000  Gamma: -105.000 to -75.000
!@!!Integration method: bin normalized
!@!N
!@!SS
!@!M
!@!L 0.0 0.0 0.0 0.0
!@!XDegrees
!@!YCounts
53.000 7.510418
53.005 7.596208
53.010 7.544778
53.015 7.417513
53.020 7.610334
53.025 7.637442
53.030 7.580523
53.035 7.469254
53.040 7.587524
53.045 7.77655
53.050 7.95246
53.055 7.883826
53.060 8.038417
53.065 7.673387
53.070 7.189623
53.075 6.994466
53.080 7.272907
53.085 7.317798
53.090 7.280483
53.095 7.202134
53.100 7.370536
53.105 7.826092
53.110 7.839536
53.115 7.746691
53.120 7.518664
53.125 7.376078
53.130 7.274027
53.135 7.211826
53.140 6.857428
53.145 6.589756
53.150 6.720943
53.155 6.986951
53.160 7.056985
53.165 6.951869
53.170 7.178459
53.175 7.715507
53.180 7.966529
53.185 7.337368
53.190 6.936225
53.195 6.868456
53.200 7.071644
53.205 6.869451
53.210 6.652425
53.215 6.66506
53.220 7.448651
53.225 8.038416
53.230 8.154349
53.235 8.148227
53.240 7.98435
53.245 7.970523
53.250 7.932024
53.255 7.751349
53.260 7.335784
53.265 7.282178
53.270 7.335737
53.275 7.198801
53.280 7.16134
53.285 6.888547
53.290 6.913079
53.295 7.088384
53.300 7.619458
53.305 7.662342
53.310 7.787999
53.315 7.838563
53.320 7.862216
53.325 7.692182
53.330 7.241608
53.335 6.760941
53.340 6.921392
53.345 6.890417
53.350 7.055593
53.355 6.856838
53.360 7.199422
53.365 7.72938
53.370 7.978626
53.375 7.888034
53.380 7.791147
53.385 7.756321
53.390 7.631478
53.395 7.268436
53.400 6.917222
53.405 7.115828
53.410 7.186731
53.415 7.006692
53.420 7.106019
53.425 7.394986
53.430 7.940467
53.435 7.877983
53.440 7.94486
53.445 8.069592
53.450 8.026947
53.455 8.10912
53.460 7.786347
53.465 7.6723
53.470 7.531506
53.475 7.554571
53.480 8.071928
53.485 7.924692
53.490 7.952327
53.495 7.677224
53.500 7.819581
53.505 8.046307
53.510 7.688857
53.515 7.29225
53.520 7.563235
53.525 8.197842
53.530 8.559678
53.535 8.399448
53.540 8.363128
53.545 8.449581
53.550 8.70277
53.555 8.483932
53.560 7.709728
53.565 7.581774
53.570 7.525804
53.575 7.34895
53.580 7.281584
53.585 7.214013
53.590 7.040882
53.595 7.084251
53.600 7.150766
53.605 7.150925
53.610 7.252498
53.615 7.298755
53.620 7.187551
53.625 6.986959
53.630 6.968545
53.635 7.143799
53.640 7.340883
53.645 7.126022
53.650 7.180064
53.655 7.471111
53.660 7.789088
53.665 7.954047
53.670 8.144538
53.675 8.428618
53.680 8.639982
53.685 8.332531
53.690 8.115138
53.695 8.141613
53.700 7.773685
53.705 7.446955
53.710 7.470409
53.715 7.73183
53.720 7.873381
53.725 8.246966
53.730 8.21379
53.735 8.592475
53.740 8.626997
53.745 8.258159
53.750 7.916749
53.755 8.456087
53.760 8.518731
53.765 8.495564
53.770 8.573157
53.775 8.497941
53.780 8.753791
53.785 8.774906
53.790 8.3729
53.795 7.919245
53.800 7.732493
53.805 7.381999
53.810 7.291064
53.815 7.246843
53.820 7.383565
53.825 7.442957
53.830 7.440142
53.835 7.427644
53.840 7.548482
53.845 7.683384
53.850 8.10069
53.855 8.034211
53.860 8.139423
53.865 8.292717
53.870 8.514005
53.875 8.463665
53.880 8.226007
53.885 7.544072
53.890 7.562563
53.895 7.613873
53.900 7.374881
53.905 7.237875
53.910 6.857379
53.915 6.500703
53.920 6.94269
53.925 6.827489
53.930 7.010024
53.935 6.709369
53.940 6.344845
53.945 6.842339
53.950 6.971644
53.955 6.804409
53.960 6.60402
53.965 6.75528
53.970 6.950251
53.975 6.872209
53.980 6.691512
53.985 6.530378
53.990 6.516572
53.995 6.482336
54.000 6.269412
54.005 6.626138
54.010 6.648585
54.015 6.748989
54.020 6.846473
54.025 6.896873
54.030 7.387753
54.035 7.726901
54.040 7.6547
54.045 7.884763
54.050 7.85745
54.055 7.942044
54.060 7.985064
54.065 7.665864
54.070 7.676104
54.075 7.717417
54.080 7.649397
54.085 7.487962
54.090 7.377717
54.095 6.817301
54.100 6.672328
54.105 6.747744
54.110 7.076763
54.115 7.273044
54.120 7.243071
54.125 7.364603
54.130 7.919436
54.135 8.110671
54.140 8.209924
54.145 8.327707
54.150 8.409195
54.155 8.371306
54.160 8.075616
54.165 7.832259
54.170 7.443457
54.175 7.149209
54.180 6.798428
54.185 6.751015
54.190 7.090606
54.195 7.118209
54.200 6.978844
54.205 7.337795
54.210 7.659551
54.215 7.84973
54.220 7.881447
54.225 7.768525
54.230 8.118206
54.235 8.894844
54.240 8.898939
54.245 8.713856
54.250 8.635391
54.255 8.690064
54.260 8.836371
54.265 8.498597
54.270 7.764287
54.275 7.413001
54.280 7.149264
54.285 7.319534
54.290 7.116516
54.295 7.096498
54.300 7.540213
54.305 7.846037
54.310 8.305243
54.315 8.853738
54.320 8.779434
54.325 8.474474
54.330 8.186729
54.335 7.349001
54.340 7.10906
54.345 6.558045
54.350 6.238342
54.355 6.900946
54.360 7.557678
54.365 7.653063
54.370 7.90248
54.375 7.893457
54.380 8.308112
54.385 8.379567
54.390 8.110706
54.395 7.987276
54.400 8.40355
54.405 8.721185
54.410 8.814881
54.415 8.309067
54.420 8.23133
54.425 8.228733
54.430 7.926614
54.435 7.52521
54.440 7.529929
54.445 7.782924
54.450 8.45568
54.455 8.658909
54.460 8.61585
54.465 8.494804
54.470 8.28975
54.475 8.379112
54.480 8.422822
54.485 7.919097
54.490 7.590166
54.495 7.836535
54.500 8.252478
54.505 8.467472
54.510 8.406848
54.515 8.555409
54.520 8.712443
54.525 9.165355
54.530 9.139867
54.535 9.255139
54.540 9.037238
54.545 8.673436
54.550 8.539779
54.555 8.5855
54.560 8.14971
54.565 8.216387
54.570 8.053099
54.575 7.859087
54.580 7.717685
54.585 7.930313
54.590 8.07305
54.595 8.266863
54.600 8.180062
54.605 8.775585
54.610 9.176052
54.615 9.042178
54.620 8.791045
54.625 8.723335
54.630 8.456573
54.635 8.606714
54.640 7.885787
54.645 7.483536
54.650 7.625723
54.655 7.525917
54.660 7.591925
54.665 7.424024
54.670 7.263537
54.675 7.786976
54.680 7.733365
54.685 8.299914
54.690 8.435446
54.695 8.490439
54.700 8.53968
54.705 8.636101
54.710 8.433525
54.715 8.75643
54.720 8.682576
54.725 8.582321
54.730 8.68666
54.735 9.009264
54.740 8.952743
54.745 9.214012
54.750 9.024122
54.755 8.835809
54.760 9.366305
54.765 9.240296
54.770 9.032527
54.775 9.072774
54.780 8.66353
54.785 8.39916
54.790 8.271324
54.795 7.924968
54.800 8.075434
54.805 8.232085
54.810 8.394502
54.815 8.65789
54.820 9.083054
54.825 9.239894
54.830 9.295856
54.835 8.973681
54.840 8.64685
54.845 8.590475
54.850 8.741734
54.855 8.436875
54.860 8.390094
54.865 8.391891
54.870 8.4581
54.875 8.651637
54.880 8.366322
54.885 7.848344
54.890 7.534337
54.895 7.450337
54.900 7.645707
54.905 8.068154
54.910 8.39955
54.915 9.242217
54.920 9.315846
54.925 9.574717
54.930 9.824063
54.935 9.580849
54.940 9.344705
54.945 9.419017
54.950 9.131086
54.955 9.312317
54.960 9.306099
54.965 8.962634
54.970 8.726097
54.975 8.532037
54.980 8.515823
54.985 8.763347
54.990 8.723319
54.995 8.411469
55.000 8.543738
55.005 8.871877
55.010 9.470626
55.015 9.229741
55.020 9.185471
55.025 9.864819
55.030 10.078756
55.035 10.266459
55.040 10.060906
55.045 9.569675
55.050 9.743788
55.055 9.489282
55.060 9.377398
55.065 9.297139
55.070 9.061637
55.075 9.103275
55.080 9.077847
55.085 8.795523
55.090 8.367128
55.095 8.107306
55.100 8.123
55.105 7.941808
55.110 8.030671
55.115 7.690385
55.120 7.949149
55.125 8.473601
55.130 8.439347
55.135 8.680278
55.140 8.803244
55.145 9.147742
55.150 9.626168
55.155 9.422156
55.160 9.205094
55.165 8.835505
55.170 8.565071
55.175 8.42945
55.180 8.002469
55.185 7.939208
55.190 7.601856
55.195 7.64726
55.200 7.673202
55.205 7.915492
55.210 8.659065
55.215 9.059516
55.220 9.077403
55.225 8.938529
55.230 8.973823
55.235 9.264795
55.240 9.402623
55.245 8.949324
55.250 8.515278
55.255 8.599156
55.260 8.939268
55.265 9.160736
55.270 8.895257
55.275 8.698202
55.280 9.110732
55.285 9.617706
55.290 9.454582
55.295 9.374039
55.300 9.35736
55.305 9.55632
55.310 9.278855
55.315 9.006388
55.320 8.931367
55.325 9.044088
55.330 8.888611
55.335 8.900337
55.340 9.13309
55.345 9.311537
55.350 8.821515
55.355 8.490908
55.360 8.895473
55.365 8.808336
55.370 8.682585
55.375 8.324608
55.380 8.158684
55.385 8.368863
55.390 8.745058
55.395 8.80411
55.400 9.141495
55.405 9.030929
55.410 8.884315
55.415 8.623033
55.420 8.474961
55.425 8.119626
55.430 8.132344
55.435 7.883385
55.440 7.864832
55.445 7.915384
55.450 8.168162
55.455 8.493325
55.460 8.409578
55.465 8.584295
55.470 8.710691
55.475 8.6499
55.480 8.573128
55.485 8.960844
55.490 8.998968
55.495 9.085826
55.500 8.847106
55.505 8.927154
55.510 9.307557
55.515 9.33985
55.520 9.675402
55.525 9.450619
55.530 9.447976
55.535 9.610335
55.540 9.710674
55.545 9.568729
55.550 9.580302
55.555 9.252349
55.560 9.302122
55.565 9.265224
55.570 9.211584
55.575 9.233949
55.580 9.084436
55.585 9.084421
55.590 8.599052
55.595 8.551883
55.600 8.44815
55.605 7.979549
55.610 7.890129
55.615 7.900611
55.620 7.870957
55.625 8.352822
55.630 8.308796
55.635 8.016531
55.640 8.382358
55.645 8.572432
55.650 8.998259
55.655 9.20323
55.660 9.140642
55.665 9.408967
55.670 9.424747
55.675 9.140067
55.680 8.972959
55.685 8.809493
55.690 8.462064
55.695 7.970592
55.700 7.784939
55.705 8.002862
55.710 8.110703
55.715 7.969518
55.720 7.594665
55.725 7.561405
55.730 7.620199
55.735 7.416277
55.740 7.797157
55.745 8.090471
55.750 8.133453
55.755 8.243072
55.760 8.196507
55.765 8.586244
55.770 8.738846
55.775 8.062738
55.780 7.792523
55.785 8.333704
55.790 8.676765
55.795 8.726608
55.800 8.639537
55.805 9.022108
55.810 9.250157
55.815 9.374834
55.820 9.366432
55.825 9.292422
55.830 9.43976
55.835 9.651879
55.840 9.610594
55.845 9.611697
55.850 9.318677
55.855 8.937943
55.860 8.736563
55.865 8.212761
55.870 8.04231
55.875 7.789951
55.880 7.833348
55.885 8.531589
55.890 8.844259
55.895 9.064588
55.900 9.618484
55.905 9.255101
55.910 9.069861
55.915 8.842903
55.920 9.012354
55.925 9.289862
55.930 9.886623
55.935 9.888384
55.940 10.578541
55.945 11.506315
55.950 11.6404
55.955 10.890071
55.960 10.412789
55.965 10.183694
55.970 10.092192
55.975 9.299994
55.980 8.791413
55.985 8.676489
55.990 8.789046
55.995 9.176901
56.000 8.966167
56.005 9.033017
56.010 9.403978
56.015 9.376391
56.020 9.022766
56.025 8.701713
56.030 8.706177
56.035 8.884913
56.040 9.02667
56.045 8.77307
56.050 9.177121
56.055 9.923289
56.060 9.958039
56.065 9.404077
56.070 9.33586
56.075 9.219047
56.080 9.33335
56.085 9.210631
56.090 8.95893
56.095 8.740584
56.100 8.885871
56.105 9.023602
56.110 8.990979
56.115 9.269942
56.120 8.955138
56.125 8.901296
56.130 9.29941
56.135 9.209208
56.140 8.711933
56.145 8.952899
56.150 8.990305
56.155 9.215816
56.160 9.325929
56.165 9.289397
56.170 9.105116
56.175 8.97593
56.180 8.8043
56.185 8.418097
56.190 8.165386
56.195 7.89538
56.200 7.789419
56.205 8.072576
56.210 8.09767
56.215 8.187036
56.220 8.183403
56.225 7.923413
56.230 8.230122
56.235 8.995555
56.240 9.284057
56.245 9.344036
56.250 8.843966
56.255 9.179198
56.260 9.791319
56.265 9.857801
56.270 9.289314
56.275 9.07373
56.280 9.311338
56.285 9.670335
56.290 9.674651
56.295 9.608343
56.300 9.166857
56.305 9.350605
56.310 9.473987
56.315 10.081882
56.320 10.29772
56.325 10.087759
56.330 10.01478
56.335 10.015376
56.340 9.796958
56.345 9.654389
56.350 9.466372
56.355 9.855497
56.360 9.962043
56.365 10.131642
56.370 10.602096
56.375 10.504864
56.380 10.244081
56.385 9.832604
56.390 9.70638
56.395 9.81121
56.400 9.434391
56.405 9.234889
56.410 9.725869
56.415 10.021512
56.420 10.189761
56.425 9.957967
56.430 9.724721
56.435 10.114605
56.440 10.415808
56.445 10.362666
56.450 10.295398
56.455 9.676578
56.460 9.671559
56.465 9.736757
56.470 9.471879
56.475 9.096046
56.480 9.31883
56.485 9.088107
56.490 9.821383
56.495 9.795777
56.500 10.397405
56.505 10.699493
56.510 10.494308
56.515 10.533108
56.520 10.526445
56.525 10.648067
56.530 10.92234
56.535 10.166271
56.540 9.840812
56.545 10.098675
56.550 10.269686
56.555 10.509304
56.560 10.53954
56.565 10.704617
56.570 11.197964
56.575 11.552697
56.580 11.401813
56.585 11.199678
56.590 10.591306
56.595 10.214435
56.600 9.987559
56.605 9.624379
56.610 9.040258
56.615 8.87757
56.620 9.310104
56.625 9.553368
56.630 9.196239
56.635 9.358542
56.640 9.351113
56.645 9.812119
56.650 9.738705
56.655 9.425222
56.660 9.797194
56.665 9.628473
56.670 9.503702
56.675 9.756755
56.680 9.702957
56.685 9.629709
56.690 9.68826
56.695 9.173563
56.700 9.538997
56.705 9.326511
56.710 9.263675
56.715 9.034798
56.720 9.188571
56.725 9.467973
56.730 10.298632
56.735 10.200662
56.740 10.09804
56.745 10.194911
56.750 10.160581
56.755 9.824811
56.760 9.288717
56.765 8.713655
56.770 8.714431
56.775 9.159605
56.780 9.363528
56.785 9.504895
56.790 9.50598
56.795 9.605606
56.800 9.589767
56.805 9.747484
56.810 9.546412
56.815 9.538145
56.820 9.631624
56.825 9.852036
56.830 10.156363
56.835 10.160177
56.840 10.009298
56.845 10.248247
56.850 10.077241
56.855 9.941774
56.860 9.80711
56.865 9.492665
56.870 9.510823
56.875 9.797187
56.880 9.626049
56.885 9.459995
56.890 9.13909
56.895 9.33307
56.900 9.65349
56.905 10.011142
56.910 9.66518
56.915 9.747699
56.920 10.155858
56.925 10.59977
56.930 10.90007
56.935 10.598239
56.940 10.527563
56.945 10.891722
56.950 10.856879
56.955 10.876386
56.960 10.839157
56.965 10.402669
56.970 10.14068
56.975 9.979403
56.980 10.006001
56.985 10.017984
56.990 9.741207
56.995 9.237702
57.000 9.181408
57.005 9.630119
57.010 9.318394
57.015 8.720931
57.020 8.923082
57.025 9.075783
57.030 9.336515
57.035 9.701532
57.040 9.618421
57.045 10.178221
57.050 10.492249
57.055 10.629557
57.060 10.933598
57.065 10.927436
57.070 10.985783
57.075 10.882423
57.080 10.51885
57.085 10.246041
57.090 9.692641
57.095 9.512663
57.100 9.295598
57.105 9.491851
57.110 9.95195
57.115 9.905793
57.120 9.879907
57.125 10.249401
57.130 10.310565
57.135 10.287696
57.140 9.824629
57.145 10.069414
57.150 10.621081
57.155 10.657584
57.160 10.536791
57.165 10.47178
57.170 10.366617
57.175 10.562813
57.180 10.372018
57.185 10.420925
57.190 10.502437
57.195 10.400542
57.200 10.41729
57.205 10.432779
57.210 10.397807
57.215 10.031775
57.220 9.989245
57.225 10.478149
57.230 10.566099
57.235 10.467387
57.240 10.339715
57.245 10.270343
57.250 10.270219
57.255 10.294256
57.260 10.370018
57.265 10.561213
57.270 10.768649
57.275 10.556564
57.280 10.361129
57.285 9.980834
57.290 9.512721
57.295 9.163655
57.300 9.368626
57.305 9.174511
57.310 9.131408
57.315 8.981718
57.320 9.06548
57.325 8.89153
57.330 8.680475
57.335 8.567526
57.340 8.927078
57.345 9.177608
57.350 9.513713
57.355 10.049021
57.360 10.409631
57.365 10.543514
57.370 10.279347
57.375 10.279285
57.380 10.156872
57.385 9.928309
57.390 9.916598
57.395 9.896175
57.400 10.010623
57.405 9.927365
57.410 9.957866
57.415 10.265174
57.420 10.580846
57.425 10.644662
57.430 10.724378
57.435 10.852284
57.440 10.870849
57.445 10.477335
57.450 10.254502
57.455 9.561508
57.460 9.410155
57.465 9.486589
57.470 9.646543
57.475 9.873562
57.480 10.198073
57.485 10.470811
57.490 11.153467
57.495 10.90739
57.500 10.623552
57.505 10.109066
57.510 10.044733
57.515 10.086423
57.520 10.126222
57.525 10.38668
57.530 10.592762
57.535 10.446318
57.540 10.332435
57.545 10.388662
57.550 10.107266
57.555 10.263918
57.560 9.711665
57.565 9.347692
57.570 9.876197
57.575 10.340617
57.580 10.30901
57.585 10.147539
57.590 9.442533
57.595 9.275718
57.600 9.487844
57.605 9.713051
57.610 9.725307
57.615 10.02821
57.620 10.120396
57.625 10.414009
57.630 10.700493
57.635 11.058762
57.640 10.586049
57.645 10.460747
57.650 10.895743
57.655 11.480853
57.660 11.948826
57.665 12.11935
57.670 11.652947
57.675 11.77024
57.680 11.314858
57.685 10.757057
57.690 10.809907
57.695 10.604731
57.700 10.205104
57.705 10.227982
57.710 10.208957
57.715 10.59268
57.720 10.573635
57.725 10.064684
57.730 10.20063
57.735 10.695724
57.740 10.747047
57.745 10.800374
57.750 10.838543
57.755 10.8618
57.760 10.860387
57.765 10.707379
57.770 10.530951
57.775 10.294564
57.780 10.406973
57.785 10.409418
57.790 10.373581
57.795 10.352388
57.800 9.963834
57.805 10.239099
57.810 10.64536
57.815 10.792375
57.820 10.521726
57.825 10.894797
57.830 11.660915
57.835 12.36795
57.840 12.13688
57.845 11.961102
57.850 11.838727
57.855 11.947938
57.860 11.296412
57.865 10.418054
57.870 10.183826
57.875 10.164984
57.880 9.750635
57.885 9.905144
57.890 10.380145
57.895 10.623137
57.900 10.603642
57.905 10.449574
57.910 10.445934
57.915 11.001212
57.920 10.944405
57.925 10.842836
57.930 10.976797
57.935 11.250289
57.940 11.185907
57.945 11.131604
57.950 10.95918
57.955 10.790573
57.960 10.42135
57.965 10.472244
57.970 10.797357
57.975 11.171205
57.980 11.185122
57.985 11.229259
57.990 11.543752
57.995 11.640936
58.000 12.048429
58.005 11.738698
58.010 11.797025
58.015 12.225923
58.020 12.193996
58.025 12.121614
58.030 12.002196
58.035 11.573378
58.040 11.459011
58.045 11.558211
58.050 11.114875
58.055 11.045065
58.060 11.382646
58.065 11.544486
58.070 11.358634
58.075 11.191218
58.080 10.813942
58.085 10.798228
58.090 10.620059
58.095 10.099141
58.100 10.105507
58.105 10.688918
58.110 10.858939
58.115 10.688097
58.120 10.581489
58.125 10.459959
58.130 10.71009
58.135 10.492242
58.140 10.778256
58.145 11.076159
58.150 10.782486
58.155 11.171665
58.160 11.649884
58.165 12.015424
58.170 12.572317
58.175 12.352836
58.180 12.440673
58.185 12.814055
58.190 12.600994
58.195 12.89539
58.200 12.527028
58.205 11.762156
58.210 12.049166
58.215 12.20545
58.220 12.016138
58.225 12.116794
58.230 11.976628
58.235 12.250913
58.240 12.58725
58.245 11.861995
58.250 11.56816
58.255 11.846973
58.260 11.33167
58.265 10.81068
58.270 10.796654
58.275 11.123922
58.280 11.127971
58.285 11.253515
58.290 11.130888
58.295 11.442815
58.300 11.761932
58.305 11.984234
58.310 12.118237
58.315 12.24576
58.320 12.248451
58.325 12.240325
58.330 12.002393
58.335 12.420679
58.340 12.375494
58.345 12.40709
58.350 12.511468
58.355 12.478727
58.360 12.844846
58.365 13.41223
58.370 13.498065
58.375 13.325844
58.380 13.27133
58.385 13.623012
58.390 14.009941
58.395 14.761012
58.400 14.48936
58.405 14.413113
58.410 14.631122
58.415 14.394996
58.420 14.482562
58.425 14.625796
58.430 15.126814
58.435 15.607271
58.440 15.35297
58.445 15.897943
58.450 16.497309
58.455 16.605341
58.460 16.669119
58.465 15.422098
58.470 15.292354
58.475 15.104901
58.480 15.045766
58.485 15.350068
58.490 16.391504
58.495 17.310432
58.500 17.953493
58.505 18.152836
58.510 18.101206
58.515 17.994656
58.520 17.807581
58.525 17.075747
58.530 16.348259
58.535 16.498047
58.540 16.62887
58.545 16.836428
58.550 16.989325
58.555 17.440708
58.560 18.460011
58.565 18.967913
58.570 18.820131
58.575 18.89994
58.580 19.183332
58.585 19.820421
58.590 19.425699
58.595 18.825918
58.600 18.6842
58.605 19.133131
58.610 19.554409
58.615 19.732769
58.620 19.243202
58.625 18.807236
58.630 18.499371
58.635 18.48144
58.640 18.797989
58.645 18.368471
58.650 17.933756
58.655 17.887609
58.660 18.486252
