!@!!GADDS PLOTSO FILE: Chi integration type
!@!!Title/SampleName: map-179
!@!!Comment: ?
!@!!User: Bruker Instrument Administrator
!@!!Site: University of Illinois Chicago
!@!!Frame: map-179_01_000.gfrm
!@!!Wavelengths    1.54184   1.54056   1.54439
!@!!Frame angles: 2Theta: 63.000 Omega: 50.000 Phi: 0.000 Chi: 90.000
!@!!Integration range: 2Theta: 53.000 to 73.000  Gamma: -105.000 to -75.000
!@!!Integration method: bin normalized
!@!N
!@!SS
!@!M
!@!L 0.0 0.0 0.0 0.0
!@!XDegrees
!@!YCounts
53.000 5.185584
53.005 5.370769
53.010 5.376806
53.015 5.211837
53.020 5.467633
53.025 5.836143
53.030 6.196657
53.035 6.410048
53.040 6.591569
53.045 6.530668
53.050 6.761468
53.055 6.860725
53.060 6.81618
53.065 6.774459
53.070 6.618488
53.075 6.670706
53.080 6.643816
53.085 6.651795
53.090 6.149468
53.095 5.843424
53.100 5.634899
53.105 5.325778
53.110 5.301168
53.115 4.981398
53.120 5.107812
53.125 5.295019
53.130 5.662251
53.135 5.897959
53.140 5.680732
53.145 5.44097
53.150 5.423474
53.155 5.327384
53.160 5.182837
53.165 5.11289
53.170 5.448158
53.175 5.772465
53.180 5.85079
53.185 5.685288
53.190 5.694012
53.195 5.478344
53.200 4.969436
53.205 5.121418
53.210 5.428372
53.215 5.878939
53.220 6.020568
53.225 6.085707
53.230 6.512749
53.235 6.861793
53.240 6.413404
53.245 5.942343
53.250 6.065187
53.255 6.395556
53.260 6.422565
53.265 6.616894
53.270 6.93307
53.275 7.412045
53.280 7.630262
53.285 7.331899
53.290 7.18619
53.295 7.175499
53.300 7.003091
53.305 6.989061
53.310 7.030185
53.315 7.141845
53.320 7.279388
53.325 6.883172
53.330 6.804371
53.335 6.80822
53.340 6.612513
53.345 6.587101
53.350 6.29032
53.355 6.100665
53.360 6.373634
53.365 6.135347
53.370 5.99139
53.375 5.969267
53.380 6.284693
53.385 6.498488
53.390 6.245217
53.395 6.144495
53.400 6.507636
53.405 6.280033
53.410 6.090183
53.415 5.878559
53.420 5.944951
53.425 6.363965
53.430 6.443974
53.435 6.226205
53.440 6.368425
53.445 6.251673
53.450 6.376044
53.455 6.680165
53.460 6.408873
53.465 6.125184
53.470 6.060095
53.475 5.556258
53.480 5.568176
53.485 5.515374
53.490 5.441431
53.495 5.361934
53.500 5.825233
53.505 5.948664
53.510 6.153367
53.515 6.033638
53.520 6.097088
53.525 6.035498
53.530 6.32553
53.535 6.136415
53.540 6.106557
53.545 5.99811
53.550 6.133742
53.555 6.571451
53.560 6.760426
53.565 6.925644
53.570 7.34734
53.575 7.758911
53.580 7.810348
53.585 7.462483
53.590 7.103119
53.595 6.984001
53.600 6.68316
53.605 6.242834
53.610 5.921489
53.615 5.687978
53.620 5.653465
53.625 5.2533
53.630 4.966794
53.635 5.082857
53.640 5.388499
53.645 5.823009
53.650 6.136784
53.655 6.180368
53.660 6.337824
53.665 6.492244
53.670 6.457852
53.675 6.313225
53.680 6.125309
53.685 6.475505
53.690 6.526005
53.695 6.762537
53.700 6.680954
53.705 6.542895
53.710 6.570851
53.715 6.373483
53.720 5.955009
53.725 5.90254
53.730 6.255851
53.735 7.125949
53.740 7.635472
53.745 7.634293
53.750 8.049882
53.755 8.367863
53.760 8.23037
53.765 7.824298
53.770 7.598643
53.775 7.618647
53.780 7.521645
53.785 7.046438
53.790 7.225273
53.795 7.514471
53.800 7.43343
53.805 6.843187
53.810 6.573041
53.815 6.625659
53.820 6.993926
53.825 7.747257
53.830 7.52048
53.835 7.166485
53.840 7.2082
53.845 7.311199
53.850 7.012959
53.855 6.443536
53.860 5.646472
53.865 5.777964
53.870 5.849428
53.875 5.831964
53.880 5.918476
53.885 6.004583
53.890 5.989095
53.895 5.809852
53.900 6.035882
53.905 6.310774
53.910 6.29249
53.915 6.393887
53.920 6.420224
53.925 6.113579
53.930 6.447257
53.935 6.399438
53.940 6.247602
53.945 6.336308
53.950 6.472987
53.955 6.80072
53.960 7.399051
53.965 7.307087
53.970 7.192004
53.975 7.492799
53.980 7.920842
53.985 8.14364
53.990 7.748586
53.995 7.700908
54.000 7.611499
54.005 7.46818
54.010 7.038068
54.015 6.665933
54.020 6.357632
54.025 6.414568
54.030 6.452333
54.035 6.612643
54.040 6.892347
54.045 7.442622
54.050 7.684254
54.055 8.097283
54.060 8.311522
54.065 8.295267
54.070 8.26325
54.075 8.110785
54.080 7.882246
54.085 7.557162
54.090 7.300508
54.095 7.179777
54.100 6.982786
54.105 6.992317
54.110 7.334839
54.115 7.501667
54.120 7.95101
54.125 7.927527
54.130 8.112156
54.135 8.510591
54.140 8.609355
54.145 8.294565
54.150 7.893066
54.155 7.604288
54.160 7.564604
54.165 7.118912
54.170 6.962642
54.175 6.55816
54.180 6.075795
54.185 5.743928
54.190 5.541051
54.195 5.351265
54.200 5.526073
54.205 5.65634
54.210 5.443364
54.215 5.573225
54.220 5.979065
54.225 6.363448
54.230 6.446219
54.235 6.192416
54.240 6.417992
54.245 6.924446
54.250 6.998823
54.255 6.562009
54.260 6.480565
54.265 6.913304
54.270 7.213253
54.275 7.244749
54.280 7.581914
54.285 7.483654
54.290 7.452229
54.295 7.217363
54.300 7.170603
54.305 7.31345
54.310 7.082366
54.315 6.652481
54.320 6.763286
54.325 6.891277
54.330 6.649714
54.335 6.728426
54.340 6.499982
54.345 6.543972
54.350 6.895808
54.355 7.030526
54.360 6.873479
54.365 6.90693
54.370 6.411805
54.375 6.398858
54.380 6.202846
54.385 5.813808
54.390 5.773902
54.395 6.093641
54.400 5.889855
54.405 5.902219
54.410 6.119498
54.415 6.035804
54.420 6.136554
54.425 6.400105
54.430 6.711316
54.435 6.974713
54.440 6.8427
54.445 6.874517
54.450 6.994187
54.455 6.521801
54.460 6.167614
54.465 6.173215
54.470 6.002078
54.475 5.712392
54.480 5.543197
54.485 5.812315
54.490 6.182621
54.495 5.755265
54.500 5.603719
54.505 6.17273
54.510 6.60289
54.515 6.579578
54.520 6.603988
54.525 6.491041
54.530 6.777146
54.535 6.583895
54.540 6.110413
54.545 6.064137
54.550 6.031164
54.555 6.507597
54.560 6.751104
54.565 7.07105
54.570 7.51986
54.575 7.664415
54.580 7.836811
54.585 7.990617
54.590 7.972939
54.595 7.796684
54.600 7.052442
54.605 6.561407
54.610 6.659199
54.615 6.546597
54.620 6.245473
54.625 6.036197
54.630 6.094293
54.635 6.361791
54.640 6.766115
54.645 6.943575
54.650 7.17677
54.655 7.524986
54.660 7.259933
54.665 7.181732
54.670 7.279823
54.675 7.263268
54.680 7.050118
54.685 6.612501
54.690 6.712213
54.695 7.232418
54.700 7.427589
54.705 7.205542
54.710 6.994074
54.715 6.911776
54.720 6.766512
54.725 6.359525
54.730 6.038375
54.735 5.809
54.740 5.853483
54.745 6.189679
54.750 6.76557
54.755 7.048423
54.760 7.370678
54.765 7.420222
54.770 7.511439
54.775 7.639085
54.780 7.939904
54.785 8.080038
54.790 7.931028
54.795 7.81509
54.800 7.895547
54.805 7.954348
54.810 7.433249
54.815 6.86678
54.820 6.985842
54.825 6.980177
54.830 7.218544
54.835 7.21344
54.840 7.164605
54.845 7.337933
54.850 6.77528
54.855 6.537913
54.860 6.727179
54.865 6.594922
54.870 6.590445
54.875 6.852696
54.880 7.201244
54.885 7.497376
54.890 7.852486
54.895 7.786957
54.900 7.835346
54.905 7.705513
54.910 7.565886
54.915 7.582361
54.920 7.349589
54.925 7.148881
54.930 7.199739
54.935 7.558509
54.940 8.188502
54.945 7.991797
54.950 8.004029
54.955 8.192129
54.960 8.244137
54.965 8.033013
54.970 7.637349
54.975 7.243008
54.980 7.080072
54.985 7.125373
54.990 6.826992
54.995 6.813639
55.000 6.776301
55.005 6.686208
55.010 6.847707
55.015 7.085557
55.020 7.372535
55.025 7.313131
55.030 7.130444
55.035 7.281446
55.040 7.357052
55.045 7.477037
55.050 7.114746
55.055 6.827067
55.060 7.047266
55.065 7.449358
55.070 7.345057
55.075 7.006393
55.080 6.900644
55.085 7.289904
55.090 7.576818
55.095 7.734212
55.100 7.56871
55.105 7.790646
55.110 8.043672
55.115 8.071775
55.120 7.901755
55.125 7.682635
55.130 7.325966
55.135 7.080477
55.140 7.347732
55.145 7.342515
55.150 7.195611
55.155 6.994643
55.160 7.239779
55.165 7.459143
55.170 7.143834
55.175 6.70582
55.180 6.823469
55.185 7.029526
55.190 7.075163
55.195 6.760048
55.200 7.095181
55.205 7.637679
55.210 7.845166
55.215 7.862439
55.220 7.539679
55.225 7.477178
55.230 7.339792
55.235 7.374864
55.240 7.39794
55.245 7.532174
55.250 7.56389
55.255 7.967597
55.260 8.45081
55.265 8.4834
55.270 7.806734
55.275 7.278596
55.280 7.045363
55.285 6.553107
55.290 6.120181
55.295 5.71658
55.300 5.33213
55.305 5.598134
55.310 5.827402
55.315 5.737423
55.320 6.253019
55.325 6.218535
55.330 6.530166
55.335 7.006968
55.340 6.74791
55.345 7.009388
55.350 7.363156
55.355 7.064901
55.360 7.09702
55.365 6.57312
55.370 6.538116
55.375 6.400522
55.380 6.027045
55.385 5.857776
55.390 5.723633
55.395 5.927104
55.400 6.330221
55.405 6.560395
55.410 6.612408
55.415 6.590186
55.420 6.696832
55.425 7.024205
55.430 7.03628
55.435 6.721662
55.440 6.637352
55.445 6.90105
55.450 7.17512
55.455 7.1957
55.460 7.518907
55.465 7.891333
55.470 8.269546
55.475 8.538319
55.480 8.738817
55.485 8.868235
55.490 8.535869
55.495 8.067162
55.500 7.743927
55.505 7.612333
55.510 7.580642
55.515 7.565926
55.520 7.49686
55.525 7.478441
55.530 7.157852
55.535 6.721547
55.540 6.30282
55.545 6.520867
55.550 6.594452
55.555 6.834735
55.560 6.931523
55.565 7.485978
55.570 7.857634
55.575 7.893379
55.580 7.636476
55.585 7.343846
55.590 7.191184
55.595 7.407985
55.600 7.194648
55.605 6.932036
55.610 6.901319
55.615 6.952568
55.620 7.20885
55.625 6.977365
55.630 7.050996
55.635 6.946282
55.640 7.241334
55.645 7.619907
55.650 7.414918
55.655 7.471681
55.660 7.618418
55.665 7.539977
55.670 7.603926
55.675 7.342172
55.680 7.060225
55.685 7.189804
55.690 7.183633
55.695 7.252646
55.700 7.199665
55.705 7.338235
55.710 7.49006
55.715 8.003819
55.720 8.079888
55.725 7.998862
55.730 7.978621
55.735 8.069449
55.740 8.12536
55.745 8.068149
55.750 7.75878
55.755 7.66484
55.760 7.594526
55.765 7.653621
55.770 7.56653
55.775 7.971191
55.780 8.197265
55.785 7.926379
55.790 7.813821
55.795 7.795893
55.800 7.787069
55.805 7.825175
55.810 7.679834
55.815 7.269134
55.820 7.45331
55.825 7.543056
55.830 7.814517
55.835 7.831355
55.840 7.393777
55.845 7.037446
55.850 7.28648
55.855 7.495434
55.860 7.034956
55.865 6.773364
55.870 6.890831
55.875 7.347067
55.880 7.701921
55.885 7.654012
55.890 7.962307
55.895 8.066719
55.900 7.823252
55.905 7.412868
55.910 7.132202
55.915 6.982653
55.920 6.967082
55.925 6.797201
55.930 7.085454
55.935 7.454801
55.940 8.129371
55.945 8.088343
55.950 8.002797
55.955 8.148753
55.960 8.250003
55.965 8.159188
55.970 7.862322
55.975 7.859698
55.980 7.785193
55.985 7.795143
55.990 7.40456
55.995 7.15676
56.000 7.219225
56.005 7.41723
56.010 7.045437
56.015 7.316948
56.020 7.205145
56.025 7.334021
56.030 7.619435
56.035 8.015494
56.040 8.01588
56.045 8.383684
56.050 8.397329
56.055 8.34058
56.060 8.287527
56.065 8.209398
56.070 7.876246
56.075 8.124859
56.080 7.93212
56.085 8.319638
56.090 8.774034
56.095 8.834026
56.100 8.666073
56.105 8.8815
56.110 8.3247
56.115 7.943744
56.120 7.71003
56.125 6.95981
56.130 6.773099
56.135 6.583233
56.140 6.288493
56.145 7.245742
56.150 7.158516
56.155 7.266339
56.160 7.547832
56.165 7.510098
56.170 7.697864
56.175 7.607295
56.180 7.117273
56.185 7.581898
56.190 7.414851
56.195 7.576474
56.200 7.996261
56.205 8.226277
56.210 7.980733
56.215 7.463585
56.220 7.555564
56.225 7.696572
56.230 7.706892
56.235 7.393511
56.240 7.188812
56.245 7.845554
56.250 8.490102
56.255 8.297519
56.260 8.170213
56.265 8.476435
56.270 8.464877
56.275 8.735598
56.280 8.412846
56.285 7.869611
56.290 8.047928
56.295 7.838331
56.300 7.683542
56.305 7.551268
56.310 7.167691
56.315 7.370111
56.320 7.537268
56.325 7.584395
56.330 7.686427
56.335 7.614498
56.340 7.797921
56.345 8.129335
56.350 8.209025
56.355 8.049901
56.360 8.134829
56.365 8.162012
56.370 8.325376
56.375 8.516035
56.380 8.354486
56.385 8.032711
56.390 8.18224
56.395 8.240726
56.400 8.446334
56.405 8.110078
56.410 7.858619
56.415 7.944249
56.420 8.165713
56.425 7.949727
56.430 7.986334
56.435 7.933482
56.440 7.929236
56.445 7.786309
56.450 7.573941
56.455 7.327334
56.460 7.241028
56.465 7.059129
56.470 7.001298
56.475 6.919385
56.480 6.97496
56.485 7.314168
56.490 8.178426
56.495 8.301332
56.500 8.344605
56.505 8.250051
56.510 8.484011
56.515 8.396441
56.520 8.408407
56.525 8.243687
56.530 8.017599
56.535 8.068473
56.540 8.225997
56.545 8.220392
56.550 8.420202
56.555 7.952545
56.560 7.696146
56.565 8.058424
56.570 8.027119
56.575 7.728657
56.580 7.460514
56.585 7.268749
56.590 7.472614
56.595 7.611816
56.600 7.690127
56.605 7.810177
56.610 8.246491
56.615 8.732327
56.620 8.9503
56.625 9.421809
56.630 8.827848
56.635 8.862743
56.640 9.05401
56.645 8.670442
56.650 8.616697
56.655 8.736691
56.660 8.12975
56.665 8.720157
56.670 8.829243
56.675 8.591454
56.680 9.039176
56.685 9.093819
56.690 9.09492
56.695 9.255792
56.700 8.857768
56.705 8.597336
56.710 8.233596
56.715 7.925082
56.720 7.579118
56.725 7.400576
56.730 7.624831
56.735 7.696136
56.740 7.923222
56.745 8.79387
56.750 9.238161
56.755 9.366587
56.760 9.386361
56.765 8.953949
56.770 9.01492
56.775 8.775043
56.780 8.611697
56.785 8.367554
56.790 8.337707
56.795 8.681091
56.800 9.313386
56.805 9.204244
56.810 9.138495
56.815 8.734219
56.820 8.739466
56.825 9.07548
56.830 8.76818
56.835 8.516379
56.840 8.571866
56.845 8.63692
56.850 8.709399
56.855 8.447287
56.860 7.859997
56.865 7.525146
56.870 7.62192
56.875 7.695271
56.880 7.654246
56.885 7.921412
56.890 8.118999
56.895 8.44159
56.900 8.755887
56.905 8.711459
56.910 8.690256
56.915 8.770298
56.920 8.441521
56.925 8.302115
56.930 8.476665
56.935 8.592138
56.940 8.802416
56.945 9.043098
56.950 9.256947
56.955 9.674158
56.960 9.599517
56.965 9.136812
56.970 8.952431
56.975 9.03463
56.980 8.914091
56.985 8.626478
56.990 8.411052
56.995 8.375924
57.000 8.447261
57.005 8.481029
57.010 7.771368
57.015 7.396281
57.020 7.310337
57.025 7.132054
57.030 7.370673
57.035 7.387717
57.040 7.495314
57.045 8.21959
57.050 8.401553
57.055 8.614504
57.060 8.624593
57.065 8.770555
57.070 9.337093
57.075 9.081579
57.080 8.480997
57.085 8.282201
57.090 8.226292
57.095 8.403193
57.100 8.156289
57.105 7.726047
57.110 7.793921
57.115 8.193537
57.120 8.588655
57.125 8.586993
57.130 8.503054
57.135 8.805821
57.140 8.887958
57.145 9.248675
57.150 9.202225
57.155 9.17082
57.160 9.239787
57.165 9.401976
57.170 8.965813
57.175 8.609485
57.180 7.816934
57.185 7.60115
57.190 7.600383
57.195 7.564791
57.200 7.804135
57.205 7.913103
57.210 8.421236
57.215 9.104019
57.220 9.035213
57.225 8.757654
57.230 8.568128
57.235 8.182154
57.240 8.143669
57.245 8.068211
57.250 8.103778
57.255 8.405978
57.260 8.740584
57.265 8.633122
57.270 8.666585
57.275 8.456234
57.280 8.27304
57.285 8.146214
57.290 7.918499
57.295 7.674349
57.300 7.754268
57.305 7.58965
57.310 7.902446
57.315 8.021689
57.320 7.863722
57.325 8.10738
57.330 7.859912
57.335 8.061913
57.340 8.353897
57.345 8.345942
57.350 8.089452
57.355 7.801515
57.360 7.949522
57.365 7.922925
57.370 8.114236
57.375 8.331541
57.380 8.193856
57.385 8.488209
57.390 8.585031
57.395 8.394549
57.400 8.425344
57.405 8.016077
57.410 7.866161
57.415 7.808012
57.420 7.711926
57.425 7.870597
57.430 8.10778
57.435 8.295859
57.440 8.166155
57.445 8.078891
57.450 8.329303
57.455 8.254698
57.460 8.061346
57.465 7.505255
57.470 7.106097
57.475 7.137833
57.480 6.672836
57.485 6.57111
57.490 6.656186
57.495 6.882866
57.500 7.251582
57.505 7.443884
57.510 7.64799
57.515 7.81855
57.520 7.4778
57.525 7.475277
57.530 7.393865
57.535 7.498946
57.540 7.908897
57.545 7.575922
57.550 8.262009
57.555 8.789911
57.560 8.868339
57.565 8.585283
57.570 8.475543
57.575 8.472919
57.580 8.460135
57.585 8.106806
57.590 8.196504
57.595 8.31102
57.600 8.720629
57.605 8.840656
57.610 8.691651
57.615 8.410328
57.620 8.344633
57.625 8.322525
57.630 8.406805
57.635 8.009079
57.640 7.427186
57.645 7.533028
57.650 8.115656
57.655 8.247063
57.660 8.359675
57.665 7.887767
57.670 8.131759
57.675 8.603767
57.680 8.774555
57.685 8.804557
57.690 9.044242
57.695 8.871542
57.700 9.082546
57.705 9.064143
57.710 9.035683
57.715 8.78171
57.720 8.506113
57.725 8.52838
57.730 8.672574
57.735 9.036135
57.740 9.403683
57.745 9.185214
57.750 9.50416
57.755 9.293603
57.760 9.268319
57.765 9.01609
57.770 8.558972
57.775 8.246118
57.780 8.268757
57.785 8.075608
57.790 8.121091
57.795 7.69961
57.800 7.862402
57.805 8.322141
57.810 8.729868
57.815 8.858455
57.820 9.09388
57.825 9.470528
57.830 9.628291
57.835 8.967149
57.840 8.607151
57.845 8.282465
57.850 8.619689
57.855 8.588643
57.860 8.225644
57.865 8.514595
57.870 9.14352
57.875 9.364823
57.880 9.461422
57.885 9.098388
57.890 9.11773
57.895 9.421312
57.900 9.143786
57.905 8.870178
57.910 8.703671
57.915 8.76584
57.920 8.97556
57.925 8.801475
57.930 8.512136
57.935 8.868692
57.940 8.818372
57.945 8.889956
57.950 8.899177
57.955 8.854352
57.960 8.832956
57.965 9.108044
57.970 8.920711
57.975 9.197116
57.980 9.055082
57.985 9.254457
57.990 9.348725
57.995 9.421434
58.000 9.528801
58.005 9.665443
58.010 9.228623
58.015 9.083397
58.020 8.450832
58.025 8.218073
58.030 8.197658
58.035 8.027248
58.040 8.015182
58.045 8.440118
58.050 8.897162
58.055 9.332355
58.060 9.658248
58.065 10.018082
58.070 9.705805
58.075 9.622837
58.080 9.683003
58.085 9.394272
58.090 9.290726
58.095 9.108816
58.100 9.026651
58.105 9.715312
58.110 9.374968
58.115 9.215423
58.120 9.272743
58.125 9.55692
58.130 9.572942
58.135 9.190207
58.140 9.229239
58.145 9.800149
58.150 9.950908
58.155 9.99057
58.160 9.632988
58.165 9.614407
58.170 9.744944
58.175 10.029409
58.180 9.753709
58.185 9.538322
58.190 9.288606
58.195 9.368881
58.200 9.518745
58.205 9.130353
58.210 8.612833
58.215 8.310631
58.220 8.229868
58.225 8.358695
58.230 8.060398
58.235 8.104919
58.240 8.342777
58.245 8.341283
58.250 8.505002
58.255 8.493644
58.260 8.718221
58.265 8.912134
58.270 8.620652
58.275 8.851249
58.280 9.14047
58.285 9.61212
58.290 9.8156
58.295 9.634105
58.300 9.855894
58.305 9.569702
58.310 9.347862
58.315 9.076447
58.320 8.849936
58.325 9.339108
58.330 9.594275
58.335 9.730631
58.340 10.242182
58.345 10.369688
58.350 10.492584
58.355 10.112911
58.360 9.983104
58.365 9.959774
58.370 10.552518
58.375 10.829978
58.380 11.275645
58.385 11.339684
58.390 11.862209
58.395 11.396873
58.400 11.38195
58.405 10.835043
58.410 10.499149
58.415 10.063024
58.420 10.402974
58.425 10.638168
58.430 10.809925
58.435 10.640494
58.440 10.639252
58.445 10.265662
58.450 10.495086
58.455 10.494253
58.460 10.336871
58.465 10.322651
58.470 10.155204
58.475 10.555062
58.480 11.4285
58.485 11.379786
58.490 11.616449
58.495 11.835968
58.500 11.947176
58.505 12.138347
58.510 11.933684
58.515 11.991743
58.520 12.623137
58.525 12.60557
58.530 12.634203
58.535 12.902225
58.540 13.327041
58.545 13.100086
58.550 12.486995
58.555 12.140971
58.560 12.064777
58.565 12.606336
58.570 12.657013
58.575 12.782058
58.580 13.383005
58.585 13.639534
58.590 13.549349
58.595 13.460161
58.600 13.442323
58.605 13.658695
58.610 13.55263
58.615 13.249104
58.620 13.216262
58.625 13.80061
58.630 14.489304
58.635 14.203176
58.640 13.817844
58.645 13.794855
58.650 13.895391
58.655 14.277498
58.660 14.130426
58.665 13.864811
58.670 13.598051
58.675 13.827455
58.680 13.957068
58.685 13.700371
58.690 13.53652
58.695 13.67074
58.700 13.525793
58.705 13.715695
58.710 13.611481
58.715 13.849735
58.720 14.391867
58.725 14.305101
58.730 13.792825
58.735 13.500444
58.740 13.559561
