!@!!GADDS PLOTSO FILE: Chi integration type
!@!!Title/SampleName: map-9e
!@!!Comment: ?
!@!!User: Bruker Instrument Administrator
!@!!Site: University of Illinois Chicago
!@!!Frame: map-9e_01_000.gfrm
!@!!Wavelengths    1.54184   1.54056   1.54439
!@!!Frame angles: 2Theta: 63.000 Omega: 50.000 Phi: 0.000 Chi: 90.000
!@!!Integration range: 2Theta: 53.000 to 73.000  Gamma: -105.000 to -75.000
!@!!Integration method: bin normalized
!@!N
!@!SS
!@!M
!@!L 0.0 0.0 0.0 0.0
!@!XDegrees
!@!YCounts
53.000 9.906106
53.005 9.239593
53.010 9.369466
53.015 9.331551
53.020 9.368254
53.025 9.364396
53.030 9.261038
53.035 9.60685
53.040 9.929568
53.045 9.495639
53.050 9.222331
53.055 9.09094
53.060 8.951418
53.065 8.936263
53.070 8.384528
53.075 8.385106
53.080 8.958619
53.085 9.398196
53.090 9.607508
53.095 10.029263
53.100 10.357458
53.105 10.440344
53.110 10.363026
53.115 9.98705
53.120 9.747021
53.125 9.331917
53.130 8.74629
53.135 8.713644
53.140 8.420205
53.145 8.110098
53.150 8.532188
53.155 8.624599
53.160 8.871315
53.165 8.968047
53.170 9.094268
53.175 9.255329
53.180 9.408331
53.185 9.745113
53.190 9.988629
53.195 9.874513
53.200 9.658712
53.205 9.711044
53.210 10.232482
53.215 10.435909
53.220 10.06743
53.225 10.385023
53.230 10.827954
53.235 11.066641
53.240 10.920426
53.245 10.965406
53.250 10.791643
53.255 10.448827
53.260 9.616803
53.265 9.180187
53.270 9.200747
53.275 9.0022
53.280 8.454728
53.285 8.386511
53.290 8.886477
53.295 9.706755
53.300 9.836247
53.305 9.664959
53.310 9.796185
53.315 9.960375
53.320 9.862855
53.325 9.893028
53.330 9.808956
53.335 10.245877
53.340 10.529778
53.345 10.409315
53.350 10.963667
53.355 10.907911
53.360 10.433634
53.365 10.33287
53.370 10.033474
53.375 9.997968
53.380 10.08487
53.385 9.809252
53.390 9.942951
53.395 10.253102
53.400 10.369885
53.405 9.997258
53.410 10.005079
53.415 9.488614
53.420 9.406179
53.425 9.348453
53.430 8.91528
53.435 8.909503
53.440 9.422858
53.445 9.249641
53.450 9.382936
53.455 9.49979
53.460 9.775548
53.465 10.202683
53.470 10.107505
53.475 10.123084
53.480 10.145866
53.485 10.212593
53.490 10.100314
53.495 9.971437
53.500 9.681939
53.505 9.289821
53.510 9.445813
53.515 9.480832
53.520 9.48175
53.525 9.551816
53.530 9.287271
53.535 9.372993
53.540 9.559312
53.545 9.868648
53.550 10.154142
53.555 10.068885
53.560 10.077087
53.565 10.340416
53.570 10.645556
53.575 10.461379
53.580 10.273174
53.585 10.549292
53.590 10.592404
53.595 10.467821
53.600 10.423513
53.605 10.585532
53.610 10.924771
53.615 10.692154
53.620 10.33246
53.625 10.024801
53.630 10.11756
53.635 10.207677
53.640 10.233014
53.645 10.211176
53.650 10.234291
53.655 10.356821
53.660 10.803852
53.665 10.936655
53.670 10.665933
53.675 10.653994
53.680 10.555984
53.685 10.584499
53.690 10.434468
53.695 9.995915
53.700 9.644262
53.705 9.521799
53.710 9.35584
53.715 9.086466
53.720 9.271415
53.725 9.550928
53.730 9.983705
53.735 10.547861
53.740 10.120845
53.745 10.242108
53.750 10.45472
53.755 10.309402
53.760 10.165431
53.765 9.961172
53.770 9.556744
53.775 9.85224
53.780 9.753602
53.785 9.719421
53.790 9.675249
53.795 9.55264
53.800 9.81168
53.805 10.284511
53.810 10.403146
53.815 10.508628
53.820 10.66406
53.825 11.177138
53.830 11.295938
53.835 11.005336
53.840 10.48149
53.845 10.427981
53.850 10.652678
53.855 10.629817
53.860 10.546185
53.865 10.107853
53.870 9.783896
53.875 10.061859
53.880 10.189069
53.885 9.96917
53.890 10.31264
53.895 10.54968
53.900 10.622002
53.905 11.126778
53.910 11.054009
53.915 10.848118
53.920 10.364346
53.925 10.197086
53.930 10.026056
53.935 9.988007
53.940 9.633206
53.945 9.844143
53.950 10.104414
53.955 10.487819
53.960 9.847908
53.965 10.155696
53.970 10.63313
53.975 10.93583
53.980 10.7623
53.985 10.991144
53.990 11.086076
53.995 11.215015
54.000 11.335434
54.005 11.607683
54.010 11.800308
54.015 11.641839
54.020 11.631445
54.025 11.403274
54.030 11.022291
54.035 11.133962
54.040 10.290818
54.045 10.14632
54.050 9.934601
54.055 9.996801
54.060 10.020277
54.065 9.597898
54.070 9.618558
54.075 9.318472
54.080 9.317636
54.085 8.792809
54.090 8.333673
54.095 8.658621
54.100 8.722604
54.105 8.464498
54.110 8.918453
54.115 9.142884
54.120 9.720183
54.125 9.894576
54.130 9.987124
54.135 10.462622
54.140 11.086207
54.145 11.246911
54.150 11.214828
54.155 11.086751
54.160 10.878948
54.165 10.185556
54.170 9.759099
54.175 9.589803
54.180 9.764915
54.185 10.065453
54.190 10.007128
54.195 10.460321
54.200 11.495257
54.205 11.640487
54.210 11.441188
54.215 11.169711
54.220 11.19351
54.225 11.993971
54.230 12.22319
54.235 11.745823
54.240 11.607258
54.245 11.741475
54.250 11.949786
54.255 12.034082
54.260 11.807348
54.265 12.008616
54.270 12.328554
54.275 12.529296
54.280 12.321048
54.285 12.051439
54.290 11.544391
54.295 11.137245
54.300 10.589409
54.305 10.122188
54.310 9.821035
54.315 9.769444
54.320 10.110503
54.325 10.363225
54.330 10.45252
54.335 10.227845
54.340 9.986182
54.345 9.834259
54.350 9.980658
54.355 9.477407
54.360 9.114179
54.365 9.306243
54.370 9.686364
54.375 10.468904
54.380 10.405289
54.385 10.079509
54.390 10.613624
54.395 10.929121
54.400 10.768328
54.405 10.512899
54.410 10.101293
54.415 10.52528
54.420 10.79059
54.425 10.569447
54.430 10.335105
54.435 10.02367
54.440 10.405584
54.445 10.23973
54.450 9.743138
54.455 9.581936
54.460 10.001945
54.465 10.438807
54.470 11.064509
54.475 11.046514
54.480 11.401977
54.485 12.075411
54.490 12.665319
54.495 12.194306
54.500 12.310494
54.505 12.305494
54.510 12.535301
54.515 12.453454
54.520 11.910519
54.525 11.765241
54.530 11.709349
54.535 11.574301
54.540 11.392884
54.545 11.222812
54.550 11.267949
54.555 11.007896
54.560 10.689601
54.565 10.438392
54.570 10.476645
54.575 10.681115
54.580 10.943328
54.585 10.949898
54.590 10.899724
54.595 10.926181
54.600 11.003287
54.605 10.755301
54.610 9.923469
54.615 9.794772
54.620 9.7954
54.625 9.813723
54.630 9.872022
54.635 10.037653
54.640 10.383456
54.645 10.359946
54.650 10.151229
54.655 10.600168
54.660 10.855034
54.665 10.922073
54.670 10.4964
54.675 10.597065
54.680 11.315784
54.685 11.501688
54.690 11.35588
54.695 10.780081
54.700 10.381855
54.705 10.481846
54.710 10.623857
54.715 10.227057
54.720 9.702373
54.725 9.813657
54.730 10.138801
54.735 10.791577
54.740 11.212906
54.745 11.543769
54.750 12.00605
54.755 12.228526
54.760 12.125025
54.765 12.367805
54.770 11.915966
54.775 11.208253
54.780 10.691635
54.785 10.751039
54.790 11.001036
54.795 11.327801
54.800 11.248181
54.805 11.214058
54.810 11.404889
54.815 11.305385
54.820 11.50894
54.825 11.510334
54.830 11.635157
54.835 12.092212
54.840 12.157976
54.845 11.764679
54.850 11.484689
54.855 11.227761
54.860 10.323306
54.865 9.840734
54.870 9.804564
54.875 10.058153
54.880 10.718962
54.885 11.132372
54.890 11.039294
54.895 11.417875
54.900 11.771906
54.905 11.923575
54.910 11.982758
54.915 12.15109
54.920 12.139777
54.925 12.451546
54.930 12.593192
54.935 12.54364
54.940 12.479887
54.945 12.700867
54.950 12.957744
54.955 13.092048
54.960 13.638134
54.965 14.004725
54.970 13.525566
54.975 13.371566
54.980 13.234263
54.985 12.807482
54.990 12.178119
54.995 11.729068
55.000 11.415583
55.005 11.817869
55.010 11.341171
55.015 10.482127
55.020 10.08464
55.025 10.068794
55.030 10.16291
55.035 9.834365
55.040 10.00522
55.045 10.682969
55.050 10.78937
55.055 11.860379
55.060 12.181459
55.065 12.441515
55.070 12.491508
55.075 12.050623
55.080 11.791221
55.085 12.28955
55.090 11.681775
55.095 11.246614
55.100 10.911551
55.105 10.970266
55.110 10.983015
55.115 10.891037
55.120 10.934005
55.125 10.566003
55.130 10.483954
55.135 10.615777
55.140 10.512422
55.145 10.822932
55.150 11.145354
55.155 10.890742
55.160 11.390421
55.165 11.728559
55.170 11.948953
55.175 12.244349
55.180 12.532266
55.185 12.61822
55.190 12.588725
55.195 12.681072
55.200 12.334594
55.205 12.031606
55.210 11.831335
55.215 11.388887
55.220 10.909701
55.225 10.395744
55.230 9.983916
55.235 10.159219
55.240 10.964742
55.245 11.078302
55.250 11.210577
55.255 11.105827
55.260 11.160649
55.265 11.632159
55.270 11.539664
55.275 10.926832
55.280 11.196102
55.285 11.277217
55.290 11.692937
55.295 11.856255
55.300 11.79366
55.305 11.763124
55.310 11.853791
55.315 11.451211
55.320 11.547906
55.325 12.451059
55.330 12.514268
55.335 11.932405
55.340 11.57041
55.345 11.220337
55.350 11.295445
55.355 10.895242
55.360 10.633413
55.365 10.844909
55.370 11.298388
55.375 11.774044
55.380 11.593592
55.385 11.680929
55.390 11.724931
55.395 11.570236
55.400 11.362554
55.405 11.373122
55.410 11.724436
55.415 11.886345
55.420 11.635161
55.425 11.569397
55.430 11.396164
55.435 11.394707
55.440 11.225979
55.445 10.917396
55.450 11.072651
55.455 11.268478
55.460 11.15054
55.465 11.261681
55.470 11.897727
55.475 12.116104
55.480 12.226496
55.485 12.18831
55.490 11.953104
55.495 12.566706
55.500 12.567504
55.505 12.710876
55.510 12.6685
55.515 12.693228
55.520 12.652719
55.525 12.48947
55.530 12.003056
55.535 11.857416
55.540 11.275424
55.545 10.79967
55.550 10.673187
55.555 10.546762
55.560 10.613059
55.565 10.717924
55.570 10.92127
55.575 11.451118
55.580 11.901874
55.585 12.381831
55.590 12.813571
55.595 12.698782
55.600 11.807956
55.605 11.555571
55.610 11.491097
55.615 11.140463
55.620 10.605679
55.625 10.380219
55.630 10.701933
55.635 11.196756
55.640 11.192632
55.645 11.645436
55.650 12.102027
55.655 12.34772
55.660 12.869158
55.665 13.262034
55.670 13.11415
55.675 13.068531
55.680 12.510642
55.685 12.427634
55.690 12.812106
55.695 12.445951
55.700 12.556859
55.705 12.767566
55.710 12.575198
55.715 12.5337
55.720 12.622262
55.725 12.238559
55.730 12.741321
55.735 12.25417
55.740 12.265464
55.745 12.276433
55.750 12.333795
55.755 12.264545
55.760 12.535913
55.765 12.413786
55.770 12.398953
55.775 12.128093
55.780 12.228018
55.785 12.476008
55.790 12.423551
55.795 12.102077
55.800 12.005462
55.805 12.655957
55.810 12.932736
55.815 12.876116
55.820 12.342062
55.825 12.282903
55.830 11.914954
55.835 11.875468
55.840 11.699801
55.845 11.750839
55.850 11.97222
55.855 12.206933
55.860 12.490033
55.865 12.562639
55.870 12.28585
55.875 12.263783
55.880 12.253193
55.885 11.871636
55.890 11.869752
55.895 12.088943
55.900 12.454928
55.905 12.553327
55.910 12.720942
55.915 12.591638
55.920 12.866011
55.925 12.571771
55.930 12.105238
55.935 12.25287
55.940 12.016945
55.945 12.149467
55.950 12.357869
55.955 12.295963
55.960 12.814533
55.965 12.890626
55.970 13.110337
55.975 13.42524
55.980 13.147532
55.985 12.648654
55.990 12.778892
55.995 12.694608
56.000 12.714641
56.005 12.618093
56.010 12.525174
56.015 12.737581
56.020 13.098924
56.025 13.012465
56.030 12.637097
56.035 12.56336
56.040 12.277521
56.045 11.847205
56.050 11.744362
56.055 12.059307
56.060 11.871656
56.065 11.806509
56.070 12.003614
56.075 12.047735
56.080 12.538758
56.085 11.988954
56.090 11.564926
56.095 11.69943
56.100 11.57391
56.105 11.46567
56.110 11.272334
56.115 11.077588
56.120 11.659564
56.125 11.586456
56.130 11.721106
56.135 11.904559
56.140 12.48884
56.145 13.268936
56.150 13.628237
56.155 13.561684
56.160 13.478407
56.165 13.653847
56.170 13.54551
56.175 12.95604
56.180 12.49437
56.185 12.941423
56.190 13.61834
56.195 13.982943
56.200 13.651554
56.205 13.369608
56.210 13.1411
56.215 11.950653
56.220 10.904202
56.225 10.635501
56.230 10.646206
56.235 10.952168
56.240 11.576207
56.245 12.644187
56.250 13.910798
56.255 13.650061
56.260 13.718895
56.265 13.904799
56.270 13.695116
56.275 13.574935
56.280 13.057693
56.285 13.064374
56.290 13.20393
56.295 13.648726
56.300 13.990666
56.305 14.080707
56.310 13.606478
56.315 13.506791
56.320 14.214041
56.325 14.58256
56.330 14.212917
56.335 14.116649
56.340 14.367581
56.345 14.78291
56.350 13.885089
56.355 13.060308
56.360 12.867964
56.365 12.488704
56.370 12.238925
56.375 12.0166
56.380 11.783076
56.385 12.226018
56.390 12.209239
56.395 12.004454
56.400 11.995764
56.405 12.006147
56.410 12.145411
56.415 12.06579
56.420 12.042809
56.425 12.195092
56.430 12.335215
56.435 12.471582
56.440 12.230997
56.445 12.163188
56.450 12.474895
56.455 11.933624
56.460 11.405698
56.465 10.978849
56.470 11.096148
56.475 11.482683
56.480 11.431814
56.485 11.690516
56.490 12.479706
56.495 12.641899
56.500 12.550804
56.505 12.421651
56.510 12.165041
56.515 12.186094
56.520 12.284531
56.525 12.646977
56.530 12.854287
56.535 12.893245
56.540 12.934364
56.545 13.272405
56.550 13.309565
56.555 13.610497
56.560 13.378059
56.565 13.65846
56.570 13.346501
56.575 12.487745
56.580 12.249304
56.585 12.098299
56.590 11.712616
56.595 11.712203
56.600 12.02564
56.605 12.665998
56.610 13.333086
56.615 13.990436
56.620 14.097157
56.625 14.236723
56.630 14.090749
56.635 13.394788
56.640 13.42144
56.645 13.558433
56.650 13.288777
56.655 13.081319
56.660 13.22678
56.665 13.504394
56.670 13.655622
56.675 13.41955
56.680 13.205047
56.685 12.942184
56.690 12.931208
56.695 13.133703
56.700 13.112939
56.705 13.774468
56.710 14.207395
56.715 14.00707
56.720 13.997084
56.725 14.43438
56.730 14.144672
56.735 14.571071
56.740 14.63521
56.745 14.172811
56.750 14.528799
56.755 14.725437
56.760 14.672215
56.765 14.790567
56.770 13.975972
56.775 13.792039
56.780 14.029262
56.785 13.708455
56.790 13.190519
56.795 13.143163
56.800 13.124176
56.805 13.493652
56.810 13.668136
56.815 13.578479
56.820 13.672944
56.825 14.15864
56.830 14.128901
56.835 13.989006
56.840 13.883373
56.845 13.583947
56.850 13.515903
56.855 13.495694
56.860 13.51356
56.865 13.968903
56.870 14.236306
56.875 13.521839
56.880 13.607566
56.885 14.111039
56.890 13.96668
56.895 13.341847
56.900 12.79458
56.905 12.52458
56.910 12.20074
56.915 12.029599
56.920 11.994819
56.925 11.843932
56.930 11.958586
56.935 12.920343
56.940 13.064648
56.945 14.00162
56.950 14.326652
56.955 14.657842
56.960 14.782377
56.965 14.555242
56.970 13.773883
56.975 14.246354
56.980 13.917231
56.985 13.655207
56.990 13.018101
56.995 13.309461
57.000 13.492187
57.005 12.966051
57.010 13.085591
57.015 13.248214
57.020 13.347997
57.025 13.613148
57.030 13.245421
57.035 13.229464
57.040 13.266475
57.045 12.915952
57.050 12.51297
57.055 12.273612
57.060 12.260491
57.065 12.283954
57.070 12.551783
57.075 13.218514
57.080 13.559271
57.085 13.827461
57.090 14.305838
57.095 14.43871
57.100 14.476567
57.105 14.085287
57.110 14.105358
57.115 13.829295
57.120 14.075686
57.125 13.754672
57.130 13.964153
57.135 13.975224
57.140 14.123357
57.145 14.208642
57.150 13.741166
57.155 13.664984
57.160 13.883588
57.165 14.26687
57.170 14.966895
57.175 14.533902
57.180 14.245319
57.185 14.761346
57.190 14.561541
57.195 14.166078
57.200 13.924642
57.205 13.954797
57.210 14.231318
57.215 14.066359
57.220 14.357112
57.225 14.467417
57.230 14.545936
57.235 14.278428
57.240 13.760167
57.245 13.762067
57.250 14.075864
57.255 13.826521
57.260 13.645642
57.265 13.264888
57.270 13.145343
57.275 13.136187
57.280 13.044539
57.285 13.068092
57.290 13.476171
57.295 13.619584
57.300 14.175797
57.305 13.779683
57.310 13.524484
57.315 13.256727
57.320 13.131192
57.325 12.838952
57.330 13.143457
57.335 13.474491
57.340 13.888821
57.345 14.178043
57.350 14.868145
57.355 15.348015
57.360 15.269525
57.365 14.765875
57.370 14.565498
57.375 14.960807
57.380 15.438185
57.385 15.377436
57.390 15.214591
57.395 15.864207
57.400 16.419235
57.405 16.028915
57.410 15.613597
57.415 15.394978
57.420 15.339146
57.425 14.793691
57.430 13.956527
57.435 13.330966
57.440 13.706153
57.445 14.347816
57.450 14.252164
57.455 14.170725
57.460 14.490159
57.465 14.720213
57.470 14.956709
57.475 14.589173
57.480 14.036507
57.485 14.078563
57.490 14.487404
57.495 14.800398
57.500 15.501226
57.505 16.105625
57.510 16.140253
57.515 16.492344
57.520 16.176779
57.525 15.057
57.530 14.272105
57.535 13.796571
57.540 13.583664
57.545 13.880625
57.550 13.141615
57.555 13.232987
57.560 14.212744
57.565 14.941851
57.570 15.02439
57.575 15.273677
57.580 15.529799
57.585 15.648787
57.590 16.348238
57.595 16.940208
57.600 17.462711
57.605 16.940874
57.610 16.123213
57.615 16.04237
57.620 16.236074
57.625 15.8547
57.630 15.158265
57.635 14.16482
57.640 14.342193
57.645 14.628352
57.650 15.107385
57.655 15.199786
57.660 15.087892
57.665 15.519688
57.670 16.641081
57.675 16.8885
57.680 16.562029
57.685 16.078932
57.690 15.740985
57.695 15.610973
57.700 15.118683
57.705 14.716829
57.710 14.77578
57.715 14.982987
57.720 15.158375
57.725 15.981888
57.730 16.514418
57.735 16.279352
57.740 15.536659
57.745 15.089687
57.750 14.939033
57.755 14.6569
57.760 14.061098
57.765 13.2837
57.770 12.956929
57.775 13.418466
57.780 13.710691
57.785 14.351125
57.790 14.490399
57.795 14.377654
57.800 14.778385
57.805 15.024957
57.810 15.420869
57.815 15.841103
57.820 15.686506
57.825 15.455352
57.830 15.175574
57.835 15.458933
57.840 15.730601
57.845 15.409726
57.850 15.041791
57.855 14.804618
57.860 15.372207
57.865 15.854703
57.870 15.879257
57.875 15.876055
57.880 16.788544
57.885 16.950203
57.890 17.360214
57.895 17.419825
57.900 17.112362
57.905 16.968941
57.910 16.704014
57.915 15.955621
57.920 15.886853
57.925 15.0719
57.930 14.819029
57.935 15.009973
57.940 14.992375
57.945 15.137589
57.950 15.079866
57.955 15.11381
57.960 15.812813
57.965 16.174994
57.970 16.603889
57.975 17.259996
57.980 17.787117
57.985 18.251175
57.990 18.619455
57.995 18.141384
58.000 17.86433
58.005 17.365942
58.010 17.214094
58.015 16.628553
58.020 16.674294
58.025 16.534025
58.030 16.651985
58.035 16.834265
58.040 17.462179
58.045 17.399237
58.050 17.615839
58.055 17.545401
58.060 17.685904
58.065 18.038752
58.070 17.7493
58.075 17.436604
58.080 17.172621
58.085 17.496634
58.090 17.367723
58.095 16.964216
58.100 16.916494
58.105 17.107586
58.110 17.004654
58.115 17.116245
58.120 16.866055
58.125 17.211855
58.130 17.288828
58.135 17.209845
58.140 17.634539
58.145 18.289663
58.150 18.092506
58.155 18.372252
58.160 18.271767
58.165 18.770641
58.170 18.799667
58.175 18.353085
58.180 19.024937
58.185 19.786669
58.190 20.150171
58.195 20.618389
58.200 21.01318
58.205 21.075014
58.210 20.478352
58.215 19.158871
58.220 18.264458
58.225 18.235102
58.230 18.128597
58.235 18.238043
58.240 18.655514
58.245 19.386686
58.250 19.409899
58.255 19.129478
58.260 18.914827
58.265 18.788351
58.270 18.679024
58.275 18.581099
58.280 18.595739
58.285 18.838734
58.290 19.140335
58.295 19.064199
58.300 19.096731
58.305 19.510202
58.310 19.521801
58.315 19.648632
58.320 20.285141
58.325 20.3916
58.330 20.577597
58.335 20.336433
58.340 19.889257
58.345 19.837738
58.350 19.653786
58.355 19.770723
58.360 20.210283
58.365 20.165512
58.370 20.747385
58.375 20.595812
58.380 21.103647
58.385 21.645046
58.390 21.411448
58.395 21.088882
58.400 20.802616
58.405 20.662464
58.410 20.775991
58.415 20.401562
58.420 20.051344
58.425 20.681547
58.430 21.147593
58.435 21.207136
58.440 21.72764
58.445 21.895121
58.450 22.688728
58.455 23.093554
58.460 22.961218
58.465 23.788006
58.470 24.535181
58.475 24.446138
58.480 24.576931
