!@!!GADDS PLOTSO FILE: Chi integration type
!@!!Title/SampleName: map-102
!@!!Comment: ?
!@!!User: Bruker Instrument Administrator
!@!!Site: University of Illinois Chicago
!@!!Frame: map-102_01_000.gfrm
!@!!Wavelengths    1.54184   1.54056   1.54439
!@!!Frame angles: 2Theta: 63.000 Omega: 50.000 Phi: 0.000 Chi: 90.000
!@!!Integration range: 2Theta: 53.000 to 73.000  Gamma: -105.000 to -75.000
!@!!Integration method: bin normalized
!@!N
!@!SS
!@!M
!@!L 0.0 0.0 0.0 0.0
!@!XDegrees
!@!YCounts
53.000 9.509629
53.005 10.015754
53.010 10.095419
53.015 9.660522
53.020 9.344361
53.025 9.465487
53.030 9.491864
53.035 9.605462
53.040 9.547851
53.045 9.395218
53.050 9.554783
53.055 10.138479
53.060 10.566463
53.065 10.495197
53.070 10.228563
53.075 9.801687
53.080 9.804628
53.085 9.758356
53.090 9.597583
53.095 9.380026
53.100 9.342096
53.105 9.558751
53.110 10.041578
53.115 10.466175
53.120 10.786139
53.125 10.664558
53.130 11.341268
53.135 11.911304
53.140 11.724425
53.145 11.757752
53.150 11.19981
53.155 11.047846
53.160 10.932758
53.165 10.337172
53.170 9.97814
53.175 10.212326
53.180 10.436403
53.185 10.661896
53.190 10.551201
53.195 10.620023
53.200 10.710281
53.205 10.866855
53.210 10.711206
53.215 10.35619
53.220 10.179533
53.225 10.009357
53.230 9.414555
53.235 9.089116
53.240 9.280804
53.245 8.693303
53.250 8.458534
53.255 8.329783
53.260 8.754951
53.265 9.373308
53.270 9.274779
53.275 8.879516
53.280 9.54864
53.285 9.812086
53.290 9.880809
53.295 10.385761
53.300 10.378201
53.305 10.637876
53.310 10.954861
53.315 11.07539
53.320 11.797314
53.325 11.54771
53.330 10.918973
53.335 11.194467
53.340 11.358871
53.345 11.511827
53.350 11.386004
53.355 11.38168
53.360 11.730542
53.365 11.6211
53.370 11.258216
53.375 10.758092
53.380 10.405418
53.385 10.234343
53.390 9.881054
53.395 9.522223
53.400 9.522824
53.405 9.582794
53.410 9.948603
53.415 9.90459
53.420 9.917182
53.425 10.030421
53.430 10.34744
53.435 10.33855
53.440 10.131687
53.445 10.03582
53.450 10.153627
53.455 9.841849
53.460 9.758327
53.465 10.020409
53.470 10.201577
53.475 10.354137
53.480 10.58826
53.485 10.716788
53.490 11.019324
53.495 10.95674
53.500 10.727149
53.505 10.863793
53.510 10.708356
53.515 10.382204
53.520 10.316449
53.525 10.63036
53.530 10.420015
53.535 10.465578
53.540 10.256606
53.545 9.927968
53.550 9.583916
53.555 9.003539
53.560 8.981772
53.565 9.314433
53.570 9.654229
53.575 10.023733
53.580 11.070795
53.585 11.313853
53.590 11.99143
53.595 12.17417
53.600 11.904606
53.605 11.548455
53.610 11.139857
53.615 10.492954
53.620 10.638021
53.625 10.10027
53.630 9.827687
53.635 9.524173
53.640 9.672603
53.645 10.011621
53.650 10.644353
53.655 10.705227
53.660 10.538699
53.665 10.778287
53.670 10.818762
53.675 10.657931
53.680 10.069049
53.685 9.755568
53.690 9.575806
53.695 9.910265
53.700 10.181859
53.705 10.296408
53.710 10.260848
53.715 10.57508
53.720 10.871305
53.725 10.896843
53.730 10.852081
53.735 11.31034
53.740 11.815107
53.745 12.141532
53.750 11.764804
53.755 11.891207
53.760 12.163714
53.765 11.842028
53.770 11.013144
53.775 10.414294
53.780 10.438823
53.785 10.468588
53.790 10.091914
53.795 10.409409
53.800 10.456712
53.805 11.034711
53.810 11.078633
53.815 10.950262
53.820 10.850996
53.825 10.791225
53.830 10.109706
53.835 9.929564
53.840 9.59678
53.845 9.411367
53.850 9.381501
53.855 9.136473
53.860 9.420427
53.865 10.320303
53.870 10.528296
53.875 10.924604
53.880 11.485673
53.885 12.087484
53.890 12.464764
53.895 12.146355
53.900 11.505022
53.905 11.495655
53.910 11.057333
53.915 10.927024
53.920 10.833728
53.925 10.99369
53.930 11.407497
53.935 11.26516
53.940 11.132513
53.945 11.327179
53.950 10.89364
53.955 10.630989
53.960 10.77321
53.965 10.681902
53.970 10.381251
53.975 10.301353
53.980 9.804837
53.985 9.540223
53.990 9.475514
53.995 9.249702
54.000 9.044895
54.005 9.700123
54.010 9.364166
54.015 9.346304
54.020 9.684589
54.025 9.93071
54.030 9.906783
54.035 9.814708
54.040 9.948184
54.045 10.522842
54.050 10.931008
54.055 11.000359
54.060 10.2925
54.065 10.407459
54.070 10.855853
54.075 11.123718
54.080 11.211253
54.085 11.204278
54.090 11.197549
54.095 11.355118
54.100 11.579774
54.105 11.17992
54.110 11.204982
54.115 11.218312
54.120 11.290646
54.125 11.259092
54.130 12.038968
54.135 11.662648
54.140 11.541679
54.145 11.351687
54.150 10.925999
54.155 11.012802
54.160 10.921899
54.165 10.693839
54.170 10.701804
54.175 10.545381
54.180 10.720359
54.185 10.938633
54.190 10.680414
54.195 10.148528
54.200 9.426586
54.205 9.77023
54.210 10.011382
54.215 10.415323
54.220 10.733643
54.225 10.884525
54.230 11.259944
54.235 11.692937
54.240 12.184755
54.245 12.286886
54.250 11.988183
54.255 12.000857
54.260 12.079524
54.265 12.156577
54.270 12.131945
54.275 11.700643
54.280 11.30245
54.285 11.256906
54.290 11.435288
54.295 11.690652
54.300 12.311749
54.305 12.510107
54.310 12.696493
54.315 12.449496
54.320 12.03775
54.325 12.241687
54.330 12.629447
54.335 12.406067
54.340 12.049455
54.345 11.905502
54.350 12.028769
54.355 12.073616
54.360 11.695709
54.365 11.019887
54.370 10.485639
54.375 10.392527
54.380 10.213126
54.385 10.16155
54.390 10.413977
54.395 10.7073
54.400 11.117589
54.405 11.587208
54.410 11.984693
54.415 12.274864
54.420 12.05502
54.425 11.769416
54.430 11.183164
54.435 11.31317
54.440 11.124978
54.445 11.205784
54.450 11.224319
54.455 11.319149
54.460 11.420918
54.465 11.478425
54.470 11.457395
54.475 11.112227
54.480 10.656533
54.485 11.10975
54.490 11.473092
54.495 11.4573
54.500 11.396611
54.505 11.459108
54.510 11.324389
54.515 11.126504
54.520 10.585582
54.525 10.488124
54.530 10.731435
54.535 10.831585
54.540 10.98299
54.545 11.933187
54.550 12.626068
54.555 12.848849
54.560 12.7456
54.565 12.49999
54.570 12.502229
54.575 12.453834
54.580 11.964323
54.585 11.527858
54.590 11.697144
54.595 12.036843
54.600 11.644481
54.605 11.344892
54.610 10.881104
54.615 10.976549
54.620 11.736675
54.625 11.381572
54.630 11.376481
54.635 11.840275
54.640 12.103251
54.645 12.312026
54.650 12.19849
54.655 12.098984
54.660 12.307775
54.665 12.445657
54.670 12.036927
54.675 11.983176
54.680 12.236946
54.685 12.061934
54.690 12.010719
54.695 11.460874
54.700 11.358435
54.705 11.605895
54.710 11.693838
54.715 11.557167
54.720 11.204601
54.725 11.40112
54.730 11.623836
54.735 11.654343
54.740 11.531158
54.745 11.322734
54.750 11.367807
54.755 11.556255
54.760 11.534295
54.765 11.524121
54.770 11.63848
54.775 11.136219
54.780 11.106015
54.785 10.35643
54.790 9.52767
54.795 9.575046
54.800 9.85246
54.805 10.315929
54.810 11.032048
54.815 11.317788
54.820 12.114258
54.825 12.503152
54.830 12.329953
54.835 11.97823
54.840 11.344947
54.845 11.271749
54.850 11.152107
54.855 11.154037
54.860 11.145249
54.865 11.06057
54.870 11.176533
54.875 11.023407
54.880 10.820398
54.885 11.22823
54.890 11.1254
54.895 11.613755
54.900 12.027117
54.905 12.065578
54.910 12.673447
54.915 13.337905
54.920 13.567887
54.925 13.426711
54.930 12.859805
54.935 12.811069
54.940 12.852618
54.945 12.325947
54.950 12.509852
54.955 12.220538
54.960 12.746183
54.965 12.975194
54.970 12.751813
54.975 13.042561
54.980 12.674168
54.985 12.374434
54.990 12.371257
54.995 11.734529
55.000 11.275831
55.005 11.043718
55.010 11.506613
55.015 11.611724
55.020 11.487547
55.025 11.430532
55.030 11.917038
55.035 12.232419
55.040 12.082537
55.045 11.582786
55.050 11.684817
55.055 11.934941
55.060 12.344165
55.065 12.623213
55.070 12.76273
55.075 13.070647
55.080 12.989792
55.085 12.78678
55.090 12.645182
55.095 12.000356
55.100 12.077065
55.105 12.022223
55.110 11.906858
55.115 11.986149
55.120 11.966193
55.125 12.091842
55.130 11.908132
55.135 12.46927
55.140 12.858222
55.145 13.005208
55.150 13.052005
55.155 12.944504
55.160 12.819612
55.165 13.081626
55.170 12.456555
55.175 11.91043
55.180 11.595426
55.185 11.861176
55.190 12.92485
55.195 13.176019
55.200 13.362967
55.205 13.414666
55.210 13.567135
55.215 13.826602
55.220 13.461086
55.225 13.181632
55.230 12.825785
55.235 12.305116
55.240 12.124975
55.245 11.831445
55.250 12.088257
55.255 11.786085
55.260 11.384924
55.265 11.58394
55.270 11.806194
55.275 11.861405
55.280 11.702268
55.285 11.406614
55.290 10.895036
55.295 10.670346
55.300 10.221909
55.305 9.953443
55.310 9.804727
55.315 9.876428
55.320 10.52864
55.325 11.362958
55.330 12.080932
55.335 12.939472
55.340 13.086364
55.345 13.405513
55.350 13.266439
55.355 12.612069
55.360 12.294588
55.365 11.835197
55.370 11.079972
55.375 11.554113
55.380 11.429656
55.385 11.665468
55.390 11.836166
55.395 11.921535
55.400 11.948292
55.405 12.422151
55.410 12.63276
55.415 12.66326
55.420 12.34998
55.425 11.861993
55.430 11.84582
55.435 12.096726
55.440 12.097755
55.445 12.100965
55.450 12.429498
55.455 12.876732
55.460 13.235268
55.465 12.830439
55.470 12.451213
55.475 11.89087
55.480 11.776109
55.485 11.412296
55.490 11.683652
55.495 12.216645
55.500 12.331741
55.505 12.837562
55.510 12.908052
55.515 12.7984
55.520 13.064179
55.525 12.419801
55.530 12.040936
55.535 12.069093
55.540 11.659969
55.545 11.647002
55.550 11.653419
55.555 11.704208
55.560 12.521641
55.565 12.888925
55.570 12.306182
55.575 12.365461
55.580 12.588844
55.585 12.661656
55.590 12.211888
55.595 12.072805
55.600 11.993244
55.605 12.01167
55.610 11.726334
55.615 11.786162
55.620 12.002018
55.625 11.86982
55.630 11.261766
55.635 11.246572
55.640 11.859479
55.645 12.498689
55.650 12.564176
55.655 12.818651
55.660 12.741313
55.665 12.742634
55.670 12.53043
55.675 11.88751
55.680 11.744807
55.685 11.815604
55.690 11.589955
55.695 11.682326
55.700 11.851261
55.705 12.125281
55.710 12.372852
55.715 12.386014
55.720 12.454941
55.725 12.646081
55.730 13.130425
55.735 13.473672
55.740 13.824129
55.745 13.924773
55.750 13.624836
55.755 13.430332
55.760 12.989662
55.765 12.224438
55.770 11.841635
55.775 11.678294
55.780 11.600286
55.785 11.071092
55.790 10.929088
55.795 10.924739
55.800 11.32597
55.805 11.403239
55.810 11.433331
55.815 11.969561
55.820 12.301219
55.825 12.900911
55.830 13.253801
55.835 13.364321
55.840 13.259812
55.845 12.909829
55.850 12.568657
55.855 12.504241
55.860 12.319344
55.865 12.724175
55.870 12.822878
55.875 12.784787
55.880 13.09373
55.885 13.110418
55.890 13.030466
55.895 12.747718
55.900 12.389845
55.905 12.229425
55.910 12.650481
55.915 12.302152
55.920 13.024393
55.925 13.539922
55.930 13.36549
55.935 13.266607
55.940 13.535099
55.945 13.938801
55.950 14.232035
55.955 13.827581
55.960 13.818005
55.965 13.916036
55.970 14.032613
55.975 14.183423
55.980 13.541981
55.985 13.414451
55.990 13.47503
55.995 13.242842
56.000 13.457886
56.005 13.257771
56.010 12.893698
56.015 13.323194
56.020 13.032263
56.025 12.887673
56.030 13.251297
56.035 13.444692
56.040 13.333163
56.045 13.202953
56.050 12.493815
56.055 12.361178
56.060 12.606796
56.065 12.183233
56.070 11.785951
56.075 12.202229
56.080 12.40807
56.085 12.602365
56.090 12.844383
56.095 12.547585
56.100 12.349861
56.105 12.253409
56.110 11.869059
56.115 12.23309
56.120 12.449223
56.125 12.414167
56.130 12.357598
56.135 12.427737
56.140 12.618237
56.145 12.466516
56.150 12.797327
56.155 13.277368
56.160 13.33754
56.165 13.670525
56.170 13.993784
56.175 13.918941
56.180 14.163132
56.185 14.146788
56.190 13.839617
56.195 13.378517
56.200 13.106292
56.205 12.871172
56.210 12.852645
56.215 13.169252
56.220 13.260132
56.225 13.421447
56.230 14.191699
56.235 14.094377
56.240 14.022857
56.245 13.93735
56.250 13.22782
56.255 12.738867
56.260 12.3995
56.265 12.493397
56.270 12.904199
56.275 13.392432
56.280 13.271336
56.285 13.687652
56.290 14.195381
56.295 14.10871
56.300 13.972153
56.305 14.054142
56.310 13.55717
56.315 13.66027
56.320 13.522079
56.325 13.416376
56.330 13.110683
56.335 13.30691
56.340 13.650718
56.345 14.166864
56.350 13.984344
56.355 13.756026
56.360 13.7311
56.365 14.08103
56.370 14.01337
56.375 13.415085
56.380 13.585204
56.385 14.204988
56.390 14.860069
56.395 15.065557
56.400 14.646117
56.405 14.965164
56.410 15.161467
56.415 15.19874
56.420 14.643132
56.425 14.757751
56.430 14.668406
56.435 14.607072
56.440 14.038655
56.445 14.235843
56.450 14.241802
56.455 14.121099
56.460 13.883245
56.465 13.935806
56.470 13.913095
56.475 14.3097
56.480 14.009198
56.485 13.857978
56.490 13.887803
56.495 13.623415
56.500 13.631781
56.505 13.399128
56.510 13.112748
56.515 12.827224
56.520 13.147577
56.525 13.308475
56.530 13.416402
56.535 13.201622
56.540 13.483435
56.545 13.284987
56.550 13.203241
56.555 13.061707
56.560 13.166558
56.565 13.159562
56.570 13.473082
56.575 13.223761
56.580 13.70537
56.585 13.917002
56.590 13.485874
56.595 13.344017
56.600 13.243727
56.605 13.196144
56.610 13.307326
56.615 12.98931
56.620 12.611568
56.625 12.848912
56.630 12.616958
56.635 12.674178
56.640 12.40033
56.645 12.599112
56.650 12.894742
56.655 13.108551
56.660 13.734711
56.665 14.351171
56.670 14.298835
56.675 14.488032
56.680 14.225977
56.685 14.471697
56.690 14.92725
56.695 14.281375
56.700 14.097757
56.705 14.270047
56.710 14.013649
56.715 14.436673
56.720 14.56264
56.725 14.517829
56.730 15.269288
56.735 15.851871
56.740 16.284817
56.745 16.511034
56.750 16.192329
56.755 15.506069
56.760 14.774379
56.765 13.972656
56.770 13.830085
56.775 14.187239
56.780 14.269735
56.785 14.170655
56.790 14.382192
56.795 14.188508
56.800 14.252461
56.805 14.339437
56.810 14.050135
56.815 13.792859
56.820 13.721609
56.825 14.190979
56.830 14.605872
56.835 14.368042
56.840 14.223985
56.845 14.272665
56.850 14.583363
56.855 14.299763
56.860 14.129682
56.865 14.687171
56.870 15.432989
56.875 15.143354
56.880 15.173572
56.885 15.485323
56.890 15.724043
56.895 15.402201
56.900 14.654195
56.905 14.279991
56.910 14.23257
56.915 13.987516
56.920 13.880206
56.925 14.18549
56.930 14.714435
56.935 15.0647
56.940 14.700252
56.945 14.376758
56.950 14.507559
56.955 14.566582
56.960 14.154524
56.965 13.892269
56.970 13.694328
56.975 14.199279
56.980 14.773759
56.985 15.190625
56.990 15.193324
56.995 15.470102
57.000 15.404571
57.005 15.125063
57.010 14.869699
57.015 14.784201
57.020 14.379151
57.025 14.502635
57.030 14.186883
57.035 14.324942
57.040 14.584051
57.045 14.421017
57.050 14.548583
57.055 14.699534
57.060 14.931729
57.065 14.958062
57.070 15.111147
57.075 15.298326
57.080 15.078974
57.085 14.342231
57.090 14.266234
57.095 14.236758
57.100 14.354117
57.105 14.205337
57.110 13.788963
57.115 14.011425
57.120 14.128559
57.125 13.678939
57.130 13.942954
57.135 13.822802
57.140 13.811041
57.145 14.568582
57.150 14.862205
57.155 15.115892
57.160 15.276803
57.165 15.195201
57.170 15.401384
57.175 15.744143
57.180 15.549474
57.185 15.338593
57.190 15.69741
57.195 15.148646
57.200 14.623198
57.205 14.285636
57.210 14.298276
57.215 14.916172
57.220 14.966096
57.225 14.786805
57.230 15.239029
57.235 15.623918
57.240 16.028002
57.245 15.261719
57.250 14.865968
57.255 14.894823
57.260 14.746271
57.265 14.421036
57.270 14.584527
57.275 14.367929
57.280 14.145168
57.285 13.421708
57.290 13.147242
57.295 13.303757
57.300 13.588519
57.305 13.587656
57.310 14.002543
57.315 14.902402
57.320 15.659012
57.325 16.060663
57.330 16.522751
57.335 16.786446
57.340 16.546677
57.345 15.895362
57.350 15.266021
57.355 14.722144
57.360 14.257826
57.365 14.283649
57.370 14.194054
57.375 14.319536
57.380 14.793741
57.385 15.127628
57.390 15.928823
57.395 15.934738
57.400 15.438113
57.405 15.41685
57.410 15.18534
57.415 14.847243
57.420 14.833937
57.425 14.41721
57.430 14.206786
57.435 13.983527
57.440 13.929428
57.445 13.99293
57.450 13.81101
57.455 13.618937
57.460 13.607984
57.465 14.008585
57.470 14.216325
57.475 14.05549
57.480 14.364939
57.485 14.809453
57.490 14.910911
57.495 14.307827
57.500 14.420994
57.505 14.794033
57.510 14.947269
57.515 15.084514
57.520 14.41533
57.525 14.100551
57.530 14.640349
57.535 14.722635
57.540 14.908388
57.545 14.77396
57.550 14.788929
57.555 15.580687
57.560 16.124121
57.565 16.191048
57.570 15.99407
57.575 15.252707
57.580 15.410338
57.585 15.28775
57.590 14.888028
57.595 14.580349
57.600 14.931763
57.605 14.982201
57.610 15.074831
57.615 15.182146
57.620 15.389486
57.625 15.583307
57.630 15.956664
57.635 15.235576
57.640 15.000227
57.645 15.478317
57.650 16.026855
57.655 16.138586
57.660 15.703381
57.665 14.858895
57.670 15.042088
57.675 14.578013
57.680 13.89165
57.685 13.325039
57.690 13.352742
57.695 13.837376
57.700 14.063893
57.705 13.618866
57.710 14.140285
57.715 14.367993
57.720 14.24955
57.725 14.331381
57.730 14.44728
57.735 15.097884
57.740 15.960162
57.745 16.075563
57.750 16.080688
57.755 16.306644
57.760 16.053629
57.765 15.887343
57.770 15.129377
57.775 14.96489
57.780 15.310379
57.785 15.143877
57.790 14.570447
57.795 14.376972
57.800 14.146437
57.805 14.379121
57.810 14.0815
57.815 13.605485
57.820 13.655082
57.825 14.533875
57.830 14.985345
57.835 15.163067
57.840 14.723141
57.845 14.555068
57.850 14.432844
57.855 14.273088
57.860 13.942036
57.865 14.242206
57.870 14.605587
57.875 15.027845
57.880 15.289026
57.885 15.577463
57.890 15.615529
57.895 15.50926
57.900 15.395913
57.905 15.451667
57.910 15.65773
57.915 15.662085
57.920 15.704459
57.925 15.684537
57.930 15.68938
57.935 15.476095
57.940 15.089068
57.945 14.572003
57.950 14.505013
57.955 14.626181
57.960 15.034712
57.965 15.066878
57.970 15.847494
57.975 16.280165
57.980 16.856642
57.985 16.960859
57.990 16.8785
57.995 16.424006
58.000 16.180502
58.005 15.680056
58.010 16.273533
58.015 16.358425
58.020 16.057779
58.025 15.828327
58.030 16.462133
58.035 16.278254
58.040 15.972281
58.045 15.440915
58.050 15.674918
58.055 15.697035
58.060 15.60903
58.065 15.31939
58.070 15.83135
58.075 15.657776
58.080 15.330636
58.085 15.26849
58.090 15.886276
58.095 16.426781
58.100 16.939287
58.105 17.412291
58.110 18.284698
58.115 18.786503
58.120 18.757757
58.125 17.982067
58.130 18.068228
58.135 17.446743
58.140 16.789431
58.145 16.089024
58.150 15.91543
58.155 16.356434
58.160 17.009075
58.165 16.695553
58.170 16.776676
58.175 16.567465
58.180 16.431522
58.185 16.922308
58.190 16.160744
58.195 16.208572
58.200 15.890644
58.205 16.213333
58.210 16.72706
58.215 16.975346
58.220 17.147856
58.225 17.546608
58.230 17.744471
58.235 18.27401
58.240 18.598688
58.245 19.223701
58.250 19.543501
58.255 19.634443
58.260 19.90756
58.265 19.718159
58.270 19.388845
58.275 19.371862
58.280 18.987289
58.285 18.841911
58.290 18.334272
58.295 18.088835
58.300 18.36492
58.305 18.515993
58.310 18.126143
58.315 18.2985
58.320 17.831665
58.325 17.766684
58.330 17.746794
58.335 17.990898
58.340 17.516577
58.345 17.162252
58.350 16.977266
58.355 17.0546
58.360 17.989399
58.365 18.434496
58.370 18.467396
58.375 18.901804
58.380 19.525053
58.385 19.992876
58.390 19.940508
58.395 19.45937
58.400 19.35647
58.405 19.683594
58.410 19.999708
58.415 19.6616
58.420 19.502079
58.425 19.952147
58.430 19.894949
58.435 19.653343
58.440 19.278065
58.445 19.034534
58.450 19.581861
58.455 19.581749
58.460 19.968491
58.465 20.533653
58.470 20.909468
