!@!!GADDS PLOTSO FILE: Chi integration type
!@!!Title/SampleName: map-d
!@!!Comment: ?
!@!!User: Bruker Instrument Administrator
!@!!Site: University of Illinois Chicago
!@!!Frame: map-d_01_000.gfrm
!@!!Wavelengths    1.54184   1.54056   1.54439
!@!!Frame angles: 2Theta: 63.000 Omega: 50.000 Phi: 0.000 Chi: 90.000
!@!!Integration range: 2Theta: 53.000 to 73.000  Gamma: -105.000 to -75.000
!@!!Integration method: bin normalized
!@!N
!@!SS
!@!M
!@!L 0.0 0.0 0.0 0.0
!@!XDegrees
!@!YCounts
53.000 7.286792
53.005 7.683763
53.010 7.368303
53.015 7.106352
53.020 7.348304
53.025 7.482013
53.030 7.510291
53.035 7.327476
53.040 7.209608
53.045 7.459284
53.050 7.491191
53.055 7.348638
53.060 6.975052
53.065 7.135964
53.070 7.512663
53.075 7.438096
53.080 7.352009
53.085 7.427503
53.090 7.57113
53.095 7.768362
53.100 7.482939
53.105 6.9814
53.110 6.981187
53.115 7.309233
53.120 7.497178
53.125 8.170483
53.130 8.496051
53.135 9.453092
53.140 10.065956
53.145 10.124111
53.150 9.934109
53.155 9.564979
53.160 9.296615
53.165 8.903883
53.170 7.946
53.175 7.561925
53.180 7.750439
53.185 7.91326
53.190 7.885225
53.195 7.660053
53.200 7.489467
53.205 7.601738
53.210 7.863544
53.215 7.790604
53.220 7.443645
53.225 7.560876
53.230 7.804635
53.235 7.908258
53.240 8.297794
53.245 8.27074
53.250 8.378358
53.255 8.704561
53.260 8.73832
53.265 8.766303
53.270 8.744356
53.275 8.672831
53.280 8.805782
53.285 8.778173
53.290 8.771804
53.295 8.703555
53.300 8.673743
53.305 8.644963
53.310 8.427964
53.315 8.05964
53.320 7.812305
53.325 7.514464
53.330 7.704427
53.335 7.710182
53.340 7.310635
53.345 7.285281
53.350 7.479439
53.355 7.518171
53.360 7.558511
53.365 7.617189
53.370 7.645681
53.375 7.951778
53.380 8.013523
53.385 7.950543
53.390 8.065298
53.395 8.103448
53.400 7.862401
53.405 8.054256
53.410 7.937979
53.415 8.027636
53.420 8.269586
53.425 7.823642
53.430 7.396382
53.435 7.353118
53.440 7.41912
53.445 7.395548
53.450 7.71687
53.455 8.015702
53.460 8.403192
53.465 8.730223
53.470 8.651829
53.475 8.490583
53.480 8.423891
53.485 7.930367
53.490 7.914954
53.495 7.85635
53.500 7.826912
53.505 8.362184
53.510 8.716116
53.515 8.993024
53.520 9.151835
53.525 9.261823
53.530 9.345478
53.535 8.897058
53.540 8.703594
53.545 8.552923
53.550 8.353672
53.555 8.106441
53.560 8.019818
53.565 8.197809
53.570 8.72172
53.575 8.703361
53.580 8.888658
53.585 8.946911
53.590 8.86126
53.595 8.601377
53.600 8.502435
53.605 8.600827
53.610 8.334312
53.615 8.246858
53.620 8.732648
53.625 9.308117
53.630 9.659964
53.635 9.503975
53.640 9.278513
53.645 9.363469
53.650 9.411684
53.655 8.674084
53.660 7.98516
53.665 8.182696
53.670 8.574698
53.675 8.614714
53.680 8.397165
53.685 8.569823
53.690 9.021268
53.695 9.136217
53.700 8.617654
53.705 8.198709
53.710 8.134553
53.715 8.012513
53.720 7.585505
53.725 7.742284
53.730 7.956409
53.735 8.101301
53.740 8.467251
53.745 8.511283
53.750 8.569247
53.755 8.497161
53.760 8.389288
53.765 8.762962
53.770 8.444316
53.775 8.044981
53.780 8.289258
53.785 8.29987
53.790 8.232112
53.795 8.107301
53.800 8.172538
53.805 8.549249
53.810 8.794195
53.815 8.806694
53.820 8.949873
53.825 9.227739
53.830 9.267747
53.835 9.338302
53.840 9.328417
53.845 9.227488
53.850 9.042122
53.855 9.061212
53.860 8.695258
53.865 8.208884
53.870 7.611455
53.875 7.602137
53.880 7.89277
53.885 8.074227
53.890 8.032475
53.895 8.586144
53.900 9.073394
53.905 9.904292
53.910 9.911226
53.915 9.877111
53.920 10.065042
53.925 10.10913
53.930 9.708351
53.935 9.269255
53.940 8.904155
53.945 8.671984
53.950 8.449606
53.955 8.456497
53.960 8.706265
53.965 9.618804
53.970 10.033401
53.975 10.497458
53.980 10.811096
53.985 10.581184
53.990 10.759641
53.995 9.810683
54.000 9.0308
54.005 8.644115
54.010 8.339679
54.015 8.349913
54.020 8.517314
54.025 8.236715
54.030 8.441385
54.035 8.657276
54.040 8.497118
54.045 8.324861
54.050 8.398646
54.055 8.624072
54.060 8.714467
54.065 8.529965
54.070 9.009828
54.075 9.165682
54.080 9.039178
54.085 8.910139
54.090 8.900064
54.095 9.407083
54.100 9.36059
54.105 8.938556
54.110 8.62431
54.115 8.679595
54.120 8.570988
54.125 8.544391
54.130 8.29194
54.135 8.567506
54.140 8.953748
54.145 9.160436
54.150 9.022736
54.155 8.71447
54.160 8.963799
54.165 9.228154
54.170 8.976954
54.175 8.831368
54.180 9.113331
54.185 9.509504
54.190 9.572357
54.195 9.746465
54.200 10.104734
54.205 10.136144
54.210 10.082077
54.215 9.710203
54.220 9.664325
54.225 10.035082
54.230 10.043801
54.235 10.334579
54.240 10.251582
54.245 10.854222
54.250 11.277812
54.255 11.249089
54.260 10.740332
54.265 10.092996
54.270 10.220453
54.275 10.495644
54.280 10.102479
54.285 10.243107
54.290 10.348688
54.295 10.584369
54.300 10.813591
54.305 10.830207
54.310 10.636603
54.315 10.69672
54.320 10.628144
54.325 10.670527
54.330 10.520029
54.335 10.183515
54.340 9.949144
54.345 10.011891
54.350 10.146416
54.355 10.259648
54.360 10.826153
54.365 10.864021
54.370 10.805945
54.375 10.63246
54.380 10.376559
54.385 10.162212
54.390 10.082954
54.395 9.525998
54.400 9.208278
54.405 9.016578
54.410 8.829681
54.415 8.940011
54.420 8.459
54.425 8.183249
54.430 8.431974
54.435 8.832767
54.440 8.914222
54.445 9.006526
54.450 9.157776
54.455 9.169097
54.460 9.104549
54.465 9.044587
54.470 9.121348
54.475 9.280629
54.480 9.181442
54.485 9.035961
54.490 9.301733
54.495 9.12958
54.500 9.075104
54.505 9.288568
54.510 9.270612
54.515 9.675436
54.520 10.095362
54.525 9.976501
54.530 9.913068
54.535 9.887286
54.540 9.612764
54.545 9.502695
54.550 9.420547
54.555 9.272437
54.560 9.747191
54.565 10.1017
54.570 10.030126
54.575 10.09299
54.580 9.926915
54.585 10.244649
54.590 10.016075
54.595 9.907023
54.600 10.056759
54.605 9.815926
54.610 9.764383
54.615 9.277472
54.620 9.018132
54.625 8.849787
54.630 8.581758
54.635 8.413139
54.640 9.026002
54.645 9.472359
54.650 9.890076
54.655 10.122544
54.660 10.361801
54.665 10.380395
54.670 10.284144
54.675 10.079078
54.680 9.923445
54.685 9.764874
54.690 9.522464
54.695 9.278502
54.700 9.224476
54.705 9.147154
54.710 8.805394
54.715 9.313382
54.720 9.529331
54.725 10.00786
54.730 9.857335
54.735 9.955529
54.740 10.182776
54.745 10.486774
54.750 9.932597
54.755 9.786688
54.760 9.416658
54.765 9.781059
54.770 9.647215
54.775 9.701328
54.780 9.797002
54.785 10.052522
54.790 10.591332
54.795 10.613632
54.800 10.640895
54.805 10.829576
54.810 10.67165
54.815 10.661821
54.820 10.588371
54.825 10.237327
54.830 10.368708
54.835 10.407319
54.840 10.429732
54.845 10.576969
54.850 11.223993
54.855 11.092537
54.860 10.879277
54.865 10.655762
54.870 10.48784
54.875 10.491186
54.880 10.598775
54.885 9.80688
54.890 9.510802
54.895 9.971736
54.900 10.281212
54.905 10.014297
54.910 9.539486
54.915 9.341472
54.920 9.526
54.925 9.885938
54.930 9.958556
54.935 9.967778
54.940 10.154426
54.945 10.453572
54.950 10.758444
54.955 10.873713
54.960 10.331779
54.965 10.124738
54.970 10.154067
54.975 10.177953
54.980 9.794226
54.985 9.019082
54.990 8.961993
54.995 9.130941
55.000 8.978059
55.005 8.983037
55.010 9.511901
55.015 9.88911
55.020 10.749475
55.025 11.318239
55.030 11.673967
55.035 11.681855
55.040 11.333725
55.045 10.924414
55.050 10.869534
55.055 10.037997
55.060 9.417981
55.065 9.524249
55.070 10.156761
55.075 10.509272
55.080 10.40175
55.085 10.64745
55.090 10.37099
55.095 10.777972
55.100 10.074684
55.105 9.694828
55.110 9.825431
55.115 10.025359
55.120 9.958888
55.125 10.375982
55.130 10.709674
55.135 11.161679
55.140 11.310497
55.145 11.285426
55.150 11.40455
55.155 11.645135
55.160 11.517323
55.165 11.037629
55.170 10.863539
55.175 11.181652
55.180 11.141226
55.185 11.176289
55.190 11.225124
55.195 11.285697
55.200 11.486886
55.205 11.486431
55.210 11.079093
55.215 11.076138
55.220 11.124109
55.225 10.957489
55.230 11.112163
55.235 10.76458
55.240 10.415064
55.245 10.45226
55.250 10.354554
55.255 10.088938
55.260 10.302555
55.265 10.487917
55.270 11.213852
55.275 11.729939
55.280 11.934705
55.285 11.491277
55.290 11.629216
55.295 11.869965
55.300 11.423486
55.305 11.317413
55.310 11.149708
55.315 11.527882
55.320 12.114449
55.325 11.992465
55.330 11.527444
55.335 11.895935
55.340 11.666185
55.345 11.320759
55.350 11.193525
55.355 11.185618
55.360 10.772174
55.365 10.443955
55.370 9.98248
55.375 9.952065
55.380 10.133831
55.385 9.694904
55.390 9.656401
55.395 9.691115
55.400 10.04155
55.405 10.569288
55.410 10.831482
55.415 10.86433
55.420 10.867319
55.425 11.206851
55.430 11.482433
55.435 11.258635
55.440 11.007292
55.445 11.063577
55.450 11.618407
55.455 11.865154
55.460 12.041478
55.465 12.113085
55.470 12.443019
55.475 12.981823
55.480 12.53096
55.485 12.153946
55.490 11.703856
55.495 11.715572
55.500 11.826538
55.505 11.473295
55.510 11.154413
55.515 11.379285
55.520 11.117197
55.525 11.34083
55.530 10.773667
55.535 10.628177
55.540 10.536347
55.545 10.48177
55.550 10.659189
55.555 10.59509
55.560 10.613701
55.565 11.067734
55.570 10.841607
55.575 11.330958
55.580 11.506326
55.585 11.867001
55.590 12.120026
55.595 11.698155
55.600 11.651764
55.605 11.698585
55.610 11.546009
55.615 10.84332
55.620 10.189528
55.625 10.001759
55.630 10.305616
55.635 10.372945
55.640 10.35519
55.645 10.292898
55.650 10.721563
55.655 10.749036
55.660 10.899391
55.665 10.380432
55.670 10.083018
55.675 10.215615
55.680 10.155976
55.685 10.227562
55.690 10.424417
55.695 10.667541
55.700 11.156671
55.705 11.528219
55.710 11.554609
55.715 11.331242
55.720 11.452515
55.725 11.43548
55.730 11.373124
55.735 11.28091
55.740 11.201426
55.745 11.060122
55.750 11.379506
55.755 10.993259
55.760 10.86027
55.765 10.849469
55.770 10.919617
55.775 10.788803
55.780 10.878902
55.785 10.870328
55.790 11.396441
55.795 11.65414
55.800 11.413255
55.805 11.542107
55.810 11.596337
55.815 11.74368
55.820 11.601993
55.825 11.358339
55.830 11.352048
55.835 12.074388
55.840 12.11983
55.845 12.330374
55.850 12.423823
55.855 12.377339
55.860 12.285857
55.865 12.169719
55.870 12.105416
55.875 12.153815
55.880 11.471517
55.885 11.102327
55.890 11.129989
55.895 11.023033
55.900 10.814857
55.905 10.193807
55.910 10.533371
55.915 10.856661
55.920 11.267566
55.925 11.089586
55.930 11.154388
55.935 11.304667
55.940 11.949193
55.945 11.967339
55.950 12.312722
55.955 12.13111
55.960 11.984202
55.965 11.924445
55.970 11.55253
55.975 11.180734
55.980 10.632697
55.985 10.425328
55.990 10.336161
55.995 10.60497
56.000 10.435328
56.005 10.421707
56.010 10.53427
56.015 11.115706
56.020 11.358011
56.025 11.152995
56.030 11.197284
56.035 11.195713
56.040 10.93649
56.045 11.339993
56.050 10.915855
56.055 10.678715
56.060 10.791626
56.065 10.866727
56.070 10.998531
56.075 10.308431
56.080 9.573792
56.085 9.91894
56.090 10.797315
56.095 11.39153
56.100 11.398369
56.105 12.031811
56.110 12.680239
56.115 12.840868
56.120 12.398682
56.125 11.669019
56.130 11.476845
56.135 11.449153
56.140 11.278012
56.145 11.528092
56.150 11.827697
56.155 12.648355
56.160 12.722727
56.165 12.648961
56.170 12.953992
56.175 12.761868
56.180 12.388967
56.185 11.997119
56.190 11.310789
56.195 10.832063
56.200 10.466063
56.205 10.543043
56.210 10.972667
56.215 11.405565
56.220 11.559186
56.225 12.488557
56.230 13.271093
56.235 13.500919
56.240 13.20495
56.245 12.371913
56.250 12.415903
56.255 12.408667
56.260 11.509025
56.265 11.082975
56.270 10.479973
56.275 10.646495
56.280 10.891521
56.285 10.849328
56.290 10.854029
56.295 11.337655
56.300 11.511696
56.305 11.560313
56.310 11.415758
56.315 11.559055
56.320 11.952725
56.325 11.766198
56.330 11.320615
56.335 11.498015
56.340 11.658422
56.345 11.912791
56.350 11.520366
56.355 10.541663
56.360 10.776172
56.365 11.332938
56.370 11.413228
56.375 11.435076
56.380 10.953526
56.385 11.677236
56.390 12.203447
56.395 12.069869
56.400 11.882868
56.405 11.738894
56.410 12.24965
56.415 12.725477
56.420 12.800087
56.425 12.98643
56.430 13.0474
56.435 13.292651
56.440 13.174897
56.445 12.397165
56.450 12.02656
56.455 11.821135
56.460 12.006719
56.465 12.01556
56.470 11.931971
56.475 12.357889
56.480 12.861123
56.485 13.140041
56.490 13.133606
56.495 13.02056
56.500 12.688383
56.505 12.230689
56.510 12.255929
56.515 11.903153
56.520 11.678741
56.525 11.258165
56.530 11.075022
56.535 11.512833
56.540 11.378035
56.545 11.081139
56.550 11.104143
56.555 11.357594
56.560 11.743681
56.565 11.895578
56.570 11.865218
56.575 11.942539
56.580 12.102454
56.585 12.259053
56.590 11.874231
56.595 11.430335
56.600 11.222283
56.605 11.371776
56.610 11.835132
56.615 11.952787
56.620 12.082024
56.625 12.1773
56.630 12.219645
56.635 12.374574
56.640 11.9145
56.645 11.705009
56.650 11.424029
56.655 11.533493
56.660 11.77198
56.665 11.943514
56.670 11.899263
56.675 11.692887
56.680 12.220436
56.685 12.36864
56.690 12.42377
56.695 12.740092
56.700 12.905794
56.705 12.860955
56.710 12.975469
56.715 12.551506
56.720 12.31815
56.725 11.814735
56.730 11.598687
56.735 11.778769
56.740 11.910015
56.745 12.17972
56.750 12.324645
56.755 12.882564
56.760 13.381666
56.765 13.460328
56.770 13.002079
56.775 12.782975
56.780 13.068954
56.785 13.075467
56.790 12.937477
56.795 12.465119
56.800 12.206218
56.805 12.248425
56.810 11.982302
56.815 11.799053
56.820 11.793824
56.825 12.220389
56.830 12.137196
56.835 12.277144
56.840 13.052945
56.845 13.583372
56.850 13.259782
56.855 12.954678
56.860 12.549814
56.865 12.919271
56.870 12.716269
56.875 12.323271
56.880 11.97476
56.885 12.487824
56.890 12.54848
56.895 12.372963
56.900 12.466185
56.905 12.494692
56.910 12.808384
56.915 13.156038
56.920 12.676668
56.925 12.84083
56.930 13.399083
56.935 13.479904
56.940 13.581061
56.945 13.588978
56.950 13.459224
56.955 13.429026
56.960 13.181517
56.965 12.642593
56.970 12.454917
56.975 12.25035
56.980 11.884933
56.985 11.714229
56.990 12.206444
56.995 12.359927
57.000 12.916245
57.005 12.985079
57.010 13.135191
57.015 13.461464
57.020 13.369987
57.025 13.060099
57.030 13.019148
57.035 12.71968
57.040 12.888912
57.045 12.833708
57.050 12.982032
57.055 13.022336
57.060 12.80098
57.065 12.867551
57.070 12.713878
57.075 12.574243
57.080 12.216329
57.085 12.215598
57.090 12.446446
57.095 12.418074
57.100 12.344253
57.105 12.426778
57.110 12.562367
57.115 12.466226
57.120 12.134162
57.125 12.28443
57.130 12.594383
57.135 12.895752
57.140 13.0027
57.145 13.084228
57.150 13.181486
57.155 12.921337
57.160 13.002074
57.165 12.348464
57.170 12.084025
57.175 11.752753
57.180 12.265032
57.185 12.664987
57.190 12.755198
57.195 12.847094
57.200 13.572987
57.205 13.984776
57.210 14.52199
57.215 14.250179
57.220 14.263291
57.225 14.568611
57.230 14.779028
57.235 14.515003
57.240 14.289747
57.245 14.160845
57.250 13.869158
57.255 13.847188
57.260 13.767294
57.265 13.312881
57.270 13.013254
57.275 12.636061
57.280 12.624226
57.285 12.921654
57.290 12.936066
57.295 12.768622
57.300 12.986541
57.305 13.074055
57.310 13.069931
57.315 12.780506
57.320 12.227312
57.325 12.111521
57.330 11.988281
57.335 11.59986
57.340 11.916025
57.345 12.11108
57.350 13.304691
57.355 13.373601
57.360 13.054609
57.365 13.214364
57.370 13.61445
57.375 14.144624
57.380 14.064064
57.385 12.992494
57.390 13.617835
57.395 14.093263
57.400 14.09983
57.405 14.047749
57.410 13.679452
57.415 13.693418
57.420 13.851788
57.425 13.859526
57.430 14.13405
57.435 14.146659
57.440 13.843651
57.445 13.819827
57.450 13.814473
57.455 13.863109
57.460 13.46818
57.465 13.793813
57.470 13.742539
57.475 13.730065
57.480 13.569897
57.485 13.553943
57.490 13.532486
57.495 13.938532
57.500 14.00682
57.505 14.305672
57.510 14.650559
57.515 14.529006
57.520 14.511432
57.525 14.283303
57.530 13.343721
57.535 13.015761
57.540 12.533013
57.545 12.384417
57.550 12.718854
57.555 12.624093
57.560 13.427126
57.565 13.846611
57.570 13.721527
57.575 13.743413
57.580 13.713222
57.585 14.037338
57.590 13.729027
57.595 13.056511
57.600 12.994218
57.605 12.68542
57.610 12.836232
57.615 12.726557
57.620 12.839468
57.625 13.343217
57.630 13.803399
57.635 14.214784
57.640 14.419875
57.645 14.21632
57.650 14.269538
57.655 13.937448
57.660 14.171976
57.665 13.983637
57.670 13.83629
57.675 14.188051
57.680 14.32023
57.685 14.351683
57.690 14.321586
57.695 13.548133
57.700 13.579148
57.705 13.132465
57.710 13.009027
57.715 13.211439
57.720 13.329127
57.725 13.370214
57.730 13.263862
57.735 12.794892
57.740 12.669549
57.745 12.49587
57.750 12.245404
57.755 11.97931
57.760 12.242961
57.765 13.010344
57.770 13.708713
57.775 14.050853
57.780 14.569148
57.785 15.060231
57.790 14.842624
57.795 14.686198
57.800 13.799906
57.805 13.702806
57.810 13.598273
57.815 12.933102
57.820 12.802231
57.825 12.582335
57.830 12.555932
57.835 12.946531
57.840 12.642287
57.845 12.645487
57.850 13.208747
57.855 13.855386
57.860 14.258123
57.865 14.152528
57.870 14.534697
57.875 14.983336
57.880 15.152282
57.885 15.219485
57.890 14.742335
57.895 14.496574
57.900 14.250825
57.905 13.927664
57.910 14.125928
57.915 14.486828
57.920 13.943716
57.925 13.840972
57.930 14.080892
57.935 14.190376
57.940 14.070652
57.945 13.532938
57.950 13.154719
57.955 13.195942
57.960 13.134942
57.965 13.411816
57.970 13.432728
57.975 13.650587
57.980 14.216784
57.985 14.640201
57.990 14.391372
57.995 14.024814
58.000 14.124863
58.005 14.1658
58.010 13.795851
58.015 13.040023
58.020 12.501775
58.025 12.956417
58.030 13.723141
58.035 13.81969
58.040 13.949634
58.045 13.991089
58.050 14.22323
58.055 13.917902
58.060 13.892303
58.065 13.304587
58.070 13.366202
58.075 13.352801
58.080 13.515739
58.085 13.446286
58.090 13.633602
58.095 13.793894
58.100 13.86502
58.105 13.552095
58.110 13.351304
58.115 13.532922
58.120 13.888932
58.125 13.52207
58.130 13.541718
58.135 13.313293
58.140 13.784123
58.145 14.304903
58.150 14.363379
58.155 14.427731
58.160 14.156749
58.165 14.258384
58.170 14.46979
58.175 14.224871
58.180 13.997169
58.185 13.724199
58.190 13.691057
58.195 13.879832
58.200 13.802667
58.205 13.857626
58.210 13.44758
58.215 13.685019
58.220 14.003779
58.225 14.042055
58.230 14.117828
58.235 13.828279
58.240 13.602222
58.245 13.837645
58.250 13.282849
58.255 13.184723
58.260 13.384945
58.265 13.23234
58.270 13.111304
58.275 13.279354
58.280 13.420786
58.285 14.166675
58.290 14.244352
58.295 14.231294
58.300 14.242727
58.305 14.450203
58.310 14.42289
58.315 14.4265
58.320 13.937779
58.325 14.108552
58.330 14.203513
58.335 14.629901
58.340 14.67671
58.345 14.698268
58.350 14.765556
58.355 14.820906
58.360 14.281322
58.365 14.328524
58.370 13.939151
58.375 14.245182
58.380 14.255552
58.385 14.162396
58.390 14.098969
58.395 14.240368
58.400 14.155554
58.405 14.015627
58.410 13.702464
58.415 13.633183
58.420 13.449075
58.425 13.843904
58.430 14.132449
58.435 14.772175
58.440 15.585776
58.445 15.794123
58.450 15.865202
58.455 16.147984
58.460 16.100439
58.465 15.964989
58.470 16.03245
58.475 15.98631
58.480 15.88844
58.485 15.994263
58.490 16.384203
58.495 16.657412
58.500 16.148643
58.505 15.408884
58.510 15.076275
58.515 15.25736
58.520 14.73169
58.525 14.056699
58.530 13.689193
58.535 13.712022
