!@!!GADDS PLOTSO FILE: Chi integration type
!@!!Title/SampleName: map-183
!@!!Comment: ?
!@!!User: Bruker Instrument Administrator
!@!!Site: University of Illinois Chicago
!@!!Frame: map-183_01_000.gfrm
!@!!Wavelengths    1.54184   1.54056   1.54439
!@!!Frame angles: 2Theta: 63.000 Omega: 50.000 Phi: 0.000 Chi: 90.000
!@!!Integration range: 2Theta: 53.000 to 73.000  Gamma: -105.000 to -75.000
!@!!Integration method: bin normalized
!@!N
!@!SS
!@!M
!@!L 0.0 0.0 0.0 0.0
!@!XDegrees
!@!YCounts
53.000 8.629811
53.005 8.567346
53.010 9.066087
53.015 9.742445
53.020 9.507123
53.025 9.746663
53.030 9.602951
53.035 9.790063
53.040 9.4034
53.045 8.820038
53.050 8.500014
53.055 8.804362
53.060 9.171206
53.065 8.970462
53.070 8.884682
53.075 8.704191
53.080 8.953484
53.085 8.940176
53.090 8.527395
53.095 8.717966
53.100 9.177284
53.105 9.221965
53.110 9.333749
53.115 9.698105
53.120 10.580366
53.125 10.417688
53.130 9.733277
53.135 9.347759
53.140 9.210926
53.145 9.088446
53.150 8.642388
53.155 8.614441
53.160 8.850284
53.165 9.330917
53.170 9.706357
53.175 9.985953
53.180 10.385706
53.185 10.164137
53.190 9.567958
53.195 9.199767
53.200 8.862478
53.205 8.671487
53.210 8.578837
53.215 8.688157
53.220 9.259066
53.225 10.045932
53.230 10.855688
53.235 11.347399
53.240 11.433685
53.245 11.470482
53.250 11.302877
53.255 11.200034
53.260 10.849316
53.265 10.359189
53.270 10.170576
53.275 10.010376
53.280 9.824563
53.285 9.806273
53.290 9.755332
53.295 9.718678
53.300 9.987032
53.305 9.731941
53.310 9.655902
53.315 9.648144
53.320 9.382198
53.325 9.483188
53.330 9.696786
53.335 9.991576
53.340 10.388754
53.345 10.612922
53.350 10.613317
53.355 10.632962
53.360 10.383801
53.365 9.893074
53.370 9.507536
53.375 9.386402
53.380 9.143203
53.385 8.986634
53.390 9.38377
53.395 9.449924
53.400 9.293465
53.405 9.260195
53.410 9.650154
53.415 10.031466
53.420 10.358512
53.425 10.049525
53.430 10.320544
53.435 10.229234
53.440 9.970068
53.445 9.427764
53.450 9.492662
53.455 9.652265
53.460 9.52802
53.465 9.547728
53.470 9.941172
53.475 10.054487
53.480 10.099359
53.485 10.669413
53.490 10.911819
53.495 11.387415
53.500 11.368896
53.505 11.629685
53.510 11.761177
53.515 11.361692
53.520 10.397833
53.525 10.434368
53.530 10.187552
53.535 10.176093
53.540 9.557906
53.545 9.626001
53.550 10.145303
53.555 10.23861
53.560 10.122592
53.565 9.994008
53.570 9.894073
53.575 10.428179
53.580 10.598404
53.585 10.003757
53.590 9.920328
53.595 9.957254
53.600 10.193215
53.605 10.324015
53.610 10.027267
53.615 10.088658
53.620 10.299681
53.625 10.248813
53.630 10.408283
53.635 10.309782
53.640 10.17461
53.645 10.28536
53.650 10.138054
53.655 9.952172
53.660 9.549975
53.665 9.660695
53.670 9.587819
53.675 9.652696
53.680 9.643099
53.685 9.45042
53.690 9.484095
53.695 9.430415
53.700 9.325394
53.705 9.594373
53.710 9.598207
53.715 9.352391
53.720 9.865955
53.725 10.165038
53.730 10.182096
53.735 10.124623
53.740 9.610051
53.745 9.641327
53.750 9.998787
53.755 10.076594
53.760 10.173696
53.765 10.511477
53.770 10.594943
53.775 11.076696
53.780 11.216095
53.785 11.358623
53.790 11.262648
53.795 11.117702
53.800 11.22293
53.805 11.252886
53.810 11.453596
53.815 11.464555
53.820 11.630048
53.825 11.61646
53.830 11.316583
53.835 11.281395
53.840 10.984236
53.845 10.938464
53.850 10.831958
53.855 10.92496
53.860 10.752766
53.865 10.737892
53.870 10.463631
53.875 10.232397
53.880 10.016364
53.885 9.698959
53.890 9.65556
53.895 9.991153
53.900 9.954958
53.905 10.045859
53.910 10.134019
53.915 10.045183
53.920 10.261762
53.925 9.810535
53.930 9.807343
53.935 10.43951
53.940 11.064569
53.945 11.277743
53.950 11.615616
53.955 11.609514
53.960 12.32439
53.965 12.645029
53.970 12.416515
53.975 12.564985
53.980 12.751464
53.985 12.90775
53.990 13.076054
53.995 12.989877
54.000 12.613351
54.005 12.183964
54.010 12.094583
54.015 11.421885
54.020 10.670798
54.025 10.256001
54.030 9.53757
54.035 9.667868
54.040 9.565117
54.045 9.441323
54.050 9.477097
54.055 9.456818
54.060 9.585291
54.065 9.619231
54.070 9.390013
54.075 9.198654
54.080 9.246402
54.085 9.214701
54.090 8.883333
54.095 8.626256
54.100 7.905376
54.105 8.261968
54.110 8.448607
54.115 8.423814
54.120 8.694196
54.125 9.046885
54.130 9.440689
54.135 9.856652
54.140 9.897435
54.145 10.143108
54.150 10.170442
54.155 10.580066
54.160 10.748493
54.165 10.759978
54.170 10.687549
54.175 10.355467
54.180 10.239075
54.185 10.5353
54.190 10.291974
54.195 10.176042
54.200 11.194217
54.205 11.252991
54.210 11.251016
54.215 11.580607
54.220 11.508009
54.225 11.574729
54.230 11.564142
54.235 11.334615
54.240 11.497115
54.245 11.325931
54.250 10.674132
54.255 10.820571
54.260 10.622433
54.265 10.266523
54.270 9.993058
54.275 10.115666
54.280 9.96823
54.285 10.263179
54.290 9.873891
54.295 9.644023
54.300 10.094428
54.305 10.557062
54.310 10.64923
54.315 10.961494
54.320 10.871902
54.325 11.410941
54.330 11.470241
54.335 10.912245
54.340 10.51516
54.345 10.833221
54.350 11.001981
54.355 11.339586
54.360 11.413076
54.365 11.695442
54.370 11.981778
54.375 11.87056
54.380 11.227283
54.385 10.771047
54.390 10.324046
54.395 10.521758
54.400 10.311419
54.405 10.224396
54.410 10.084353
54.415 10.384951
54.420 10.649021
54.425 10.285514
54.430 9.764279
54.435 9.594709
54.440 9.504989
54.445 9.899618
54.450 9.903654
54.455 9.605113
54.460 9.742825
54.465 10.281609
54.470 10.651584
54.475 10.883362
54.480 10.844991
54.485 10.808389
54.490 10.741996
54.495 10.732773
54.500 10.271047
54.505 9.615193
54.510 9.910787
54.515 9.874559
54.520 9.825062
54.525 10.125392
54.530 9.980583
54.535 10.657933
54.540 11.440511
54.545 11.249595
54.550 11.512897
54.555 11.403072
54.560 11.233129
54.565 11.322866
54.570 10.405005
54.575 9.222679
54.580 8.708978
54.585 8.785006
54.590 9.208646
54.595 9.084076
54.600 9.081912
54.605 9.594448
54.610 10.444419
54.615 10.56768
54.620 10.429392
54.625 10.814543
54.630 11.105609
54.635 10.845658
54.640 10.646164
54.645 10.635319
54.650 11.156076
54.655 10.907831
54.660 10.329652
54.665 10.358169
54.670 10.127698
54.675 9.620603
54.680 9.357153
54.685 9.115141
54.690 9.354369
54.695 9.662328
54.700 10.067836
54.705 10.657087
54.710 11.172302
54.715 11.339216
54.720 11.253856
54.725 11.28235
54.730 10.727549
54.735 10.40996
54.740 10.448407
54.745 10.269077
54.750 10.066265
54.755 9.836488
54.760 9.843793
54.765 10.303263
54.770 10.504911
54.775 10.471326
54.780 10.642846
54.785 10.850896
54.790 10.842517
54.795 11.091271
54.800 11.322314
54.805 11.538852
54.810 11.474697
54.815 11.298082
54.820 11.507089
54.825 12.007782
54.830 11.643988
54.835 11.18588
54.840 11.013962
54.845 11.277054
54.850 11.6356
54.855 11.428703
54.860 11.550723
54.865 12.004551
54.870 11.898575
54.875 12.116751
54.880 12.381992
54.885 12.360866
54.890 12.121624
54.895 11.528183
54.900 11.078514
54.905 11.121573
54.910 10.933565
54.915 10.827105
54.920 11.339267
54.925 11.571465
54.930 12.130289
54.935 12.511564
54.940 12.474952
54.945 12.363842
54.950 12.67471
54.955 12.254786
54.960 12.098439
54.965 12.064548
54.970 11.895967
54.975 11.640768
54.980 11.769581
54.985 11.112885
54.990 11.230753
54.995 10.759332
55.000 10.275943
55.005 10.104905
55.010 9.943315
55.015 9.620712
55.020 10.004387
55.025 10.436361
55.030 10.800922
55.035 11.142297
55.040 11.444414
55.045 11.631215
55.050 11.56328
55.055 10.990151
55.060 11.055787
55.065 11.113852
55.070 11.027366
55.075 11.38859
55.080 11.388469
55.085 11.324805
55.090 11.322221
55.095 11.08616
55.100 11.22282
55.105 11.631818
55.110 11.223254
55.115 11.146269
55.120 12.096613
55.125 12.294101
55.130 12.104583
55.135 11.751756
55.140 11.51055
55.145 11.984839
55.150 12.133524
55.155 10.872362
55.160 10.737133
55.165 11.035099
55.170 10.858276
55.175 10.770793
55.180 10.319872
55.185 9.903732
55.190 10.116855
55.195 10.23406
55.200 10.028531
55.205 10.035521
55.210 9.710136
55.215 10.054136
55.220 10.447655
55.225 10.368432
55.230 10.073741
55.235 9.744448
55.240 9.855392
55.245 10.067488
55.250 9.768004
55.255 9.680822
55.260 10.107781
55.265 10.59223
55.270 11.403035
55.275 11.736115
55.280 11.959588
55.285 11.945486
55.290 11.659492
55.295 11.541595
55.300 11.457546
55.305 11.058835
55.310 10.600169
55.315 10.28017
55.320 10.643786
55.325 11.27177
55.330 11.071439
55.335 11.10689
55.340 10.927608
55.345 10.768173
55.350 10.753549
55.355 10.270676
55.360 9.935
55.365 10.090755
55.370 10.059237
55.375 10.171144
55.380 10.919526
55.385 11.261694
55.390 11.491992
55.395 11.694418
55.400 11.424154
55.405 11.532279
55.410 11.590542
55.415 10.900227
55.420 10.597982
55.425 10.449964
55.430 10.663743
55.435 10.72467
55.440 10.345162
55.445 10.566755
55.450 11.375804
55.455 11.944421
55.460 12.169184
55.465 12.535073
55.470 13.018008
55.475 13.394781
55.480 13.11931
55.485 12.309623
55.490 11.956166
55.495 11.496513
55.500 11.136226
55.505 10.901877
55.510 10.865106
55.515 10.488496
55.520 10.492441
55.525 10.848743
55.530 10.892912
55.535 10.759699
55.540 10.420213
55.545 10.098874
55.550 10.406812
55.555 10.737447
55.560 11.017242
55.565 11.453677
55.570 11.691491
55.575 12.120192
55.580 13.003798
55.585 12.908265
55.590 12.150953
55.595 11.75211
55.600 11.459867
55.605 11.499486
55.610 11.994262
55.615 11.646633
55.620 11.916638
55.625 12.205001
55.630 11.999679
55.635 12.352959
55.640 11.768869
55.645 11.226642
55.650 11.318823
55.655 11.129987
55.660 11.319396
55.665 10.650332
55.670 10.441217
55.675 10.935315
55.680 11.063436
55.685 11.043172
55.690 11.409828
55.695 11.555643
55.700 11.741914
55.705 11.747331
55.710 11.300001
55.715 11.182079
55.720 11.162242
55.725 10.873929
55.730 10.821372
55.735 11.20308
55.740 10.952109
55.745 10.990148
55.750 10.418971
55.755 10.260312
55.760 10.302398
55.765 10.31959
55.770 10.177178
55.775 10.504712
55.780 10.421492
55.785 10.778538
55.790 11.007219
55.795 10.88068
55.800 10.949924
55.805 11.437221
55.810 11.383579
55.815 11.83398
55.820 11.841746
55.825 11.743466
55.830 11.760331
55.835 12.361259
55.840 12.269388
55.845 12.438325
55.850 12.382263
55.855 11.748405
55.860 11.60955
55.865 11.141243
55.870 10.33012
55.875 10.106845
55.880 9.752807
55.885 9.981277
55.890 10.171938
55.895 10.396709
55.900 10.853311
55.905 10.684774
55.910 11.141715
55.915 11.228741
55.920 11.255952
55.925 11.360045
55.930 11.342378
55.935 11.794705
55.940 11.651931
55.945 11.410551
55.950 11.646039
55.955 11.557227
55.960 11.660197
55.965 11.162593
55.970 10.816237
55.975 10.833586
55.980 10.768791
55.985 11.051622
55.990 11.596797
55.995 11.981005
56.000 12.70609
56.005 12.680679
56.010 12.980954
56.015 12.410988
56.020 11.753137
56.025 11.140441
56.030 10.801083
56.035 10.365548
56.040 10.326665
56.045 9.947949
56.050 10.272291
56.055 10.848299
56.060 10.977139
56.065 11.329214
56.070 11.344631
56.075 11.508082
56.080 11.585518
56.085 11.390306
56.090 10.933944
56.095 10.820228
56.100 10.321172
56.105 10.281676
56.110 10.693043
56.115 10.368442
56.120 10.007656
56.125 10.239468
56.130 10.424526
56.135 11.163838
56.140 10.888786
56.145 10.051022
56.150 10.213854
56.155 10.66425
56.160 10.740655
56.165 10.899747
56.170 11.012686
56.175 11.43854
56.180 12.388678
56.185 13.019946
56.190 13.485762
56.195 13.958497
56.200 13.605135
56.205 12.577811
56.210 12.371384
56.215 12.049047
56.220 11.971642
56.225 11.456642
56.230 10.753218
56.235 10.965405
56.240 11.274261
56.245 11.514213
56.250 11.037219
56.255 11.120032
56.260 11.329898
56.265 11.680392
56.270 11.807216
56.275 12.103492
56.280 11.964514
56.285 12.113534
56.290 11.74701
56.295 11.612156
56.300 11.362084
56.305 11.591991
56.310 11.732558
56.315 11.731894
56.320 12.088928
56.325 12.372058
56.330 12.432582
56.335 12.796718
56.340 12.514781
56.345 12.378864
56.350 12.642982
56.355 12.177554
56.360 11.470598
56.365 11.086633
56.370 10.669575
56.375 10.517248
56.380 10.185871
56.385 10.172225
56.390 10.525047
56.395 10.647514
56.400 11.006162
56.405 11.027818
56.410 11.225244
56.415 11.58161
56.420 11.839645
56.425 12.064709
56.430 12.298401
56.435 12.624306
56.440 13.076495
56.445 13.176702
56.450 13.235956
56.455 13.460636
56.460 13.946168
56.465 13.922113
56.470 13.689334
56.475 13.572532
56.480 13.71043
56.485 13.261595
56.490 12.728167
56.495 12.330662
56.500 12.622552
56.505 12.544855
56.510 12.506137
56.515 12.369111
56.520 13.153327
56.525 13.450912
56.530 13.66914
56.535 13.83048
56.540 13.761059
56.545 13.787197
56.550 14.021038
56.555 13.876993
56.560 13.675266
56.565 12.946404
56.570 12.588475
56.575 12.558143
56.580 12.536971
56.585 11.983974
56.590 11.694366
56.595 12.409463
56.600 12.74326
56.605 13.269248
56.610 13.535582
56.615 13.485213
56.620 13.591947
56.625 13.728801
56.630 13.183557
56.635 12.906494
56.640 12.09389
56.645 11.834374
56.650 12.002391
56.655 11.929546
56.660 11.757154
56.665 11.532861
56.670 11.822171
56.675 12.057436
56.680 12.169628
56.685 12.004233
56.690 11.990832
56.695 11.962706
56.700 12.398301
56.705 12.447559
56.710 12.496547
56.715 12.547707
56.720 12.807903
56.725 13.42498
56.730 13.68222
56.735 14.04518
56.740 14.221769
56.745 14.46453
56.750 14.914598
56.755 14.793644
56.760 14.014335
56.765 13.816654
56.770 13.744601
56.775 13.676745
56.780 13.381004
56.785 13.107124
56.790 12.857574
56.795 13.240235
56.800 12.990269
56.805 12.756191
56.810 12.436323
56.815 12.098961
56.820 11.385253
56.825 11.174907
56.830 10.96307
56.835 10.906
56.840 10.915646
56.845 10.729632
56.850 10.315086
56.855 10.219613
56.860 10.259112
56.865 9.726891
56.870 9.409884
56.875 9.013253
56.880 9.262958
56.885 9.698735
56.890 9.992688
56.895 10.37358
56.900 10.439295
56.905 10.569209
56.910 10.736773
56.915 11.007384
56.920 11.116267
56.925 11.148945
56.930 10.987853
56.935 11.371411
56.940 11.278339
56.945 11.731205
56.950 11.565089
56.955 11.733026
56.960 11.738376
56.965 11.95765
56.970 12.450406
56.975 12.375271
56.980 11.973525
56.985 12.276153
56.990 12.68832
56.995 12.71481
57.000 12.422357
57.005 11.836741
57.010 11.435379
57.015 11.397629
57.020 11.165845
57.025 10.972438
57.030 10.795132
57.035 11.125934
57.040 11.536606
57.045 11.571918
57.050 11.843112
57.055 12.110451
57.060 12.229381
57.065 12.162161
57.070 11.860546
57.075 12.065639
57.080 12.643039
57.085 12.233906
57.090 11.744545
57.095 11.75914
57.100 11.813333
57.105 11.880304
57.110 11.97664
57.115 11.420369
57.120 11.520107
57.125 11.101696
57.130 11.195937
57.135 11.134511
57.140 10.785057
57.145 10.939784
57.150 11.552887
57.155 11.806331
57.160 12.270558
57.165 12.131482
57.170 12.410752
57.175 12.564405
57.180 12.216327
57.185 12.038159
57.190 11.642581
57.195 11.833718
57.200 11.768429
57.205 11.459309
57.210 11.320006
57.215 10.831077
57.220 10.949762
57.225 11.45528
57.230 11.135276
57.235 11.273158
57.240 11.425756
57.245 11.638393
57.250 11.860274
57.255 11.929994
57.260 11.788312
57.265 11.807666
57.270 11.895729
57.275 11.983225
57.280 11.800869
57.285 11.644112
57.290 11.112276
57.295 11.30762
57.300 11.653368
57.305 11.56937
57.310 11.602659
57.315 11.770635
57.320 12.053994
57.325 12.377464
57.330 12.105631
57.335 12.113056
57.340 12.37343
57.345 12.229045
57.350 11.681269
57.355 11.326097
57.360 10.923181
57.365 10.632677
57.370 10.6853
57.375 10.499175
57.380 10.883461
57.385 11.444146
57.390 11.717062
57.395 11.946731
57.400 11.656393
57.405 11.44214
57.410 11.781276
57.415 11.745621
57.420 11.579463
57.425 11.232162
57.430 11.471821
57.435 11.960356
57.440 11.916564
57.445 11.651247
57.450 11.607663
57.455 11.321893
57.460 11.486554
57.465 11.451487
57.470 11.021059
57.475 10.770287
57.480 10.780259
57.485 10.739838
57.490 11.028881
57.495 10.977615
57.500 11.04746
57.505 10.9037
57.510 10.749656
57.515 10.613395
57.520 11.085978
57.525 10.934444
57.530 10.746609
57.535 10.489171
57.540 10.464872
57.545 10.332113
57.550 10.265697
57.555 10.001289
57.560 10.081335
57.565 10.743033
57.570 11.489592
57.575 12.171371
57.580 12.273384
57.585 12.250504
57.590 12.596499
57.595 12.782403
57.600 12.149052
57.605 11.599462
57.610 11.553983
57.615 11.599768
57.620 11.264506
57.625 11.622788
57.630 12.03997
57.635 12.235406
57.640 12.19344
57.645 12.153332
57.650 12.546383
57.655 13.019186
57.660 12.74035
57.665 12.384286
57.670 12.74471
57.675 12.835292
57.680 12.853985
57.685 13.234182
57.690 13.408529
57.695 13.064658
57.700 13.046194
57.705 12.942624
57.710 12.888769
57.715 13.300691
57.720 13.202636
57.725 12.816118
57.730 12.985559
57.735 12.868853
57.740 12.796596
57.745 13.047832
57.750 12.036677
57.755 11.28433
57.760 11.262614
57.765 10.764192
57.770 10.817634
57.775 10.709096
57.780 10.636501
57.785 11.092286
57.790 11.215109
57.795 11.449842
57.800 11.472649
57.805 11.161736
57.810 11.187737
57.815 11.185044
57.820 11.2093
57.825 11.162366
57.830 10.907572
57.835 11.130852
57.840 11.267624
57.845 11.114171
57.850 10.739354
57.855 10.445376
57.860 10.631328
57.865 10.523851
57.870 10.665209
57.875 10.251465
57.880 10.438587
57.885 10.879
57.890 10.979656
57.895 10.581222
57.900 11.094313
57.905 11.223208
57.910 11.907353
57.915 11.832512
57.920 11.828729
57.925 12.03555
57.930 12.380806
57.935 12.709472
57.940 12.611139
57.945 12.355414
57.950 12.152369
57.955 12.170783
57.960 12.229588
57.965 12.174047
57.970 11.424555
57.975 11.683179
57.980 11.904549
57.985 11.922067
57.990 11.954391
57.995 12.092208
58.000 11.681481
58.005 11.614109
58.010 11.09325
58.015 11.222888
58.020 11.613897
58.025 11.727065
58.030 11.595145
58.035 11.825156
58.040 12.431848
58.045 12.771764
58.050 12.975483
58.055 12.974153
58.060 12.948771
58.065 13.114428
58.070 12.970562
58.075 12.806993
58.080 12.798556
58.085 12.655406
58.090 12.369696
58.095 12.360826
58.100 12.772282
58.105 13.158468
58.110 12.881502
58.115 12.942658
58.120 12.796335
58.125 12.62878
58.130 12.386478
58.135 12.048795
58.140 11.942422
58.145 12.309832
58.150 12.243709
58.155 12.181191
58.160 11.984037
58.165 11.621785
58.170 11.80499
58.175 11.875154
58.180 12.084434
58.185 12.449332
58.190 13.13801
58.195 13.484817
58.200 13.862987
58.205 13.388044
58.210 12.838935
58.215 12.491252
58.220 12.229359
58.225 12.158236
58.230 12.216293
58.235 12.060422
58.240 12.188447
58.245 12.419062
58.250 12.362091
58.255 12.194551
58.260 11.993995
58.265 11.908867
58.270 11.772511
58.275 11.969992
58.280 12.128246
58.285 12.34473
58.290 12.283178
58.295 11.781761
58.300 11.729205
58.305 12.081368
58.310 12.04826
58.315 12.144544
58.320 11.943863
58.325 12.042587
58.330 12.482352
58.335 12.784365
58.340 12.708715
58.345 12.466311
58.350 12.382999
58.355 12.540525
58.360 12.467693
58.365 12.40155
58.370 12.341469
58.375 12.868318
58.380 13.023635
58.385 12.591233
58.390 12.764134
58.395 13.500243
58.400 13.824855
58.405 13.572665
58.410 13.263068
58.415 13.274331
58.420 13.707093
58.425 13.103951
58.430 12.490046
58.435 12.027879
58.440 12.04935
58.445 11.972625
58.450 11.823211
58.455 11.640317
58.460 12.288767
58.465 12.522267
58.470 12.692728
58.475 12.972133
58.480 13.375816
