!@!!GADDS PLOTSO FILE: Chi integration type
!@!!Title/SampleName: map-57
!@!!Comment: ?
!@!!User: Bruker Instrument Administrator
!@!!Site: University of Illinois Chicago
!@!!Frame: map-57_01_000.gfrm
!@!!Wavelengths    1.54184   1.54056   1.54439
!@!!Frame angles: 2Theta: 63.000 Omega: 50.000 Phi: 0.000 Chi: 90.000
!@!!Integration range: 2Theta: 53.000 to 73.000  Gamma: -105.000 to -75.000
!@!!Integration method: bin normalized
!@!N
!@!SS
!@!M
!@!L 0.0 0.0 0.0 0.0
!@!XDegrees
!@!YCounts
53.000 9.441595
53.005 9.318644
53.010 8.96421
53.015 8.834297
53.020 8.967262
53.025 8.787726
53.030 8.855466
53.035 8.891786
53.040 9.024033
53.045 9.446629
53.050 9.23553
53.055 9.126758
53.060 9.126019
53.065 9.120175
53.070 8.90686
53.075 8.651649
53.080 8.495733
53.085 8.848252
53.090 9.100655
53.095 9.456604
53.100 9.364798
53.105 9.299304
53.110 9.516678
53.115 10.383037
53.120 10.5216
53.125 10.524826
53.130 10.603097
53.135 10.68784
53.140 10.78521
53.145 10.678258
53.150 9.734135
53.155 9.437399
53.160 9.014584
53.165 8.740881
53.170 8.492392
53.175 8.154746
53.180 7.869749
53.185 7.780373
53.190 7.624476
53.195 7.547273
53.200 7.718566
53.205 8.454772
53.210 9.201982
53.215 9.48069
53.220 10.179676
53.225 10.225104
53.230 10.121174
53.235 10.106951
53.240 9.914694
53.245 9.620677
53.250 9.21339
53.255 9.125112
53.260 9.231198
53.265 9.588519
53.270 9.480087
53.275 9.131636
53.280 9.352085
53.285 9.510932
53.290 9.058778
53.295 9.348284
53.300 9.524652
53.305 9.639297
53.310 9.455286
53.315 9.467661
53.320 9.505581
53.325 9.685399
53.330 9.282372
53.335 8.879363
53.340 8.999693
53.345 9.054605
53.350 8.917315
53.355 8.884585
53.360 9.015493
53.365 9.210538
53.370 9.642417
53.375 9.877664
53.380 10.245061
53.385 10.279391
53.390 10.226134
53.395 10.218398
53.400 10.083936
53.405 9.331687
53.410 8.974315
53.415 8.415761
53.420 8.366591
53.425 8.211557
53.430 8.078197
53.435 7.854631
53.440 8.758294
53.445 9.454596
53.450 9.902439
53.455 10.648795
53.460 10.736153
53.465 10.925042
53.470 11.150237
53.475 10.710783
53.480 10.14251
53.485 10.107471
53.490 9.978551
53.495 10.299067
53.500 10.707994
53.505 10.519585
53.510 10.664208
53.515 10.978627
53.520 10.678473
53.525 10.498587
53.530 9.883805
53.535 9.462614
53.540 9.93651
53.545 9.670158
53.550 9.503779
53.555 9.306298
53.560 9.33182
53.565 9.842864
53.570 9.72495
53.575 9.825427
53.580 10.379455
53.585 10.455722
53.590 10.811998
53.595 10.729369
53.600 10.961224
53.605 10.669591
53.610 10.031519
53.615 9.783115
53.620 9.931124
53.625 9.731151
53.630 9.088285
53.635 8.849873
53.640 8.942541
53.645 9.206155
53.650 9.281744
53.655 9.069944
53.660 9.551183
53.665 9.916827
53.670 9.971389
53.675 10.058218
53.680 9.850543
53.685 9.72732
53.690 10.067334
53.695 9.87418
53.700 10.201315
53.705 10.26977
53.710 10.614823
53.715 10.525556
53.720 10.677464
53.725 10.932176
53.730 10.972336
53.735 10.761449
53.740 10.564936
53.745 10.046793
53.750 10.320326
53.755 10.237
53.760 9.733874
53.765 10.287983
53.770 10.70159
53.775 10.860088
53.780 11.175162
53.785 11.086352
53.790 10.88459
53.795 10.570921
53.800 10.167592
53.805 9.785016
53.810 9.462811
53.815 9.437766
53.820 9.275786
53.825 9.376739
53.830 9.280913
53.835 9.281591
53.840 9.854992
53.845 10.159543
53.850 10.307006
53.855 10.686878
53.860 10.429234
53.865 10.192756
53.870 9.744103
53.875 9.308364
53.880 9.148088
53.885 8.681653
53.890 8.626301
53.895 8.891807
53.900 8.908306
53.905 9.431281
53.910 9.666207
53.915 10.29705
53.920 10.169354
53.925 10.201608
53.930 10.761609
53.935 10.820257
53.940 10.335938
53.945 10.138721
53.950 9.190426
53.955 9.278737
53.960 9.186198
53.965 9.282702
53.970 9.602292
53.975 9.665474
53.980 9.996609
53.985 10.29268
53.990 10.007098
53.995 10.049528
54.000 9.889585
54.005 9.946318
54.010 10.110084
54.015 10.256668
54.020 10.74
54.025 10.927595
54.030 11.175617
54.035 10.979206
54.040 10.805469
54.045 10.508239
54.050 10.702603
54.055 11.10405
54.060 11.037696
54.065 10.934152
54.070 10.974717
54.075 11.201325
54.080 11.482271
54.085 11.286971
54.090 11.142421
54.095 11.549929
54.100 11.714627
54.105 11.922919
54.110 11.635485
54.115 11.406782
54.120 11.166441
54.125 11.391124
54.130 11.67196
54.135 12.092975
54.140 12.044687
54.145 12.498799
54.150 12.427629
54.155 12.457092
54.160 12.039838
54.165 11.804543
54.170 11.175461
54.175 10.91916
54.180 10.405581
54.185 10.208603
54.190 10.288923
54.195 10.753166
54.200 10.841881
54.205 11.020557
54.210 11.306556
54.215 11.528083
54.220 11.45312
54.225 10.91104
54.230 10.723589
54.235 11.272704
54.240 11.601363
54.245 11.486175
54.250 11.678652
54.255 11.775764
54.260 11.72933
54.265 11.010411
54.270 10.776532
54.275 10.79893
54.280 11.11653
54.285 11.12383
54.290 12.17114
54.295 12.96558
54.300 13.602345
54.305 13.528758
54.310 13.552431
54.315 13.502402
54.320 13.391036
54.325 12.877414
54.330 12.566501
54.335 12.765415
54.340 12.237523
54.345 11.820604
54.350 11.788511
54.355 12.138481
54.360 12.082647
54.365 11.789787
54.370 11.94607
54.375 12.029355
54.380 12.311595
54.385 12.176842
54.390 11.783874
54.395 11.762507
54.400 11.66864
54.405 10.831962
54.410 10.778669
54.415 10.309443
54.420 10.178623
54.425 9.898269
54.430 9.702674
54.435 10.122635
54.440 10.411201
54.445 10.404135
54.450 10.517365
54.455 10.547789
54.460 10.956595
54.465 10.708452
54.470 10.371047
54.475 10.275123
54.480 10.350747
54.485 10.17766
54.490 10.007793
54.495 10.224857
54.500 10.895205
54.505 10.821119
54.510 11.164248
54.515 11.273225
54.520 11.635533
54.525 12.096102
54.530 11.760132
54.535 11.958881
54.540 12.062992
54.545 11.875913
54.550 11.570693
54.555 11.343047
54.560 10.861464
54.565 10.690499
54.570 10.271208
54.575 10.536016
54.580 10.910785
54.585 11.289632
54.590 11.256866
54.595 11.385763
54.600 11.260435
54.605 11.047715
54.610 11.02686
54.615 11.306147
54.620 11.548787
54.625 11.151814
54.630 10.897259
54.635 10.866412
54.640 11.321837
54.645 11.074935
54.650 11.01674
54.655 10.900637
54.660 11.091971
54.665 11.21722
54.670 10.931502
54.675 10.524163
54.680 10.7615
54.685 10.46793
54.690 10.650876
54.695 10.985979
54.700 10.994107
54.705 11.295352
54.710 11.249061
54.715 10.913872
54.720 10.897434
54.725 11.119338
54.730 11.203614
54.735 11.054783
54.740 11.272602
54.745 10.888508
54.750 10.869446
54.755 11.235893
54.760 11.621912
54.765 11.759132
54.770 12.24602
54.775 12.208123
54.780 12.47427
54.785 12.541468
54.790 12.032953
54.795 11.169758
54.800 11.116014
54.805 11.270424
54.810 11.287496
54.815 11.476388
54.820 11.630323
54.825 11.711623
54.830 11.984987
54.835 11.991968
54.840 11.992993
54.845 12.16223
54.850 12.156657
54.855 12.087317
54.860 12.172362
54.865 11.901928
54.870 11.872474
54.875 11.800914
54.880 11.538894
54.885 11.435659
54.890 11.316968
54.895 11.288736
54.900 11.203895
54.905 11.100873
54.910 11.33905
54.915 11.761179
54.920 11.884775
54.925 12.024937
54.930 12.364248
54.935 12.311146
54.940 12.372992
54.945 12.422333
54.950 12.366532
54.955 12.910024
54.960 12.746713
54.965 12.250408
54.970 12.518731
54.975 12.352462
54.980 12.513881
54.985 11.844468
54.990 11.712359
54.995 12.336809
55.000 12.28452
55.005 12.084975
55.010 12.221011
55.015 12.437807
55.020 12.891687
55.025 13.063245
55.030 12.600924
55.035 12.879163
55.040 13.054276
55.045 12.899817
55.050 12.739026
55.055 12.287629
55.060 12.50773
55.065 12.617843
55.070 12.6684
55.075 13.038467
55.080 12.79328
55.085 12.112259
55.090 11.400435
55.095 10.979337
55.100 11.327431
55.105 11.137843
55.110 10.543163
55.115 10.722876
55.120 11.472629
55.125 11.758297
55.130 11.709933
55.135 11.511133
55.140 10.976633
55.145 11.229238
55.150 12.00952
55.155 11.99384
55.160 12.321388
55.165 12.243747
55.170 11.902054
55.175 12.272445
55.180 12.169621
55.185 11.775446
55.190 11.773707
55.195 11.554392
55.200 11.454102
55.205 11.911757
55.210 11.609611
55.215 11.546247
55.220 11.434209
55.225 11.431724
55.230 12.120284
55.235 12.165887
55.240 12.322357
55.245 12.136357
55.250 12.018177
55.255 11.990322
55.260 11.604483
55.265 11.084639
55.270 11.594845
55.275 11.992519
55.280 12.22967
55.285 11.91567
55.290 11.795714
55.295 12.081319
55.300 12.026002
55.305 11.106376
55.310 10.300583
55.315 10.428797
55.320 11.436799
55.325 11.746965
55.330 11.731032
55.335 11.950746
55.340 12.670122
55.345 13.278555
55.350 13.015737
55.355 11.998412
55.360 12.064892
55.365 11.693649
55.370 11.406721
55.375 11.268085
55.380 11.350351
55.385 11.086903
55.390 11.011116
55.395 10.933357
55.400 11.05763
55.405 11.118349
55.410 11.077923
55.415 10.910111
55.420 11.553393
55.425 11.914333
55.430 12.162631
55.435 12.837493
55.440 12.602175
55.445 12.704649
55.450 12.967416
55.455 13.341546
55.460 13.172044
55.465 12.994334
55.470 12.985682
55.475 12.944632
55.480 13.14393
55.485 12.876028
55.490 11.856539
55.495 11.662624
55.500 11.630877
55.505 11.964722
55.510 12.439796
55.515 12.103312
55.520 12.283594
55.525 12.804652
55.530 12.893605
55.535 12.666344
55.540 12.465571
55.545 12.050311
55.550 12.683058
55.555 12.965233
55.560 13.775918
55.565 14.140256
55.570 14.421448
55.575 14.94403
55.580 14.885441
55.585 14.705954
55.590 14.283869
55.595 13.835815
55.600 14.128552
55.605 13.692196
55.610 13.818352
55.615 13.761059
55.620 13.258555
55.625 13.14781
55.630 12.525474
55.635 11.978331
55.640 11.90256
55.645 11.144318
55.650 11.238581
55.655 11.585914
55.660 12.109937
55.665 12.540355
55.670 12.379323
55.675 12.131944
55.680 11.976762
55.685 11.766251
55.690 11.549075
55.695 11.116426
55.700 10.735319
55.705 11.267821
55.710 11.54701
55.715 11.392199
55.720 11.390864
55.725 11.198313
55.730 11.153688
55.735 11.370586
55.740 11.182763
55.745 11.221183
55.750 11.445424
55.755 11.389157
55.760 11.223232
55.765 11.526097
55.770 11.751546
55.775 11.824657
55.780 12.142072
55.785 12.790705
55.790 12.962718
55.795 13.181523
55.800 12.747171
55.805 12.565802
55.810 12.249757
55.815 12.283619
55.820 12.391273
55.825 12.666667
55.830 13.050644
55.835 13.868637
55.840 14.132308
55.845 14.458093
55.850 14.258154
55.855 13.99321
55.860 13.557401
55.865 13.096265
55.870 12.607223
55.875 12.55569
55.880 12.679441
55.885 12.977614
55.890 13.063372
55.895 13.151481
55.900 12.946379
55.905 13.098045
55.910 13.183122
55.915 12.744596
55.920 12.369263
55.925 13.129867
55.930 13.329098
55.935 13.387788
55.940 13.624315
55.945 13.765174
55.950 13.493065
55.955 13.379859
55.960 12.85667
55.965 12.72821
55.970 12.841274
55.975 12.40417
55.980 12.075116
55.985 11.987363
55.990 11.52191
55.995 11.467237
56.000 11.83084
56.005 12.073428
56.010 12.318693
56.015 12.641055
56.020 12.825525
56.025 12.954865
56.030 13.010034
56.035 12.84488
56.040 12.685597
56.045 12.796717
56.050 12.772536
56.055 13.137319
56.060 13.569937
56.065 13.308261
56.070 13.197201
56.075 13.18756
56.080 13.359536
56.085 13.550021
56.090 13.332479
56.095 13.2744
56.100 13.41363
56.105 13.815275
56.110 14.030807
56.115 13.495811
56.120 13.512567
56.125 13.288198
56.130 13.159653
56.135 13.196602
56.140 13.093286
56.145 12.654383
56.150 12.314637
56.155 12.045714
56.160 12.146368
56.165 11.901953
56.170 12.321305
56.175 12.005469
56.180 11.920442
56.185 12.057373
56.190 12.638423
56.195 12.993278
56.200 13.230327
56.205 12.976463
56.210 13.184464
56.215 13.626096
56.220 13.926124
56.225 13.649777
56.230 13.798887
56.235 13.909375
56.240 13.644631
56.245 13.715011
56.250 13.859921
56.255 13.550234
56.260 13.467696
56.265 12.799425
56.270 12.483744
56.275 12.94515
56.280 12.51364
56.285 12.510064
56.290 12.977182
56.295 13.16931
56.300 14.126814
56.305 14.605126
56.310 14.758826
56.315 15.029556
56.320 14.772518
56.325 14.453609
56.330 14.426492
56.335 14.320054
56.340 14.089117
56.345 14.034914
56.350 14.087114
56.355 14.427405
56.360 14.079638
56.365 13.865993
56.370 13.600633
56.375 13.275562
56.380 12.957737
56.385 13.097062
56.390 13.225032
56.395 13.37338
56.400 13.720474
56.405 13.626938
56.410 13.742202
56.415 13.601875
56.420 13.589005
56.425 13.620262
56.430 13.832368
56.435 13.309992
56.440 13.530813
56.445 13.675958
56.450 13.769621
56.455 13.750793
56.460 14.205037
56.465 13.81273
56.470 13.621515
56.475 13.695428
56.480 13.958848
56.485 13.624041
56.490 13.512957
56.495 13.159818
56.500 13.348769
56.505 13.681457
56.510 13.440337
56.515 13.016184
56.520 13.365581
56.525 13.969038
56.530 13.847751
56.535 13.912337
56.540 13.724029
56.545 13.579853
56.550 14.114948
56.555 13.965198
56.560 13.333768
56.565 13.832205
56.570 13.87006
56.575 14.012316
56.580 13.787387
56.585 13.586833
56.590 14.100986
56.595 13.845482
56.600 13.371194
56.605 13.296908
56.610 13.478061
56.615 13.760062
56.620 13.521254
56.625 13.174809
56.630 13.09676
56.635 13.124339
56.640 13.133278
56.645 13.231194
56.650 13.108616
56.655 13.379337
56.660 13.713607
56.665 13.923816
56.670 14.173979
56.675 14.141986
56.680 14.168642
56.685 14.192183
56.690 13.619484
56.695 13.226574
56.700 13.330015
56.705 13.038601
56.710 12.713849
56.715 12.533469
56.720 12.107456
56.725 12.205805
56.730 12.927285
56.735 13.599685
56.740 13.654243
56.745 14.08547
56.750 14.370267
56.755 14.721653
56.760 14.969023
56.765 14.721571
56.770 14.090516
56.775 13.970469
56.780 14.037759
56.785 14.200045
56.790 14.719588
56.795 14.360105
56.800 13.744585
56.805 14.197074
56.810 14.618013
56.815 14.406434
56.820 14.29085
56.825 13.984559
56.830 14.0118
56.835 14.719902
56.840 14.572513
56.845 14.489085
56.850 14.270253
56.855 14.263351
56.860 14.033295
56.865 14.356837
56.870 14.471004
56.875 14.374306
56.880 14.405974
56.885 14.551127
56.890 14.257748
56.895 14.354965
56.900 13.78542
56.905 12.853661
56.910 12.668974
56.915 12.622429
56.920 12.936453
56.925 13.208739
56.930 13.547608
56.935 13.822486
56.940 14.096003
56.945 14.290621
56.950 13.980674
56.955 13.538357
56.960 13.13766
56.965 13.222237
56.970 13.624789
56.975 14.010666
56.980 13.541887
56.985 13.771208
56.990 13.758853
56.995 13.72294
57.000 13.635987
57.005 13.733556
57.010 14.040216
57.015 14.493239
57.020 14.816109
57.025 15.684595
57.030 15.986924
57.035 15.659488
57.040 15.506344
57.045 14.986431
57.050 15.190391
57.055 14.985525
57.060 14.282213
57.065 13.762018
57.070 13.923532
57.075 14.16433
57.080 14.035854
57.085 13.648431
57.090 13.890863
57.095 13.578189
57.100 13.567435
57.105 13.540513
57.110 13.660943
57.115 13.378025
57.120 13.234399
57.125 13.507533
57.130 14.512112
57.135 14.851659
57.140 14.699991
57.145 14.290347
57.150 15.087337
57.155 15.236042
57.160 15.179052
57.165 15.348034
57.170 15.760813
57.175 15.544154
57.180 15.7538
57.185 15.855246
57.190 15.746855
57.195 15.773377
57.200 15.6994
57.205 15.426415
57.210 15.645215
57.215 15.282181
57.220 14.999419
57.225 14.897261
57.230 14.147924
57.235 13.400901
57.240 13.408653
57.245 13.722062
57.250 13.990893
57.255 13.489281
57.260 13.331434
57.265 13.983827
57.270 14.275146
57.275 14.256854
57.280 13.727083
57.285 13.567575
57.290 13.812483
57.295 13.868033
57.300 13.549215
57.305 13.390105
57.310 13.359895
57.315 13.388163
57.320 13.62542
57.325 14.228224
57.330 14.51152
57.335 14.597607
57.340 14.709231
57.345 14.523029
57.350 14.148952
57.355 13.882465
57.360 13.502153
57.365 13.212379
57.370 13.313724
57.375 13.577562
57.380 13.782194
57.385 14.041027
57.390 14.041543
57.395 13.975192
57.400 14.168254
57.405 14.132705
57.410 14.020239
57.415 14.385997
57.420 14.597631
57.425 14.661756
57.430 14.613427
57.435 14.495913
57.440 14.183788
57.445 14.230222
57.450 14.270208
57.455 14.580504
57.460 14.535859
57.465 14.454634
57.470 14.308712
57.475 14.552598
57.480 14.077247
57.485 13.890384
57.490 13.712933
57.495 13.281017
57.500 13.413747
57.505 13.62318
57.510 13.537398
57.515 13.673099
57.520 12.890661
57.525 12.807484
57.530 13.124949
57.535 13.197908
57.540 13.210096
57.545 12.906986
57.550 12.955571
57.555 13.534738
57.560 13.805772
57.565 14.288026
57.570 14.687691
57.575 14.858951
57.580 15.332482
57.585 15.959276
57.590 16.366121
57.595 16.649372
57.600 16.013332
57.605 15.729764
57.610 15.441648
57.615 15.278734
57.620 15.034859
57.625 15.276436
57.630 15.307157
57.635 15.922688
57.640 16.190281
57.645 16.001785
57.650 15.799356
57.655 15.671595
57.660 14.897865
57.665 14.852736
57.670 14.660055
57.675 15.141214
57.680 15.403132
57.685 15.489907
57.690 15.578107
57.695 16.190945
57.700 15.829338
57.705 15.355974
57.710 14.839594
57.715 14.811677
57.720 14.653208
57.725 14.468204
57.730 14.660595
57.735 15.001125
57.740 15.149044
57.745 15.273011
57.750 15.785051
57.755 16.082998
57.760 15.990644
57.765 15.61198
57.770 15.45534
57.775 15.186338
57.780 14.751452
57.785 14.106867
57.790 14.124752
57.795 14.342214
57.800 13.941119
57.805 13.961552
57.810 13.965535
57.815 14.469594
57.820 14.810694
57.825 14.801547
57.830 14.347716
57.835 14.686765
57.840 14.687497
57.845 14.954314
57.850 14.965586
57.855 15.086625
57.860 15.233161
57.865 15.236869
57.870 15.201949
57.875 15.036682
57.880 15.162653
57.885 15.363008
57.890 14.939745
57.895 14.788047
57.900 15.30654
57.905 15.622932
57.910 15.588863
57.915 15.223135
57.920 14.749425
57.925 14.389136
57.930 14.253443
57.935 14.226045
57.940 13.850918
57.945 13.828769
57.950 13.798764
57.955 13.97206
57.960 13.913489
57.965 13.905208
57.970 13.814901
57.975 13.990441
57.980 13.925233
57.985 14.300169
57.990 14.916825
57.995 15.399751
58.000 15.481677
58.005 15.372656
58.010 15.662573
58.015 16.253906
58.020 16.085928
58.025 15.937738
58.030 15.735555
58.035 16.239372
58.040 16.908165
58.045 16.437508
58.050 16.114149
58.055 16.21159
58.060 16.224047
58.065 16.619095
58.070 16.290426
58.075 15.662267
58.080 16.107437
58.085 15.654266
58.090 15.17418
58.095 14.612156
58.100 14.23251
58.105 14.076746
58.110 13.94133
58.115 13.973733
58.120 14.343273
58.125 14.782508
58.130 14.869868
58.135 15.256264
58.140 15.328906
58.145 15.494996
58.150 14.997261
58.155 15.025506
58.160 15.088203
58.165 15.512433
58.170 15.065288
58.175 15.143518
58.180 15.351734
58.185 15.965389
58.190 15.989025
58.195 15.491292
58.200 15.576939
58.205 15.4496
58.210 15.358333
58.215 15.450713
58.220 15.478553
58.225 15.863103
58.230 15.95431
58.235 15.809513
58.240 16.379662
58.245 15.980067
58.250 15.464179
58.255 14.982577
58.260 14.612946
58.265 14.404122
58.270 14.115121
58.275 14.105958
58.280 14.252282
58.285 14.938068
58.290 14.661281
58.295 15.123355
58.300 15.615408
58.305 15.978665
58.310 16.2253
58.315 16.297266
58.320 15.805355
58.325 15.801667
58.330 15.501456
58.335 15.551309
58.340 15.270088
58.345 14.765523
58.350 14.447063
58.355 14.901529
58.360 15.46395
58.365 15.902556
58.370 15.984851
58.375 16.155268
58.380 16.532413
58.385 16.631262
58.390 16.424992
58.395 15.934033
58.400 15.797038
58.405 15.475924
58.410 15.160817
58.415 15.150217
58.420 15.230294
58.425 15.329456
58.430 15.40719
58.435 15.965015
58.440 16.803082
58.445 16.976931
58.450 17.051161
58.455 16.921089
58.460 16.861162
58.465 16.901045
58.470 16.162739
58.475 15.534863
