!@!!GADDS PLOTSO FILE: Chi integration type
!@!!Title/SampleName: map-121
!@!!Comment: ?
!@!!User: Bruker Instrument Administrator
!@!!Site: University of Illinois Chicago
!@!!Frame: map-121_01_000.gfrm
!@!!Wavelengths    1.54184   1.54056   1.54439
!@!!Frame angles: 2Theta: 63.000 Omega: 50.000 Phi: 0.000 Chi: 90.000
!@!!Integration range: 2Theta: 53.000 to 73.000  Gamma: -105.000 to -75.000
!@!!Integration method: bin normalized
!@!N
!@!SS
!@!M
!@!L 0.0 0.0 0.0 0.0
!@!XDegrees
!@!YCounts
53.000 5.316144
53.005 5.423847
53.010 5.34459
53.015 5.265365
53.020 5.052753
53.025 5.108515
53.030 5.257234
53.035 5.051906
53.040 5.064746
53.045 4.876812
53.050 4.987479
53.055 5.179057
53.060 5.213512
53.065 5.224659
53.070 5.23078
53.075 5.271843
53.080 5.179413
53.085 5.008003
53.090 4.953055
53.095 4.777652
53.100 4.660728
53.105 4.628569
53.110 4.836341
53.115 5.081196
53.120 4.918122
53.125 4.763476
53.130 4.980641
53.135 4.85786
53.140 4.578897
53.145 4.35246
53.150 4.137337
53.155 4.194155
53.160 4.22165
53.165 4.285686
53.170 4.491437
53.175 4.707323
53.180 4.921557
53.185 5.604963
53.190 5.738717
53.195 5.541908
53.200 5.131128
53.205 4.920394
53.210 4.974912
53.215 4.738058
53.220 4.295806
53.225 4.475338
53.230 4.74765
53.235 4.969395
53.240 5.253295
53.245 5.327988
53.250 5.446794
53.255 5.40293
53.260 5.153306
53.265 5.289339
53.270 5.362525
53.275 5.350821
53.280 5.204211
53.285 5.38796
53.290 5.475395
53.295 5.337798
53.300 5.18512
53.305 5.021528
53.310 5.24038
53.315 5.363784
53.320 5.277199
53.325 5.676621
53.330 5.776771
53.335 5.876476
53.340 5.903304
53.345 5.500855
53.350 5.579841
53.355 5.703143
53.360 5.525343
53.365 5.361086
53.370 5.354292
53.375 5.727847
53.380 5.770717
53.385 5.562132
53.390 4.93238
53.395 4.941276
53.400 5.235866
53.405 5.199378
53.410 4.914624
53.415 5.134587
53.420 5.416434
53.425 5.908865
53.430 5.610332
53.435 5.650709
53.440 5.635149
53.445 5.641779
53.450 5.599034
53.455 5.563221
53.460 5.731626
53.465 6.061041
53.470 6.089682
53.475 6.051255
53.480 5.863971
53.485 5.764778
53.490 5.377237
53.495 5.216335
53.500 5.245695
53.505 5.202719
53.510 5.532326
53.515 5.868621
53.520 5.812315
53.525 5.986367
53.530 5.904963
53.535 5.787185
53.540 5.790391
53.545 5.458431
53.550 5.14727
53.555 5.080901
53.560 5.161755
53.565 5.202537
53.570 4.86129
53.575 4.783647
53.580 4.80978
53.585 4.981078
53.590 5.311715
53.595 5.502802
53.600 5.449889
53.605 5.541744
53.610 5.60426
53.615 5.753272
53.620 5.87835
53.625 5.714925
53.630 5.614272
53.635 5.702407
53.640 5.73074
53.645 5.709145
53.650 5.581113
53.655 5.47014
53.660 5.255077
53.665 5.162283
53.670 5.205499
53.675 5.12028
53.680 5.078904
53.685 5.109224
53.690 4.897284
53.695 5.136213
53.700 4.907707
53.705 4.803558
53.710 4.890066
53.715 4.780952
53.720 4.846849
53.725 4.870376
53.730 4.807894
53.735 4.795987
53.740 5.072982
53.745 4.826759
53.750 4.753241
53.755 4.790041
53.760 5.090318
53.765 4.999353
53.770 5.144195
53.775 4.956462
53.780 5.059194
53.785 4.853245
53.790 4.565153
53.795 4.225121
53.800 4.433476
53.805 4.358865
53.810 4.958176
53.815 5.242214
53.820 5.457952
53.825 5.73325
53.830 5.610267
53.835 5.365869
53.840 5.079828
53.845 4.947869
53.850 4.808957
53.855 4.736391
53.860 4.690366
53.865 5.020815
53.870 5.29739
53.875 5.434658
53.880 5.291948
53.885 5.749527
53.890 6.29313
53.895 6.548744
53.900 6.657365
53.905 6.448573
53.910 6.510514
53.915 6.429823
53.920 5.86323
53.925 5.358559
53.930 5.114676
53.935 5.14102
53.940 5.109076
53.945 5.092569
53.950 5.131591
53.955 5.083168
53.960 5.131507
53.965 5.044822
53.970 4.980693
53.975 4.763605
53.980 4.651491
53.985 4.800493
53.990 4.769416
53.995 4.582025
54.000 4.467032
54.005 4.224046
54.010 4.362757
54.015 4.450222
54.020 4.73483
54.025 5.294379
54.030 5.261675
54.035 5.287159
54.040 5.174258
54.045 4.762728
54.050 4.793857
54.055 4.798645
54.060 4.532758
54.065 4.478098
54.070 4.613505
54.075 4.802445
54.080 5.275228
54.085 4.877495
54.090 4.486628
54.095 4.667334
54.100 4.71768
54.105 4.944296
54.110 5.121611
54.115 4.81079
54.120 4.725439
54.125 4.719957
54.130 4.754099
54.135 4.454997
54.140 4.359845
54.145 4.360922
54.150 4.738888
54.155 4.83111
54.160 5.09889
54.165 5.41156
54.170 5.821218
54.175 5.845582
54.180 5.868768
54.185 5.829321
54.190 6.158057
54.195 6.001015
54.200 6.094951
54.205 6.035425
54.210 6.202003
54.215 6.136712
54.220 5.964475
54.225 5.461101
54.230 5.644993
54.235 5.714128
54.240 5.83361
54.245 5.829631
54.250 5.893371
54.255 5.952011
54.260 6.125554
54.265 5.717957
54.270 5.561306
54.275 5.574002
54.280 5.284738
54.285 5.136897
54.290 5.411839
54.295 5.294283
54.300 5.206131
54.305 5.238523
54.310 5.043087
54.315 5.140351
54.320 5.106318
54.325 4.952331
54.330 4.99111
54.335 5.083632
54.340 4.934497
54.345 5.069111
54.350 5.081883
54.355 5.408462
54.360 5.444355
54.365 5.661279
54.370 5.426111
54.375 5.411016
54.380 5.378991
54.385 5.005101
54.390 4.795305
54.395 4.822527
54.400 4.807726
54.405 5.18133
54.410 5.114748
54.415 5.32413
54.420 5.51261
54.425 5.623873
54.430 5.893271
54.435 5.747939
54.440 5.80281
54.445 6.085226
54.450 5.915816
54.455 6.134731
54.460 6.070656
54.465 6.128653
54.470 6.006142
54.475 5.987172
54.480 6.262301
54.485 6.589882
54.490 6.339903
54.495 5.821751
54.500 5.636118
54.505 6.012584
54.510 5.553914
54.515 5.495365
54.520 5.350397
54.525 5.52574
54.530 5.721264
54.535 5.53348
54.540 5.553067
54.545 5.523376
54.550 5.242948
54.555 4.987753
54.560 5.274413
54.565 5.737941
54.570 5.747924
54.575 5.466682
54.580 5.246164
54.585 5.700478
54.590 6.080722
54.595 5.475736
54.600 5.253562
54.605 5.114501
54.610 5.300993
54.615 5.64134
54.620 5.595142
54.625 5.594834
54.630 6.000091
54.635 5.854999
54.640 6.239445
54.645 6.286284
54.650 6.165966
54.655 5.50006
54.660 5.235016
54.665 5.107023
54.670 5.161697
54.675 4.998404
54.680 4.58083
54.685 4.418937
54.690 4.85485
54.695 4.948409
54.700 5.25262
54.705 5.16894
54.710 4.926986
54.715 5.241429
54.720 5.122029
54.725 4.960323
54.730 4.848296
54.735 4.478731
54.740 4.500666
54.745 4.802101
54.750 5.062232
54.755 5.137681
54.760 5.117119
54.765 5.204837
54.770 5.284351
54.775 5.61343
54.780 5.685352
54.785 5.444712
54.790 5.664596
54.795 5.821542
54.800 6.053437
54.805 6.254285
54.810 6.127857
54.815 6.033707
54.820 6.046958
54.825 5.77057
54.830 5.50392
54.835 5.186517
54.840 5.221658
54.845 5.045797
54.850 5.138181
54.855 5.214002
54.860 5.40373
54.865 5.184247
54.870 5.021497
54.875 5.071755
54.880 5.200739
54.885 5.245723
54.890 5.698126
54.895 6.018098
54.900 6.294826
54.905 6.280848
54.910 5.864366
54.915 6.169751
54.920 6.355617
54.925 6.005549
54.930 5.990662
54.935 6.093805
54.940 6.285168
54.945 6.21056
54.950 5.954694
54.955 5.842802
54.960 5.604165
54.965 5.803545
54.970 5.797292
54.975 6.289457
54.980 6.810139
54.985 6.850272
54.990 6.861368
54.995 7.065129
55.000 6.659823
55.005 6.346213
55.010 5.919909
55.015 5.840862
55.020 5.689407
55.025 5.482899
55.030 5.058804
55.035 5.371478
55.040 5.760499
55.045 6.107574
55.050 5.897631
55.055 6.213274
55.060 6.515542
55.065 7.163663
55.070 7.479843
55.075 7.235468
55.080 6.842456
55.085 6.873645
55.090 6.942815
55.095 7.221452
55.100 6.585925
55.105 6.21552
55.110 6.26546
55.115 6.704154
55.120 6.33592
55.125 5.72532
55.130 5.683299
55.135 5.847156
55.140 6.082544
55.145 6.114295
55.150 5.850294
55.155 6.06744
55.160 6.148291
55.165 6.060336
55.170 6.428771
55.175 6.394276
55.180 6.204836
55.185 6.304121
55.190 6.018285
55.195 5.849876
55.200 5.56913
55.205 5.311184
55.210 5.120409
55.215 4.786437
55.220 5.106916
55.225 6.15517
55.230 6.696076
55.235 6.878523
55.240 6.669576
55.245 6.927312
55.250 7.251064
55.255 6.657722
55.260 6.0176
55.265 6.18947
55.270 6.515182
55.275 6.518792
55.280 6.733933
55.285 6.770994
55.290 6.629482
55.295 6.467334
55.300 5.659328
55.305 5.486026
55.310 5.571007
55.315 5.209203
55.320 5.345089
55.325 5.464054
55.330 6.056918
55.335 6.208173
55.340 6.025462
55.345 6.128818
55.350 6.201662
55.355 6.5363
55.360 6.481067
55.365 6.410968
55.370 6.718191
55.375 6.787475
55.380 6.656262
55.385 6.383051
55.390 6.314016
55.395 6.647895
55.400 6.709457
55.405 6.731544
55.410 6.805821
55.415 6.74853
55.420 7.20788
55.425 7.235631
55.430 7.10817
55.435 6.636833
55.440 6.737971
55.445 6.744107
55.450 6.657548
55.455 6.185964
55.460 6.224738
55.465 6.589296
55.470 6.821379
55.475 6.743219
55.480 6.732094
55.485 6.744743
55.490 6.717745
55.495 5.982509
55.500 5.3355
55.505 5.11389
55.510 5.200181
55.515 5.404055
55.520 5.52811
55.525 5.723992
55.530 5.936172
55.535 6.410248
55.540 6.492677
55.545 6.196401
55.550 6.265083
55.555 6.33712
55.560 6.53881
55.565 6.567055
55.570 6.112447
55.575 6.155448
55.580 6.323652
55.585 6.445285
55.590 6.423254
55.595 6.062003
55.600 6.033884
55.605 5.866584
55.610 6.020743
55.615 5.875566
55.620 5.698274
55.625 5.645066
55.630 5.520365
55.635 5.944137
55.640 6.20534
55.645 5.982082
55.650 5.842002
55.655 5.920412
55.660 6.133298
55.665 6.118554
55.670 5.807276
55.675 5.849179
55.680 5.883749
55.685 5.603481
55.690 5.347287
55.695 5.019044
55.700 4.993361
55.705 4.948741
55.710 5.162001
55.715 5.445688
55.720 5.305698
55.725 5.31656
55.730 5.708575
55.735 6.101375
55.740 6.036228
55.745 5.814139
55.750 5.864443
55.755 5.910044
55.760 6.170147
55.765 6.134542
55.770 6.03119
55.775 6.209196
55.780 6.421935
55.785 6.647905
55.790 6.746778
55.795 6.759182
55.800 6.971966
55.805 6.77352
55.810 6.074012
55.815 5.903886
55.820 5.906318
55.825 5.901561
55.830 5.695214
55.835 5.534941
55.840 6.07195
55.845 6.51579
55.850 6.740083
55.855 7.005898
55.860 7.322505
55.865 7.136276
55.870 7.064994
55.875 7.262825
55.880 7.236444
55.885 6.966866
55.890 6.332243
55.895 6.183083
55.900 6.248508
55.905 5.696236
55.910 5.505641
55.915 5.67585
55.920 5.812294
55.925 6.213689
55.930 6.079671
55.935 6.191661
55.940 6.41395
55.945 6.134732
55.950 5.863395
55.955 6.000303
55.960 5.735721
55.965 5.794376
55.970 6.235841
55.975 6.51461
55.980 6.601703
55.985 6.645106
55.990 6.488276
55.995 6.766041
56.000 6.873066
56.005 6.39797
56.010 6.13815
56.015 6.019804
56.020 5.908808
56.025 5.497791
56.030 5.298638
56.035 5.25128
56.040 5.01844
56.045 5.154642
56.050 5.297761
56.055 5.800233
56.060 6.109968
56.065 6.206209
56.070 6.120112
56.075 6.600084
56.080 6.797037
56.085 6.287351
56.090 6.101428
56.095 6.171846
56.100 6.531093
56.105 6.712052
56.110 6.509311
56.115 6.316438
56.120 6.427347
56.125 6.509645
56.130 6.323174
56.135 5.999482
56.140 5.980929
56.145 5.580965
56.150 5.635118
56.155 5.977432
56.160 6.19531
56.165 5.948435
56.170 5.64911
56.175 5.646568
56.180 5.977812
56.185 6.302127
56.190 6.000869
56.195 5.920058
56.200 6.470442
56.205 6.518209
56.210 6.55451
56.215 6.495961
56.220 6.719189
56.225 7.025911
56.230 7.279388
56.235 7.517836
56.240 7.66362
56.245 7.852559
56.250 7.931707
56.255 7.790043
56.260 7.698729
56.265 7.776027
56.270 7.538662
56.275 7.454222
56.280 7.472194
56.285 7.426202
56.290 7.402394
56.295 7.175672
56.300 7.040703
56.305 7.28876
56.310 7.303621
56.315 7.271613
56.320 7.299948
56.325 7.714583
56.330 8.015686
56.335 7.897813
56.340 7.706252
56.345 7.593474
56.350 7.52203
56.355 7.310179
56.360 6.642374
56.365 6.661034
56.370 6.837353
56.375 7.077959
56.380 6.750877
56.385 6.52305
56.390 6.431359
56.395 6.347986
56.400 6.110697
56.405 6.159547
56.410 6.143972
56.415 6.238369
56.420 6.323587
56.425 6.562736
56.430 6.940199
56.435 6.831027
56.440 6.464551
56.445 6.432158
56.450 6.885838
56.455 7.547336
56.460 7.474063
56.465 7.158235
56.470 7.231764
56.475 7.446387
56.480 7.324969
56.485 7.097348
56.490 7.007986
56.495 7.009351
56.500 7.041612
56.505 7.335588
56.510 7.398542
56.515 7.541975
56.520 7.412807
56.525 6.954101
56.530 7.06289
56.535 7.122815
56.540 6.793316
56.545 7.129383
56.550 7.647842
56.555 7.935916
56.560 8.523372
56.565 8.817092
56.570 9.048361
56.575 9.337402
56.580 9.240273
56.585 8.512193
56.590 8.08327
56.595 7.400659
56.600 6.774225
56.605 6.640491
56.610 6.404794
56.615 6.098382
56.620 6.403467
56.625 6.309918
56.630 6.362614
56.635 6.429028
56.640 6.516637
56.645 6.133466
56.650 5.779155
56.655 5.835732
56.660 5.999506
56.665 5.889831
56.670 6.019198
56.675 5.835901
56.680 6.010747
56.685 6.444702
56.690 6.824973
56.695 7.121796
56.700 7.5136
56.705 7.552575
56.710 7.765256
56.715 7.890502
56.720 7.512655
56.725 7.121616
56.730 7.00931
56.735 7.058733
56.740 7.209413
56.745 7.455935
56.750 7.450455
56.755 7.696342
56.760 7.992975
56.765 8.206735
56.770 8.091784
56.775 8.124814
56.780 8.012598
56.785 8.145279
56.790 8.017603
56.795 7.477351
56.800 7.320646
56.805 7.051016
56.810 7.159438
56.815 7.039281
56.820 7.113588
56.825 7.133133
56.830 7.134293
56.835 6.760466
56.840 6.822081
56.845 6.583105
56.850 6.501503
56.855 6.310078
56.860 6.323632
56.865 6.618383
56.870 6.971014
56.875 6.756462
56.880 6.645971
56.885 6.739449
56.890 6.798758
56.895 6.62425
56.900 6.451323
56.905 6.177712
56.910 5.935407
56.915 6.007974
56.920 5.761951
56.925 5.721162
56.930 5.852478
56.935 5.730558
56.940 5.629453
56.945 6.200191
56.950 6.329317
56.955 6.389057
56.960 6.516551
56.965 6.650984
56.970 6.786868
56.975 7.380206
56.980 7.195339
56.985 7.086797
56.990 7.624941
56.995 7.712561
57.000 7.473855
57.005 7.476818
57.010 7.020857
57.015 6.905469
57.020 6.84326
57.025 6.980216
57.030 7.103389
57.035 7.574479
57.040 7.632019
57.045 8.060762
57.050 8.650521
57.055 8.436392
57.060 8.053684
57.065 7.854001
57.070 7.460824
57.075 7.087986
57.080 6.475007
57.085 6.121979
57.090 5.851677
57.095 5.46311
57.100 5.303382
57.105 5.384682
57.110 5.978561
57.115 5.9648
57.120 6.171033
57.125 6.751634
57.130 7.060076
57.135 7.193149
57.140 7.081347
57.145 6.985133
57.150 7.087252
57.155 6.948396
57.160 6.781704
57.165 6.613757
57.170 6.510832
57.175 6.430264
57.180 6.095815
57.185 5.811099
57.190 5.396518
57.195 5.228065
57.200 5.603518
57.205 5.908872
57.210 5.646275
57.215 5.597497
57.220 5.870999
57.225 5.971241
57.230 5.989004
57.235 5.948275
57.240 6.003508
57.245 6.41143
57.250 6.571853
57.255 6.862668
57.260 7.162428
57.265 7.28486
57.270 7.062436
57.275 7.24037
57.280 8.041041
57.285 7.968887
57.290 7.829526
57.295 7.578839
57.300 7.601093
57.305 7.728333
57.310 7.104575
57.315 6.348011
57.320 6.492785
57.325 6.520167
57.330 6.690006
57.335 6.862847
57.340 6.556054
57.345 6.514137
57.350 6.324795
57.355 6.274984
57.360 6.435172
57.365 6.418302
57.370 6.087976
57.375 6.491243
57.380 6.751524
57.385 6.648152
57.390 6.61007
57.395 6.823499
57.400 6.620863
57.405 6.749347
57.410 6.53597
57.415 6.836027
57.420 6.950385
57.425 6.886057
57.430 6.662618
57.435 6.773609
57.440 6.709926
57.445 6.771235
57.450 6.766224
57.455 7.06758
57.460 7.140811
57.465 6.734345
57.470 6.582791
57.475 6.744599
57.480 7.192661
57.485 6.961818
57.490 6.776772
57.495 6.613087
57.500 7.208217
57.505 7.843558
57.510 7.562428
57.515 6.602422
57.520 6.768944
57.525 6.755987
57.530 6.770089
57.535 6.912589
57.540 6.66654
57.545 6.773485
57.550 7.172028
57.555 7.175953
57.560 7.311512
57.565 7.185967
57.570 6.840779
57.575 6.325913
57.580 6.200448
57.585 6.202085
57.590 6.162932
57.595 6.563769
57.600 6.645045
57.605 6.720023
57.610 7.714063
57.615 8.278066
57.620 8.328767
57.625 8.186165
57.630 7.620909
57.635 8.036753
57.640 7.71362
57.645 6.906025
57.650 6.279392
57.655 6.403899
57.660 6.984888
57.665 7.349056
57.670 6.694366
57.675 6.754725
57.680 6.916095
57.685 7.209834
57.690 7.254897
57.695 6.845603
57.700 7.070613
57.705 7.512206
57.710 7.619928
57.715 7.664863
57.720 7.578612
57.725 7.325145
57.730 7.30007
57.735 6.912457
57.740 6.917602
57.745 6.741939
57.750 6.678252
57.755 6.577894
57.760 6.62833
57.765 6.371996
57.770 6.244525
57.775 6.139884
57.780 6.248153
57.785 6.187015
57.790 6.396791
57.795 6.629879
57.800 6.937997
57.805 7.229148
57.810 7.480612
57.815 7.611415
57.820 7.591871
57.825 7.153965
57.830 7.082305
57.835 6.898207
57.840 6.643116
57.845 6.514747
57.850 6.67405
57.855 6.658176
57.860 6.761571
57.865 6.778459
57.870 6.759736
57.875 6.848295
57.880 6.497179
57.885 6.454696
57.890 6.600403
57.895 6.380138
57.900 6.477597
57.905 6.587694
57.910 6.648253
57.915 6.774912
57.920 7.017654
57.925 7.350729
57.930 7.49438
57.935 7.266639
57.940 7.199887
57.945 7.20805
57.950 6.929725
57.955 6.62348
57.960 6.459291
57.965 6.276253
57.970 5.908266
57.975 5.655926
57.980 5.690241
57.985 5.970249
57.990 5.635158
57.995 5.680395
58.000 6.118939
58.005 6.795956
58.010 7.277514
58.015 7.257548
58.020 7.371728
58.025 7.550228
58.030 7.840781
58.035 7.678363
58.040 7.79243
58.045 7.523842
58.050 7.430657
58.055 7.723056
58.060 7.682803
58.065 7.280843
58.070 7.257201
58.075 6.708128
58.080 7.137364
58.085 7.165969
58.090 6.8641
58.095 6.98504
58.100 7.124276
58.105 7.223596
58.110 7.261787
58.115 7.012696
58.120 6.955206
58.125 6.818741
58.130 6.670926
58.135 6.495406
58.140 6.517848
58.145 6.591444
58.150 6.216667
58.155 6.279824
58.160 6.361885
58.165 6.298234
58.170 6.433113
58.175 6.483387
58.180 6.683808
58.185 6.663126
58.190 6.648625
58.195 6.783982
58.200 6.914605
58.205 7.003043
58.210 7.055812
58.215 7.052202
58.220 7.405148
58.225 7.504856
58.230 7.332067
58.235 7.211874
58.240 7.206561
58.245 7.199382
58.250 7.159766
58.255 7.326933
58.260 7.695708
58.265 7.94943
58.270 8.074058
58.275 7.928409
58.280 7.619326
58.285 7.438453
58.290 7.096003
58.295 6.386243
58.300 5.858015
58.305 5.499284
58.310 5.484697
58.315 5.434453
58.320 5.394509
58.325 5.23197
58.330 5.399161
58.335 5.827903
58.340 5.785263
58.345 5.701218
58.350 6.040457
58.355 6.215076
58.360 6.391479
58.365 6.581574
58.370 6.630337
58.375 7.304048
58.380 7.311099
58.385 7.132934
58.390 7.158072
58.395 6.733638
58.400 6.61184
58.405 6.531053
58.410 6.24581
58.415 6.563194
58.420 6.652862
58.425 6.506685
58.430 6.888002
58.435 7.282751
58.440 7.082794
58.445 6.762202
58.450 6.506875
58.455 6.581373
58.460 6.766991
58.465 6.570453
58.470 6.337892
58.475 6.337245
58.480 6.357631
58.485 6.365171
58.490 6.611643
58.495 6.930246
58.500 7.066265
58.505 7.456793
58.510 7.754301
58.515 7.974741
58.520 7.74726
58.525 7.21575
58.530 7.359945
58.535 7.380061
58.540 7.057565
58.545 7.108937
58.550 7.051495
58.555 7.417121
58.560 7.67064
58.565 7.333354
58.570 7.140732
58.575 7.134
58.580 7.33732
58.585 7.597548
58.590 7.643703
58.595 7.798599
58.600 7.769568
58.605 7.914528
58.610 7.909066
58.615 7.444256
58.620 7.217333
58.625 7.453979
58.630 7.556583
58.635 7.579566
58.640 7.398299
58.645 7.542263
58.650 7.960199
58.655 8.238573
58.660 8.085301
58.665 7.715559
58.670 7.947075
58.675 8.49729
58.680 8.802594
58.685 8.563776
58.690 8.416503
58.695 8.519669
58.700 8.592385
58.705 8.338737
58.710 7.972178
58.715 7.539298
58.720 7.811955
58.725 7.759941
58.730 7.730066
58.735 7.900135
58.740 7.902867
58.745 7.733774
58.750 7.74531
58.755 7.54435
58.760 7.691261
58.765 7.6264
