!@!!GADDS PLOTSO FILE: Chi integration type
!@!!Title/SampleName: map-11e
!@!!Comment: ?
!@!!User: Bruker Instrument Administrator
!@!!Site: University of Illinois Chicago
!@!!Frame: map-11e_01_000.gfrm
!@!!Wavelengths    1.54184   1.54056   1.54439
!@!!Frame angles: 2Theta: 63.000 Omega: 50.000 Phi: 0.000 Chi: 90.000
!@!!Integration range: 2Theta: 53.000 to 73.000  Gamma: -105.000 to -75.000
!@!!Integration method: bin normalized
!@!N
!@!SS
!@!M
!@!L 0.0 0.0 0.0 0.0
!@!XDegrees
!@!YCounts
53.000 7.88117
53.005 8.000829
53.010 8.289145
53.015 8.162982
53.020 8.303566
53.025 8.300669
53.030 7.955359
53.035 8.139383
53.040 8.111515
53.045 7.884871
53.050 7.83291
53.055 8.281638
53.060 8.408252
53.065 8.851334
53.070 8.906118
53.075 9.173487
53.080 9.426075
53.085 9.513811
53.090 9.017319
53.095 9.072702
53.100 9.031205
53.105 9.195315
53.110 9.345355
53.115 9.326865
53.120 9.324762
53.125 9.790071
53.130 10.090227
53.135 9.747427
53.140 9.394367
53.145 9.051166
53.150 9.124816
53.155 8.297583
53.160 7.905587
53.165 7.912762
53.170 8.134535
53.175 7.971361
53.180 7.988131
53.185 8.187344
53.190 8.708806
53.195 8.602849
53.200 8.759169
53.205 8.86115
53.210 9.606064
53.215 10.072254
53.220 10.560081
53.225 10.283067
53.230 10.261858
53.235 10.15386
53.240 10.175269
53.245 9.453596
53.250 9.404118
53.255 9.47719
53.260 9.493275
53.265 9.413214
53.270 9.578757
53.275 9.608827
53.280 9.424087
53.285 9.199787
53.290 9.229759
53.295 9.282605
53.300 9.224659
53.305 8.923391
53.310 8.84838
53.315 8.865491
53.320 9.113265
53.325 9.402843
53.330 9.300795
53.335 9.108554
53.340 9.096619
53.345 9.25821
53.350 9.106443
53.355 8.679622
53.360 8.52807
53.365 9.10181
53.370 9.450007
53.375 9.619785
53.380 9.647122
53.385 9.791361
53.390 9.7536
53.395 9.959708
53.400 9.658583
53.405 9.333555
53.410 8.684975
53.415 8.882594
53.420 8.699754
53.425 8.433863
53.430 8.074034
53.435 7.579792
53.440 7.688219
53.445 7.516092
53.450 7.049431
53.455 7.124327
53.460 7.043355
53.465 7.248614
53.470 7.566274
53.475 8.056394
53.480 8.287601
53.485 8.230322
53.490 8.087245
53.495 7.969092
53.500 8.063049
53.505 7.795823
53.510 7.554672
53.515 8.030967
53.520 8.615531
53.525 8.660147
53.530 8.384584
53.535 8.613935
53.540 8.493961
53.545 8.721229
53.550 8.225046
53.555 7.955051
53.560 8.195295
53.565 8.286627
53.570 8.044621
53.575 8.076961
53.580 8.286074
53.585 8.430196
53.590 8.764935
53.595 8.91206
53.600 9.288412
53.605 9.82959
53.610 9.790045
53.615 9.746959
53.620 9.557466
53.625 9.121804
53.630 8.951686
53.635 9.092416
53.640 9.345882
53.645 9.415617
53.650 8.971034
53.655 8.948846
53.660 9.213775
53.665 9.140843
53.670 8.885396
53.675 8.329545
53.680 8.126386
53.685 8.436239
53.690 8.423534
53.695 8.495398
53.700 8.583429
53.705 8.359463
53.710 8.598849
53.715 8.862727
53.720 9.150704
53.725 9.168771
53.730 8.917733
53.735 8.796988
53.740 8.666059
53.745 8.816548
53.750 8.820662
53.755 8.821923
53.760 8.781445
53.765 9.385545
53.770 9.353894
53.775 9.764895
53.780 10.084757
53.785 10.541016
53.790 10.66765
53.795 10.64417
53.800 10.063648
53.805 9.849573
53.810 9.789952
53.815 9.81707
53.820 9.590985
53.825 9.529639
53.830 9.879432
53.835 10.645187
53.840 10.484281
53.845 10.090294
53.850 9.518185
53.855 9.106852
53.860 8.852887
53.865 8.830595
53.870 8.750577
53.875 9.059182
53.880 9.323231
53.885 9.916836
53.890 10.111883
53.895 9.520888
53.900 9.313248
53.905 9.355719
53.910 9.731235
53.915 9.600333
53.920 9.272333
53.925 9.401966
53.930 10.123976
53.935 10.02313
53.940 9.596711
53.945 9.221716
53.950 9.273048
53.955 9.126693
53.960 8.785369
53.965 8.585275
53.970 8.865717
53.975 9.134281
53.980 8.938727
53.985 9.032372
53.990 9.112306
53.995 9.117864
54.000 8.975955
54.005 8.707384
54.010 8.650843
54.015 8.811834
54.020 8.528279
54.025 8.678926
54.030 9.287798
54.035 9.559011
54.040 9.341878
54.045 9.512567
54.050 9.391305
54.055 9.453443
54.060 9.476778
54.065 9.041842
54.070 9.160969
54.075 9.328454
54.080 9.411184
54.085 9.755468
54.090 9.851969
54.095 10.024819
54.100 10.410531
54.105 10.448077
54.110 10.824085
54.115 10.807546
54.120 10.464845
54.125 10.39731
54.130 9.779281
54.135 9.096705
54.140 8.495825
54.145 8.333869
54.150 8.099501
54.155 8.197016
54.160 8.152632
54.165 8.728674
54.170 9.311062
54.175 9.286642
54.180 9.227659
54.185 9.378977
54.190 9.345016
54.195 9.425127
54.200 9.272374
54.205 9.181724
54.210 9.231428
54.215 8.776638
54.220 8.711951
54.225 8.744122
54.230 8.620791
54.235 8.684203
54.240 8.631512
54.245 8.706127
54.250 8.765776
54.255 8.961387
54.260 9.245133
54.265 9.421505
54.270 9.435271
54.275 9.436877
54.280 9.764428
54.285 10.112786
54.290 10.090547
54.295 10.102944
54.300 10.346968
54.305 10.621333
54.310 10.999104
54.315 11.223604
54.320 11.305042
54.325 11.078635
54.330 10.754905
54.335 10.258199
54.340 9.957848
54.345 9.417593
54.350 9.410879
54.355 9.454607
54.360 9.256653
54.365 9.680007
54.370 9.929113
54.375 9.822412
54.380 10.503522
54.385 10.76554
54.390 11.388067
54.395 11.528099
54.400 10.974424
54.405 10.78735
54.410 10.946184
54.415 10.452427
54.420 9.696493
54.425 9.281661
54.430 9.468365
54.435 10.078469
54.440 10.049136
54.445 10.117316
54.450 10.01248
54.455 9.900365
54.460 10.005109
54.465 9.970863
54.470 9.899876
54.475 9.735461
54.480 9.38763
54.485 9.511786
54.490 9.706714
54.495 9.804643
54.500 9.516656
54.505 9.066451
54.510 9.079531
54.515 9.135764
54.520 9.340404
54.525 9.730847
54.530 9.990273
54.535 9.912156
54.540 10.103621
54.545 10.324493
54.550 10.587987
54.555 10.858051
54.560 10.402964
54.565 10.594329
54.570 11.178114
54.575 10.991747
54.580 11.067526
54.585 10.70645
54.590 10.212466
54.595 10.047342
54.600 9.457261
54.605 9.341161
54.610 9.799975
54.615 9.265937
54.620 8.949032
54.625 9.100132
54.630 9.308487
54.635 9.657543
54.640 9.258926
54.645 8.999336
54.650 9.414206
54.655 9.288007
54.660 9.262727
54.665 9.255625
54.670 9.276525
54.675 9.611217
54.680 9.875723
54.685 10.184365
54.690 10.774075
54.695 10.766498
54.700 10.574241
54.705 10.525183
54.710 10.287968
54.715 10.199568
54.720 9.980862
54.725 9.665118
54.730 9.488255
54.735 9.532345
54.740 9.622811
54.745 9.687947
54.750 9.349678
54.755 9.099926
54.760 9.182995
54.765 9.311219
54.770 9.452443
54.775 9.307434
54.780 9.05925
54.785 9.015007
54.790 9.064438
54.795 8.68986
54.800 8.575033
54.805 8.468153
54.810 8.313404
54.815 8.878393
54.820 8.986547
54.825 9.275561
54.830 9.688078
54.835 10.079574
54.840 9.924818
54.845 10.462975
54.850 10.484741
54.855 10.710371
54.860 10.613686
54.865 10.367963
54.870 10.408804
54.875 10.878466
54.880 10.869716
54.885 10.599895
54.890 10.594452
54.895 10.356742
54.900 10.116001
54.905 9.720302
54.910 9.406667
54.915 9.157677
54.920 9.422854
54.925 9.236289
54.930 9.309815
54.935 9.425404
54.940 9.381378
54.945 9.474181
54.950 9.378801
54.955 9.444655
54.960 9.720286
54.965 9.943486
54.970 9.999249
54.975 10.095183
54.980 10.248583
54.985 10.306318
54.990 10.294047
54.995 10.336503
55.000 9.825932
55.005 9.987387
55.010 10.392235
55.015 10.478218
55.020 10.742124
55.025 10.576528
55.030 10.424052
55.035 10.546163
55.040 9.734135
55.045 9.296255
55.050 9.463009
55.055 9.325483
55.060 9.764353
55.065 10.032074
55.070 10.357831
55.075 11.010414
55.080 11.096874
55.085 10.917583
55.090 10.722728
55.095 10.548553
55.100 10.661768
55.105 10.742801
55.110 10.807569
55.115 10.679541
55.120 10.175673
55.125 10.248942
55.130 9.545983
55.135 9.038774
55.140 8.888428
55.145 8.61067
55.150 8.743883
55.155 9.430384
55.160 9.689916
55.165 10.03207
55.170 10.014094
55.175 9.880839
55.180 10.207965
55.185 9.995722
55.190 9.183393
55.195 8.918482
55.200 8.820358
55.205 8.877994
55.210 8.377282
55.215 8.146016
55.220 8.285403
55.225 8.629301
55.230 8.818216
55.235 9.484917
55.240 9.639827
55.245 10.108305
55.250 10.432603
55.255 10.424293
55.260 10.614126
55.265 10.79778
55.270 10.723097
55.275 11.172693
55.280 11.275037
55.285 10.68588
55.290 10.763652
55.295 10.662112
55.300 10.583079
55.305 10.371281
55.310 10.332791
55.315 10.460203
55.320 10.744979
55.325 10.918127
55.330 10.85686
55.335 10.679934
55.340 10.507278
55.345 10.035685
55.350 9.832027
55.355 10.072729
55.360 9.702323
55.365 9.760549
55.370 10.00876
55.375 10.486159
55.380 10.766461
55.385 10.600145
55.390 10.335746
55.395 10.529968
55.400 10.436197
55.405 10.524426
55.410 10.194715
55.415 10.324409
55.420 10.125885
55.425 10.129029
55.430 10.054333
55.435 9.509482
55.440 9.261219
55.445 8.869348
55.450 8.544666
55.455 9.007205
55.460 8.951048
55.465 9.342587
55.470 10.080682
55.475 9.885568
55.480 10.330246
55.485 10.635519
55.490 10.748833
55.495 10.809526
55.500 10.875188
55.505 10.994576
55.510 11.520988
55.515 11.586989
55.520 11.336782
55.525 10.931857
55.530 10.689092
55.535 10.42725
55.540 9.657285
55.545 8.78157
55.550 8.841106
55.555 9.156953
55.560 9.084864
55.565 9.157456
55.570 9.579725
55.575 10.18019
55.580 10.845756
55.585 11.039615
55.590 11.227382
55.595 11.628814
55.600 11.270531
55.605 11.261192
55.610 10.971931
55.615 10.446838
55.620 10.443588
55.625 10.771597
55.630 11.003901
55.635 11.040909
55.640 10.947084
55.645 10.874487
55.650 10.950598
55.655 10.578257
55.660 10.118953
55.665 9.933917
55.670 9.663713
55.675 9.535398
55.680 9.888552
55.685 10.239299
55.690 10.512654
55.695 10.465109
55.700 10.227127
55.705 10.504397
55.710 10.61349
55.715 10.654327
55.720 10.588565
55.725 10.442038
55.730 10.639297
55.735 11.23323
55.740 11.193185
55.745 11.037246
55.750 10.744869
55.755 10.420301
55.760 10.495641
55.765 10.969099
55.770 10.986795
55.775 11.033553
55.780 10.94115
55.785 10.998398
55.790 11.174424
55.795 11.147557
55.800 11.083055
55.805 10.877599
55.810 11.313174
55.815 11.356537
55.820 11.516052
55.825 11.417258
55.830 11.258021
55.835 11.639463
55.840 11.912782
55.845 11.783222
55.850 12.405265
55.855 12.215496
55.860 12.075285
55.865 12.072683
55.870 11.365183
55.875 10.870176
55.880 10.52373
55.885 10.438959
55.890 10.641842
55.895 10.502504
55.900 10.208175
55.905 10.70056
55.910 11.29543
55.915 10.923078
55.920 10.977454
55.925 10.786824
55.930 11.104583
55.935 11.465947
55.940 11.389174
55.945 11.744964
55.950 12.154794
55.955 11.777124
55.960 11.709881
55.965 11.140726
55.970 10.920826
55.975 10.91182
55.980 10.472858
55.985 10.386755
55.990 10.469624
55.995 10.361468
56.000 10.154461
56.005 9.671931
56.010 9.09828
56.015 9.329384
56.020 9.500867
56.025 9.478088
56.030 9.495519
56.035 10.124203
56.040 10.719437
56.045 11.115846
56.050 10.74685
56.055 10.574472
56.060 10.707196
56.065 10.593549
56.070 10.282689
56.075 9.913533
56.080 9.660517
56.085 9.826402
56.090 9.694982
56.095 9.959405
56.100 9.948139
56.105 9.356027
56.110 9.65738
56.115 9.753678
56.120 9.51074
56.125 9.540763
56.130 9.576475
56.135 9.937923
56.140 10.426345
56.145 10.474741
56.150 10.704426
56.155 11.087887
56.160 11.150422
56.165 10.930613
56.170 10.86583
56.175 11.025625
56.180 10.76811
56.185 10.705265
56.190 10.750704
56.195 10.552579
56.200 10.501979
56.205 10.41841
56.210 10.001684
56.215 9.922097
56.220 9.626751
56.225 10.024433
56.230 10.722345
56.235 11.129004
56.240 11.551464
56.245 12.224607
56.250 12.411235
56.255 12.423978
56.260 12.236079
56.265 12.199531
56.270 11.841199
56.275 11.523479
56.280 11.225547
56.285 11.203953
56.290 11.556487
56.295 11.235331
56.300 11.323557
56.305 11.667251
56.310 11.5086
56.315 11.577704
56.320 11.71132
56.325 11.509381
56.330 11.241005
56.335 10.889674
56.340 10.614284
56.345 10.795458
56.350 10.656045
56.355 10.267046
56.360 9.981647
56.365 10.096541
56.370 10.205037
56.375 10.288722
56.380 9.789926
56.385 9.579589
56.390 9.866209
56.395 10.171497
56.400 10.139421
56.405 10.207746
56.410 9.977905
56.415 10.629354
56.420 11.070794
56.425 11.309225
56.430 11.325632
56.435 11.578905
56.440 12.079866
56.445 12.282601
56.450 11.832761
56.455 11.291532
56.460 11.087404
56.465 10.983778
56.470 11.150541
56.475 11.118486
56.480 11.13687
56.485 11.405835
56.490 12.167417
56.495 12.14165
56.500 12.205179
56.505 11.688879
56.510 11.512655
56.515 11.600295
56.520 11.795673
56.525 11.472156
56.530 11.304625
56.535 11.237848
56.540 11.010194
56.545 10.915674
56.550 11.110971
56.555 10.850879
56.560 11.082412
56.565 11.461212
56.570 11.272689
56.575 11.631518
56.580 12.032093
56.585 12.276495
56.590 12.605575
56.595 12.88407
56.600 13.098413
56.605 12.923433
56.610 12.598462
56.615 12.322256
56.620 12.046278
56.625 11.935572
56.630 11.693951
56.635 11.642126
56.640 11.878891
56.645 12.190861
56.650 12.029236
56.655 12.28136
56.660 12.074686
56.665 12.675548
56.670 12.619119
56.675 12.983047
56.680 12.682483
56.685 12.929214
56.690 13.135522
56.695 12.689898
56.700 12.187908
56.705 11.959559
56.710 11.829515
56.715 12.123645
56.720 12.245353
56.725 12.42412
56.730 12.860796
56.735 12.815605
56.740 13.258321
56.745 13.231396
56.750 12.912781
56.755 12.341389
56.760 11.401571
56.765 10.7947
56.770 10.825222
56.775 10.460712
56.780 10.456659
56.785 10.754278
56.790 10.625878
56.795 10.503932
56.800 10.753083
56.805 10.570193
56.810 10.552262
56.815 10.234695
56.820 9.892649
56.825 10.441282
56.830 10.773021
56.835 10.478211
56.840 10.552882
56.845 10.838661
56.850 11.051119
56.855 10.975937
56.860 10.649201
56.865 10.544062
56.870 10.751892
56.875 10.499922
56.880 10.861146
56.885 11.012389
56.890 11.207579
56.895 11.403404
56.900 11.225266
56.905 11.541372
56.910 11.552259
56.915 10.977496
56.920 10.986712
56.925 11.12063
56.930 11.204512
56.935 11.355505
56.940 11.703011
56.945 12.330371
56.950 12.455814
56.955 11.972655
56.960 11.70963
56.965 11.535456
56.970 11.561822
56.975 10.948782
56.980 10.749198
56.985 10.89628
56.990 11.206178
56.995 11.602828
57.000 11.360576
57.005 10.710106
57.010 10.890527
57.015 11.307686
57.020 11.059182
57.025 11.268397
57.030 10.953123
57.035 11.131119
57.040 11.565818
57.045 11.404485
57.050 11.252215
57.055 11.525684
57.060 11.338168
57.065 11.976966
57.070 12.527074
57.075 13.053366
57.080 13.022122
57.085 12.351962
57.090 12.313274
57.095 12.360636
57.100 11.741611
57.105 11.102275
57.110 10.790701
57.115 10.836708
57.120 11.159714
57.125 11.034809
57.130 10.858802
57.135 10.905704
57.140 11.281367
57.145 11.38748
57.150 11.415455
57.155 11.690533
57.160 12.182262
57.165 12.672221
57.170 13.130579
57.175 13.328918
57.180 13.776147
57.185 13.934943
57.190 13.804944
57.195 13.554928
57.200 13.501578
57.205 13.180511
57.210 12.455013
57.215 11.457321
57.220 11.16064
57.225 11.443667
57.230 11.294004
57.235 11.164711
57.240 11.270393
57.245 11.441289
57.250 11.835116
57.255 12.090832
57.260 11.774397
57.265 11.757946
57.270 11.137197
57.275 10.891406
57.280 10.666676
57.285 10.726447
57.290 10.847306
57.295 10.792994
57.300 10.756427
57.305 11.316912
57.310 11.794038
57.315 11.923369
57.320 11.952611
57.325 11.85767
57.330 11.906184
57.335 12.379578
57.340 12.506447
57.345 12.455728
57.350 12.370984
57.355 12.273275
57.360 12.334064
57.365 12.709142
57.370 12.684037
57.375 13.018579
57.380 13.816512
57.385 14.270341
57.390 14.152303
57.395 13.886328
57.400 13.564563
57.405 13.092435
57.410 12.220244
57.415 11.535014
57.420 11.231835
57.425 11.193776
57.430 11.60113
57.435 12.18715
57.440 12.797089
57.445 13.159757
57.450 13.42741
57.455 13.728492
57.460 13.886399
57.465 14.052231
57.470 13.548789
57.475 13.275103
57.480 13.43921
57.485 13.340941
57.490 13.721983
57.495 13.843896
57.500 13.700571
57.505 14.004793
57.510 14.033007
57.515 13.661548
57.520 13.505141
57.525 13.268925
57.530 13.119609
57.535 13.020722
57.540 13.000545
57.545 13.184717
57.550 13.261981
57.555 13.05219
57.560 13.109706
57.565 12.899814
57.570 13.348152
57.575 13.102527
57.580 12.75184
57.585 12.848274
57.590 13.430807
57.595 13.020577
57.600 13.015999
57.605 12.643641
57.610 12.588315
57.615 12.708318
57.620 12.624871
57.625 11.986701
57.630 12.07502
57.635 11.682672
57.640 11.545886
57.645 11.710379
57.650 11.760976
57.655 12.31299
57.660 12.837379
57.665 13.377066
57.670 13.342984
57.675 13.377412
57.680 13.153964
57.685 13.146255
57.690 12.700716
57.695 12.19022
57.700 12.037615
57.705 12.455039
57.710 12.298337
57.715 12.436106
57.720 12.363564
57.725 12.94553
57.730 13.411025
57.735 13.005537
57.740 12.906459
57.745 12.489759
57.750 12.221745
57.755 12.2471
57.760 11.660694
57.765 11.748663
57.770 11.625395
57.775 11.840431
57.780 12.600863
57.785 12.592233
57.790 12.041558
57.795 11.884469
57.800 11.742884
57.805 11.904103
57.810 11.493937
57.815 11.487097
57.820 11.674094
57.825 12.321712
57.830 12.634412
57.835 12.743846
57.840 12.897834
57.845 13.275223
57.850 13.345529
57.855 13.651389
57.860 13.484295
57.865 13.239674
57.870 13.25584
57.875 12.94045
57.880 12.921193
57.885 12.546897
57.890 12.744617
57.895 12.692422
57.900 12.577384
57.905 12.648629
57.910 12.900825
57.915 12.867738
57.920 13.213108
57.925 12.947892
57.930 12.768204
57.935 12.918223
57.940 12.914204
57.945 12.84659
57.950 13.216539
57.955 13.001459
57.960 12.971334
57.965 13.602125
57.970 13.774212
57.975 14.004774
57.980 14.174935
57.985 13.876209
57.990 14.10929
57.995 14.224089
58.000 13.748655
58.005 13.24579
58.010 13.067089
58.015 12.670464
58.020 12.597108
58.025 12.478051
58.030 12.729367
58.035 12.967429
58.040 12.981673
58.045 13.223321
58.050 13.731272
58.055 13.865264
58.060 13.9942
58.065 13.547066
58.070 13.461618
58.075 13.673905
58.080 13.74315
58.085 13.632353
58.090 13.616043
58.095 13.432248
58.100 13.842799
58.105 14.267483
58.110 14.092069
58.115 14.049014
58.120 13.895146
58.125 14.349852
58.130 14.543371
58.135 14.24215
58.140 14.266955
58.145 14.794765
58.150 14.702516
58.155 14.512428
58.160 14.345814
58.165 14.280454
58.170 14.142648
58.175 14.077129
58.180 14.064127
58.185 14.728072
58.190 14.902887
58.195 14.937921
58.200 15.224817
58.205 15.382101
58.210 15.363381
58.215 14.987702
58.220 15.244914
58.225 15.411929
58.230 15.456715
58.235 15.381211
58.240 15.300616
58.245 15.554023
58.250 15.672761
58.255 15.75671
58.260 16.336767
58.265 16.702984
58.270 17.790752
58.275 18.76651
58.280 19.044287
58.285 19.085886
58.290 18.254663
58.295 17.81568
58.300 17.582949
58.305 16.963684
58.310 16.819679
58.315 17.403624
58.320 18.677212
58.325 19.307648
58.330 19.291603
58.335 19.60059
58.340 20.12402
58.345 20.361166
58.350 20.067883
58.355 19.748571
58.360 19.565542
58.365 19.863016
58.370 19.735073
58.375 19.081884
58.380 19.257019
58.385 19.379183
58.390 19.479631
58.395 20.161892
58.400 20.553436
58.405 21.176117
58.410 21.651686
58.415 21.263973
58.420 21.749937
58.425 21.942743
58.430 21.87042
58.435 21.762121
58.440 21.469488
58.445 22.207626
58.450 22.487732
58.455 22.13213
58.460 22.560822
58.465 23.007965
58.470 23.814474
58.475 24.245655
58.480 23.604767
58.485 23.122873
58.490 23.301514
58.495 22.670456
58.500 22.861006
58.505 22.719662
58.510 22.786415
58.515 22.792349
58.520 23.083996
58.525 23.493359
58.530 24.414196
58.535 24.088507
58.540 23.954681
