!@!!GADDS PLOTSO FILE: Chi integration type
!@!!Title/SampleName: map-70
!@!!Comment: ?
!@!!User: Bruker Instrument Administrator
!@!!Site: University of Illinois Chicago
!@!!Frame: map-70_01_000.gfrm
!@!!Wavelengths    1.54184   1.54056   1.54439
!@!!Frame angles: 2Theta: 63.000 Omega: 50.000 Phi: 0.000 Chi: 90.000
!@!!Integration range: 2Theta: 53.000 to 73.000  Gamma: -105.000 to -75.000
!@!!Integration method: bin normalized
!@!N
!@!SS
!@!M
!@!L 0.0 0.0 0.0 0.0
!@!XDegrees
!@!YCounts
53.000 8.583641
53.005 8.738403
53.010 9.04631
53.015 9.251556
53.020 9.49418
53.025 9.831813
53.030 9.757579
53.035 9.536375
53.040 9.660709
53.045 9.622252
53.050 9.945839
53.055 9.834176
53.060 9.748316
53.065 10.283281
53.070 10.431455
53.075 10.041352
53.080 9.861804
53.085 9.514791
53.090 9.824725
53.095 9.745029
53.100 9.487492
53.105 9.631502
53.110 9.7356
53.115 9.664046
53.120 9.72284
53.125 9.008733
53.130 8.656244
53.135 8.427338
53.140 8.435354
53.145 8.237948
53.150 8.188125
53.155 8.415633
53.160 9.103204
53.165 9.531201
53.170 9.178929
53.175 8.69036
53.180 9.084528
53.185 8.999078
53.190 9.187097
53.195 9.393862
53.200 9.4012
53.205 9.655811
53.210 9.875422
53.215 9.615288
53.220 9.803966
53.225 9.22817
53.230 9.110698
53.235 9.344181
53.240 9.175461
53.245 9.161949
53.250 9.373476
53.255 9.520541
53.260 9.850019
53.265 9.563675
53.270 9.566597
53.275 9.848804
53.280 9.849742
53.285 9.44358
53.290 8.922678
53.295 8.444171
53.300 8.239173
53.305 8.092865
53.310 7.522744
53.315 7.697801
53.320 7.873359
53.325 8.314067
53.330 8.875254
53.335 9.079199
53.340 9.776278
53.345 9.925817
53.350 10.213966
53.355 10.410067
53.360 10.551766
53.365 10.176747
53.370 9.742633
53.375 9.574825
53.380 9.748631
53.385 9.5677
53.390 9.259824
53.395 9.172496
53.400 9.7267
53.405 9.885509
53.410 9.729605
53.415 9.330055
53.420 9.213511
53.425 9.340192
53.430 9.365797
53.435 9.588595
53.440 9.536017
53.445 9.531741
53.450 9.719995
53.455 9.627737
53.460 10.185966
53.465 10.385426
53.470 10.059254
53.475 10.175937
53.480 9.92628
53.485 9.83122
53.490 9.614432
53.495 8.916373
53.500 8.695434
53.505 9.073994
53.510 9.351961
53.515 9.486822
53.520 9.785012
53.525 10.253317
53.530 10.300296
53.535 10.290554
53.540 9.906431
53.545 9.952223
53.550 10.059132
53.555 9.882177
53.560 9.762621
53.565 9.582625
53.570 9.435637
53.575 9.293591
53.580 9.308654
53.585 9.548372
53.590 10.078237
53.595 10.561114
53.600 10.796679
53.605 10.847092
53.610 10.901289
53.615 10.616564
53.620 10.357318
53.625 10.145724
53.630 9.913426
53.635 10.434899
53.640 10.640275
53.645 10.705991
53.650 11.158018
53.655 11.155649
53.660 11.000567
53.665 10.391802
53.670 10.454583
53.675 10.754435
53.680 11.065503
53.685 10.826097
53.690 10.30184
53.695 10.747748
53.700 11.27133
53.705 10.967832
53.710 10.924453
53.715 11.056705
53.720 11.215671
53.725 11.185642
53.730 10.884029
53.735 10.419645
53.740 10.264414
53.745 9.840202
53.750 9.474298
53.755 9.499007
53.760 9.836428
53.765 9.549635
53.770 9.809867
53.775 9.821863
53.780 10.175757
53.785 10.486928
53.790 10.63386
53.795 10.558002
53.800 10.844166
53.805 10.710119
53.810 10.323966
53.815 9.798525
53.820 9.254986
53.825 8.766817
53.830 8.636163
53.835 8.485353
53.840 8.527205
53.845 8.847915
53.850 9.525194
53.855 9.487767
53.860 9.975409
53.865 10.064198
53.870 10.159875
53.875 10.460507
53.880 10.267226
53.885 10.192745
53.890 10.62827
53.895 10.308712
53.900 10.47081
53.905 10.428593
53.910 10.222801
53.915 10.512445
53.920 10.514309
53.925 10.325097
53.930 10.561586
53.935 10.368895
53.940 10.165107
53.945 10.297996
53.950 10.096845
53.955 9.896607
53.960 10.691174
53.965 10.675181
53.970 10.962735
53.975 11.172496
53.980 11.255116
53.985 11.965856
53.990 12.183626
53.995 11.346082
54.000 11.804974
54.005 11.542879
54.010 11.554684
54.015 11.239966
54.020 10.459371
54.025 10.567646
54.030 10.616091
54.035 10.343769
54.040 10.413656
54.045 9.940676
54.050 9.801568
54.055 9.937551
54.060 10.343072
54.065 9.919896
54.070 9.97727
54.075 10.250246
54.080 10.690816
54.085 10.857608
54.090 10.582197
54.095 10.273496
54.100 10.518115
54.105 10.133085
54.110 9.980543
54.115 10.123526
54.120 10.059419
54.125 10.355491
54.130 10.240559
54.135 10.507949
54.140 10.805808
54.145 11.007977
54.150 10.9184
54.155 10.610625
54.160 10.247633
54.165 10.301627
54.170 10.186061
54.175 9.953289
54.180 9.445402
54.185 9.460609
54.190 10.077306
54.195 10.239056
54.200 10.838107
54.205 11.465435
54.210 11.825263
54.215 11.89604
54.220 11.570452
54.225 11.606753
54.230 11.646696
54.235 10.73225
54.240 10.524243
54.245 10.683103
54.250 10.887988
54.255 11.145477
54.260 11.161144
54.265 11.360307
54.270 12.122019
54.275 11.677482
54.280 11.64044
54.285 11.681636
54.290 11.967973
54.295 12.058679
54.300 11.994903
54.305 11.843868
54.310 11.859161
54.315 11.812865
54.320 11.860794
54.325 11.725064
54.330 11.133677
54.335 11.009491
54.340 11.114466
54.345 10.894881
54.350 10.495445
54.355 10.039557
54.360 9.954399
54.365 10.465177
54.370 10.325624
54.375 9.938759
54.380 10.344428
54.385 10.44747
54.390 10.206412
54.395 9.870583
54.400 9.175593
54.405 9.298046
54.410 9.391527
54.415 9.344803
54.420 9.498543
54.425 9.83414
54.430 9.992666
54.435 10.101148
54.440 9.935162
54.445 10.074528
54.450 10.419565
54.455 10.680767
54.460 11.121604
54.465 11.632517
54.470 12.302344
54.475 12.210823
54.480 11.948302
54.485 11.053523
54.490 10.771038
54.495 10.612384
54.500 10.158298
54.505 9.892904
54.510 10.14115
54.515 10.585137
54.520 11.068655
54.525 10.99344
54.530 11.272005
54.535 11.359168
54.540 11.002038
54.545 10.687316
54.550 10.62825
54.555 10.586759
54.560 10.364041
54.565 10.196219
54.570 10.238545
54.575 10.480858
54.580 10.441722
54.585 10.432256
54.590 10.566256
54.595 10.53585
54.600 10.650482
54.605 10.63799
54.610 10.838483
54.615 11.293812
54.620 11.19285
54.625 10.640373
54.630 10.188773
54.635 10.000168
54.640 10.314314
54.645 10.197775
54.650 9.6205
54.655 10.058456
54.660 10.86364
54.665 11.420465
54.670 11.549958
54.675 10.820369
54.680 11.119373
54.685 11.207346
54.690 10.51616
54.695 10.381556
54.700 10.720601
54.705 11.300122
54.710 11.643424
54.715 11.385932
54.720 11.629127
54.725 11.523924
54.730 11.246637
54.735 10.651536
54.740 9.88525
54.745 9.579926
54.750 9.48904
54.755 9.589902
54.760 10.637207
54.765 11.418946
54.770 11.541734
54.775 12.166717
54.780 12.961011
54.785 13.065619
54.790 12.715023
54.795 11.937536
54.800 11.320415
54.805 11.318337
54.810 11.322446
54.815 10.922561
54.820 10.964829
54.825 11.204277
54.830 11.1148
54.835 11.473223
54.840 12.038695
54.845 11.217434
54.850 11.24949
54.855 11.232417
54.860 11.316412
54.865 11.23931
54.870 10.499157
54.875 9.634207
54.880 9.663002
54.885 9.729498
54.890 10.000018
54.895 9.951792
54.900 9.903906
54.905 10.246575
54.910 10.973147
54.915 11.270766
54.920 11.297997
54.925 11.203144
54.930 11.365682
54.935 11.659862
54.940 11.909259
54.945 12.187054
54.950 12.410581
54.955 12.123589
54.960 11.940243
54.965 11.87925
54.970 11.878726
54.975 11.708658
54.980 11.486036
54.985 11.320621
54.990 11.482634
54.995 11.536247
55.000 11.39019
55.005 11.310273
55.010 10.884289
55.015 10.815663
55.020 10.927185
55.025 11.375671
55.030 11.470314
55.035 11.588203
55.040 11.522517
55.045 11.800926
55.050 11.863739
55.055 12.020469
55.060 11.819411
55.065 11.500403
55.070 11.304711
55.075 11.195765
55.080 11.18115
55.085 11.355176
55.090 11.068802
55.095 10.655571
55.100 10.743097
55.105 11.178154
55.110 11.230896
55.115 10.873465
55.120 10.439823
55.125 10.488174
55.130 10.667065
55.135 10.626066
55.140 10.626569
55.145 11.14
55.150 12.078271
55.155 12.166101
55.160 11.937121
55.165 11.90383
55.170 11.686026
55.175 11.195467
55.180 10.528542
55.185 9.901623
55.190 10.436396
55.195 10.933823
55.200 11.490452
55.205 11.817925
55.210 12.258096
55.215 12.376821
55.220 12.143528
55.225 12.243601
55.230 12.058917
55.235 11.656972
55.240 11.560582
55.245 11.921447
55.250 11.973296
55.255 11.698189
55.260 11.269145
55.265 11.159785
55.270 11.872488
55.275 12.180123
55.280 11.783858
55.285 11.534214
55.290 12.227806
55.295 12.474034
55.300 12.839628
55.305 12.81797
55.310 12.514701
55.315 12.572255
55.320 12.797462
55.325 12.589528
55.330 12.445838
55.335 12.337222
55.340 12.070823
55.345 12.201577
55.350 12.406564
55.355 12.45073
55.360 12.544644
55.365 12.284431
55.370 11.90225
55.375 11.487672
55.380 11.557044
55.385 11.486531
55.390 11.420156
55.395 11.892994
55.400 12.034852
55.405 12.554818
55.410 13.18144
55.415 13.177444
55.420 13.222754
55.425 13.063604
55.430 12.554932
55.435 12.456578
55.440 12.442571
55.445 12.738028
55.450 13.142616
55.455 13.077179
55.460 12.899192
55.465 12.968746
55.470 12.490777
55.475 11.739838
55.480 11.008341
55.485 10.810111
55.490 10.825321
55.495 10.699263
55.500 10.842817
55.505 11.295823
55.510 12.098973
55.515 12.520308
55.520 12.442424
55.525 12.732201
55.530 12.763459
55.535 12.806602
55.540 12.661844
55.545 12.357574
55.550 11.905079
55.555 11.863772
55.560 12.282746
55.565 12.722416
55.570 12.802023
55.575 12.733263
55.580 12.407781
55.585 12.035118
55.590 12.363452
55.595 12.292299
55.600 11.956631
55.605 11.924319
55.610 12.254307
55.615 12.576204
55.620 12.708996
55.625 12.41012
55.630 12.058718
55.635 12.117789
55.640 12.248393
55.645 11.850245
55.650 11.918766
55.655 11.970177
55.660 11.897482
55.665 12.300547
55.670 12.241174
55.675 11.952638
55.680 11.347878
55.685 11.04744
55.690 11.064777
55.695 11.159707
55.700 11.165433
55.705 11.21562
55.710 11.56095
55.715 12.086419
55.720 12.987946
55.725 13.566375
55.730 13.109159
55.735 13.287916
55.740 13.178739
55.745 13.158369
55.750 13.435481
55.755 12.930006
55.760 12.289212
55.765 12.025852
55.770 11.71417
55.775 11.76862
55.780 11.441809
55.785 11.236475
55.790 10.752364
55.795 10.772813
55.800 10.669021
55.805 10.818059
55.810 10.649925
55.815 10.456394
55.820 10.710646
55.825 11.520851
55.830 11.76401
55.835 11.951244
55.840 12.582687
55.845 13.131363
55.850 13.379617
55.855 13.543213
55.860 13.592147
55.865 14.165547
55.870 14.830781
55.875 14.779636
55.880 14.721104
55.885 14.891204
55.890 14.362736
55.895 13.819674
55.900 13.126138
55.905 12.326035
55.910 12.148794
55.915 12.448411
55.920 12.550467
55.925 12.751001
55.930 12.881787
55.935 12.774991
55.940 13.100794
55.945 13.194401
55.950 13.01015
55.955 12.696395
55.960 12.580437
55.965 12.470685
55.970 12.597174
55.975 12.349134
55.980 11.944859
55.985 11.76773
55.990 11.599938
55.995 11.60314
56.000 11.773314
56.005 11.601846
56.010 11.687887
56.015 11.767303
56.020 11.796602
56.025 11.566046
56.030 11.309695
56.035 11.15883
56.040 11.455311
56.045 11.620908
56.050 11.734963
56.055 11.550597
56.060 11.511046
56.065 12.086766
56.070 12.308608
56.075 12.421859
56.080 12.561947
56.085 12.654458
56.090 13.105693
56.095 13.756926
56.100 13.860414
56.105 13.793289
56.110 13.644764
56.115 13.182382
56.120 13.012666
56.125 12.89288
56.130 12.623827
56.135 12.276254
56.140 12.386843
56.145 12.414737
56.150 12.767489
56.155 12.683722
56.160 13.175834
56.165 13.798046
56.170 13.854099
56.175 13.818157
56.180 13.528523
56.185 13.415305
56.190 14.054161
56.195 13.796935
56.200 13.452841
56.205 13.445208
56.210 13.162905
56.215 13.270755
56.220 12.790993
56.225 12.402514
56.230 12.350928
56.235 12.496448
56.240 12.652029
56.245 12.67659
56.250 12.44214
56.255 12.435326
56.260 12.47747
56.265 12.408488
56.270 12.06108
56.275 12.047297
56.280 12.28061
56.285 12.767239
56.290 13.617747
56.295 13.318542
56.300 13.438822
56.305 13.392282
56.310 13.413715
56.315 13.769108
56.320 13.338701
56.325 12.852615
56.330 13.137031
56.335 12.995804
56.340 13.091233
56.345 13.227622
56.350 13.205538
56.355 13.446181
56.360 13.336771
56.365 13.129126
56.370 13.113284
56.375 13.294978
56.380 13.237236
56.385 12.736807
56.390 12.870914
56.395 12.961892
56.400 12.726691
56.405 12.110544
56.410 11.585187
56.415 11.69237
56.420 12.165862
56.425 12.198004
56.430 12.103699
56.435 12.268131
56.440 12.884398
56.445 12.777618
56.450 12.498468
56.455 12.122863
56.460 12.764668
56.465 13.199541
56.470 13.423801
56.475 13.255723
56.480 13.791257
56.485 14.286455
56.490 14.474056
56.495 13.995627
56.500 13.681071
56.505 13.848026
56.510 14.390398
56.515 14.475528
56.520 14.534035
56.525 14.314466
56.530 14.396972
56.535 14.556657
56.540 14.465621
56.545 13.946463
56.550 13.464353
56.555 13.325135
56.560 13.499401
56.565 13.624099
56.570 13.653358
56.575 13.722298
56.580 14.084241
56.585 13.917393
56.590 13.995966
56.595 14.18832
56.600 13.958473
56.605 13.690303
56.610 13.399682
56.615 13.02136
56.620 13.427686
56.625 13.706739
56.630 13.114682
56.635 13.092909
56.640 13.210493
56.645 13.092413
56.650 13.093752
56.655 12.517907
56.660 11.961364
56.665 12.335016
56.670 12.406173
56.675 12.539417
56.680 12.415242
56.685 12.184455
56.690 12.447396
56.695 12.493212
56.700 12.532739
56.705 12.180336
56.710 12.193078
56.715 12.833787
56.720 13.274817
56.725 13.275113
56.730 13.693065
56.735 13.459877
56.740 13.619598
56.745 13.721106
56.750 13.558529
56.755 13.726161
56.760 13.429178
56.765 12.863999
56.770 13.574961
56.775 14.083911
56.780 14.311827
56.785 14.440203
56.790 15.095009
56.795 15.569207
56.800 15.686869
56.805 15.52597
56.810 14.929221
56.815 14.563081
56.820 14.376691
56.825 14.003718
56.830 13.755736
56.835 13.176634
56.840 13.154032
56.845 13.413685
56.850 13.40459
56.855 13.407063
56.860 13.203263
56.865 13.123578
56.870 13.46687
56.875 13.189369
56.880 13.339038
56.885 13.76504
56.890 13.480991
56.895 13.609015
56.900 14.425901
56.905 14.712444
56.910 14.906743
56.915 14.609913
56.920 14.144925
56.925 14.201773
56.930 14.111473
56.935 13.527173
56.940 13.569155
56.945 13.628779
56.950 13.588433
56.955 13.814902
56.960 14.017605
56.965 14.01463
56.970 15.018242
56.975 14.931165
56.980 14.690862
56.985 14.775006
56.990 14.680847
56.995 14.439171
57.000 14.33972
57.005 13.408942
57.010 13.326285
57.015 13.549002
57.020 13.592421
57.025 13.51517
57.030 13.443325
57.035 13.223403
57.040 13.187108
57.045 12.68583
57.050 12.451614
57.055 12.287601
57.060 12.380917
57.065 12.681894
57.070 12.721741
57.075 13.532647
57.080 14.100237
57.085 14.098959
57.090 14.03714
57.095 13.967185
57.100 13.900991
57.105 13.346853
57.110 12.809355
57.115 12.828098
57.120 12.968559
57.125 13.127665
57.130 13.173799
57.135 13.192589
57.140 13.541758
57.145 13.388094
57.150 13.640333
57.155 14.000057
57.160 13.706775
57.165 13.384821
57.170 13.472135
57.175 13.502524
57.180 13.550314
57.185 13.446466
57.190 13.333363
57.195 13.634629
57.200 14.251828
57.205 14.359462
57.210 14.680561
57.215 14.668596
57.220 14.607831
57.225 14.693039
57.230 14.567553
57.235 13.961052
57.240 13.765417
57.245 14.015909
57.250 14.218021
57.255 13.710119
57.260 13.879494
57.265 14.251369
57.270 14.393114
57.275 14.53805
57.280 13.741161
57.285 13.586308
57.290 13.348651
57.295 13.234377
57.300 13.134208
57.305 12.735273
57.310 12.442255
57.315 12.743271
57.320 12.792727
57.325 13.511499
57.330 13.199543
57.335 13.169262
57.340 13.930851
57.345 14.148272
57.350 14.896788
57.355 14.879759
57.360 14.383105
57.365 14.549271
57.370 14.29309
57.375 14.122503
57.380 14.274791
57.385 13.120343
57.390 12.948758
57.395 13.389133
57.400 12.99576
57.405 13.304542
57.410 13.515473
57.415 13.609178
57.420 14.047128
57.425 14.10192
57.430 14.00622
57.435 14.326203
57.440 13.95007
57.445 13.710502
57.450 13.389535
57.455 13.382448
57.460 13.80678
57.465 13.765617
57.470 14.10991
57.475 14.476949
57.480 14.587533
57.485 14.997672
57.490 15.563153
57.495 15.720958
57.500 16.088896
57.505 15.915474
57.510 15.445585
57.515 15.122331
57.520 14.772957
57.525 13.97719
57.530 13.186423
57.535 13.393458
57.540 13.651807
57.545 14.136139
57.550 14.470703
57.555 14.365087
57.560 14.564219
57.565 14.946325
57.570 14.387732
57.575 14.046438
57.580 14.432752
57.585 14.599919
57.590 15.08407
57.595 15.52834
57.600 15.617505
57.605 16.33551
57.610 16.490746
57.615 16.327349
57.620 16.485903
57.625 16.733372
57.630 16.324091
57.635 15.484526
57.640 14.748631
57.645 14.624972
57.650 14.034107
57.655 13.625539
57.660 13.282078
57.665 13.516629
57.670 14.057234
57.675 14.610171
57.680 14.875773
57.685 15.198935
57.690 15.254399
57.695 15.548167
57.700 15.491135
57.705 15.577906
57.710 15.873476
57.715 16.108774
57.720 15.789653
57.725 15.796918
57.730 15.74966
57.735 15.44674
57.740 15.288146
57.745 14.792181
57.750 14.861662
57.755 14.890178
57.760 14.216483
57.765 14.639293
57.770 14.976587
57.775 15.096964
57.780 14.422892
57.785 14.294574
57.790 14.807061
57.795 15.271086
57.800 14.654292
57.805 14.596291
57.810 15.241531
57.815 15.991009
57.820 15.456806
57.825 15.269407
57.830 14.82258
57.835 14.93229
57.840 14.912806
57.845 14.922688
57.850 14.995905
57.855 15.480273
57.860 15.684897
57.865 16.332731
57.870 16.495342
57.875 16.605465
57.880 15.909958
57.885 15.642128
57.890 15.589445
57.895 15.866758
57.900 16.053183
57.905 15.750445
57.910 15.545773
57.915 15.695416
57.920 15.686279
57.925 15.295028
57.930 15.191483
57.935 15.070835
57.940 15.229955
57.945 15.4209
57.950 15.354948
57.955 15.75883
57.960 16.267302
57.965 15.989629
57.970 16.139362
57.975 16.18351
57.980 16.550125
57.985 16.668354
57.990 16.774199
57.995 16.616436
58.000 16.715258
58.005 16.629208
58.010 17.527637
58.015 17.458714
58.020 17.539528
58.025 17.877512
58.030 18.239393
58.035 18.437654
58.040 18.58408
58.045 17.74873
58.050 17.911985
58.055 18.126863
58.060 17.797178
58.065 17.605118
58.070 17.44146
58.075 17.177443
58.080 17.180908
58.085 16.503056
58.090 15.867293
58.095 15.476222
58.100 15.273318
58.105 15.331182
58.110 15.216105
58.115 15.095718
58.120 15.002499
58.125 15.055268
58.130 15.313463
58.135 15.716834
58.140 15.90238
58.145 16.111303
58.150 16.43568
58.155 16.714767
58.160 17.066792
58.165 17.0721
58.170 16.845604
58.175 16.766161
58.180 16.916323
58.185 17.33934
58.190 17.072628
58.195 16.798071
58.200 16.219515
58.205 16.503918
58.210 16.604713
58.215 16.95417
58.220 16.936886
58.225 17.580175
58.230 18.060221
58.235 18.102568
58.240 17.586454
58.245 17.611572
58.250 17.244783
58.255 17.487047
58.260 17.303629
58.265 17.178503
58.270 17.932741
58.275 18.253805
58.280 18.855604
58.285 19.550184
58.290 19.669067
58.295 20.193403
58.300 20.325439
58.305 20.131641
58.310 20.264713
58.315 19.96817
58.320 19.3197
58.325 18.864655
58.330 18.728836
58.335 19.341673
58.340 19.679533
58.345 19.814592
58.350 20.085661
58.355 20.691357
58.360 20.929001
58.365 20.753529
58.370 20.620302
58.375 20.961679
58.380 20.953648
58.385 21.277695
58.390 22.301695
58.395 22.642843
58.400 22.953823
58.405 22.663191
58.410 22.6409
58.415 22.792612
58.420 22.441799
58.425 22.241119
58.430 22.560436
58.435 22.335653
58.440 22.681393
58.445 22.962372
58.450 23.725733
58.455 24.210358
58.460 24.986313
58.465 25.651432
58.470 26.460936
58.475 27.008448
58.480 27.076645
58.485 28.125818
