!@!!GADDS PLOTSO FILE: Chi integration type
!@!!Title/SampleName: map-37
!@!!Comment: ?
!@!!User: Bruker Instrument Administrator
!@!!Site: University of Illinois Chicago
!@!!Frame: map-37_01_000.gfrm
!@!!Wavelengths    1.54184   1.54056   1.54439
!@!!Frame angles: 2Theta: 63.000 Omega: 50.000 Phi: 0.000 Chi: 90.000
!@!!Integration range: 2Theta: 53.000 to 73.000  Gamma: -105.000 to -75.000
!@!!Integration method: bin normalized
!@!N
!@!SS
!@!M
!@!L 0.0 0.0 0.0 0.0
!@!XDegrees
!@!YCounts
53.000 7.654064
53.005 7.485113
53.010 7.490038
53.015 7.741433
53.020 8.235021
53.025 8.210232
53.030 8.092322
53.035 8.388965
53.040 8.404461
53.045 8.536545
53.050 8.368135
53.055 7.996484
53.060 7.938491
53.065 7.730817
53.070 7.439834
53.075 7.355612
53.080 7.288937
53.085 7.377118
53.090 7.475996
53.095 7.609696
53.100 7.733588
53.105 8.11219
53.110 8.595609
53.115 8.559593
53.120 8.963511
53.125 9.291755
53.130 9.7414
53.135 9.975196
53.140 9.508664
53.145 9.071072
53.150 9.134539
53.155 8.638491
53.160 8.603515
53.165 8.358188
53.170 8.318446
53.175 8.513546
53.180 8.444592
53.185 8.468558
53.190 8.349269
53.195 8.090341
53.200 7.810938
53.205 7.835611
53.210 7.641689
53.215 7.719995
53.220 7.997513
53.225 8.14951
53.230 8.495963
53.235 8.656794
53.240 8.844099
53.245 8.912657
53.250 9.170184
53.255 9.172494
53.260 9.285652
53.265 9.086372
53.270 9.034945
53.275 8.870772
53.280 8.90296
53.285 8.340497
53.290 8.246323
53.295 7.991051
53.300 7.846245
53.305 8.063947
53.310 8.730524
53.315 9.284269
53.320 9.869487
53.325 9.619346
53.330 9.677379
53.335 10.112838
53.340 9.829604
53.345 9.18933
53.350 8.84784
53.355 8.48562
53.360 8.568746
53.365 8.653075
53.370 8.596051
53.375 8.471186
53.380 8.545671
53.385 8.349941
53.390 8.408762
53.395 8.411249
53.400 8.278852
53.405 8.48317
53.410 8.608012
53.415 8.84546
53.420 8.932282
53.425 9.21192
53.430 9.205528
53.435 9.116759
53.440 8.992374
53.445 8.728625
53.450 8.782689
53.455 9.004988
53.460 9.165673
53.465 9.60598
53.470 9.607944
53.475 9.737067
53.480 9.633573
53.485 9.370458
53.490 9.028429
53.495 9.047981
53.500 8.864411
53.505 9.024514
53.510 9.109705
53.515 9.08668
53.520 9.11587
53.525 9.31105
53.530 9.509133
53.535 10.097869
53.540 10.226178
53.545 10.420642
53.550 10.588643
53.555 10.457364
53.560 10.080572
53.565 9.208874
53.570 8.580456
53.575 8.4721
53.580 8.44303
53.585 8.537585
53.590 8.59027
53.595 8.305787
53.600 8.733401
53.605 8.806238
53.610 8.543986
53.615 8.451797
53.620 8.417531
53.625 8.746515
53.630 9.193753
53.635 9.159736
53.640 9.310261
53.645 9.556646
53.650 9.550746
53.655 9.332274
53.660 9.200859
53.665 8.901515
53.670 8.662348
53.675 8.713582
53.680 8.636913
53.685 8.662417
53.690 9.14548
53.695 8.982873
53.700 9.432023
53.705 9.882675
53.710 10.304862
53.715 10.235261
53.720 10.480622
53.725 10.083642
53.730 10.101757
53.735 9.860921
53.740 9.136313
53.745 8.756714
53.750 8.981626
53.755 8.686652
53.760 8.975684
53.765 9.155963
53.770 9.440073
53.775 9.524931
53.780 9.437038
53.785 9.192996
53.790 9.316202
53.795 9.336268
53.800 9.170814
53.805 9.177806
53.810 9.42036
53.815 9.357809
53.820 9.467978
53.825 9.856344
53.830 10.02886
53.835 9.639266
53.840 9.338352
53.845 9.327205
53.850 9.768337
53.855 9.598286
53.860 9.446222
53.865 9.649246
53.870 9.853125
53.875 9.983174
53.880 9.72681
53.885 9.176805
53.890 8.727006
53.895 8.491228
53.900 8.17285
53.905 8.472352
53.910 8.255066
53.915 8.18132
53.920 8.397081
53.925 8.556314
53.930 8.803938
53.935 8.927103
53.940 9.368777
53.945 9.546873
53.950 9.570051
53.955 9.882085
53.960 9.334528
53.965 8.682825
53.970 8.501654
53.975 8.615366
53.980 8.856314
53.985 9.083076
53.990 9.318402
53.995 10.268345
54.000 10.518563
54.005 10.25529
54.010 10.094168
54.015 9.70557
54.020 9.663313
54.025 9.33972
54.030 9.158963
54.035 9.508007
54.040 9.281897
54.045 9.214046
54.050 9.461571
54.055 9.058954
54.060 8.993367
54.065 8.88921
54.070 8.848478
54.075 9.162276
54.080 8.905372
54.085 9.181027
54.090 9.424173
54.095 9.523724
54.100 9.803788
54.105 9.371994
54.110 9.334918
54.115 9.521491
54.120 9.506565
54.125 9.752739
54.130 9.571344
54.135 9.689302
54.140 9.925614
54.145 10.081058
54.150 9.59413
54.155 9.386987
54.160 9.517446
54.165 9.294554
54.170 9.207674
54.175 8.826876
54.180 8.6647
54.185 9.048686
54.190 9.274755
54.195 9.179239
54.200 9.60292
54.205 9.810482
54.210 10.092411
54.215 10.307188
54.220 10.104847
54.225 9.984655
54.230 10.181045
54.235 10.065127
54.240 10.344864
54.245 10.570467
54.250 10.662996
54.255 11.106555
54.260 11.114607
54.265 10.785005
54.270 10.501643
54.275 10.048521
54.280 9.999123
54.285 9.800931
54.290 9.123238
54.295 9.318069
54.300 9.988084
54.305 10.587112
54.310 10.918849
54.315 10.692049
54.320 10.818453
54.325 11.074384
54.330 10.92653
54.335 10.743285
54.340 10.684824
54.345 10.362521
54.350 10.486969
54.355 10.772906
54.360 10.905109
54.365 10.807582
54.370 10.255349
54.375 10.089797
54.380 10.37945
54.385 10.657574
54.390 10.212098
54.395 10.135666
54.400 9.872831
54.405 9.742975
54.410 9.800086
54.415 9.568779
54.420 9.149379
54.425 9.320994
54.430 9.037306
54.435 9.344586
54.440 10.064128
54.445 9.815608
54.450 9.848847
54.455 9.930856
54.460 9.874291
54.465 9.92391
54.470 9.609784
54.475 9.173347
54.480 9.533758
54.485 9.834743
54.490 10.183578
54.495 10.54419
54.500 10.774104
54.505 10.937603
54.510 10.974874
54.515 11.411992
54.520 10.776255
54.525 10.443423
54.530 10.213683
54.535 10.031779
54.540 9.66017
54.545 9.174638
54.550 9.162801
54.555 9.530144
54.560 9.934822
54.565 10.349863
54.570 10.726917
54.575 11.306757
54.580 11.261006
54.585 10.825502
54.590 10.76265
54.595 10.379274
54.600 10.327222
54.605 10.376779
54.610 10.254874
54.615 10.39343
54.620 10.704576
54.625 10.422235
54.630 10.607781
54.635 11.014332
54.640 11.07107
54.645 11.045617
54.650 11.080877
54.655 11.338737
54.660 11.753185
54.665 11.226814
54.670 10.511406
54.675 10.482776
54.680 10.353543
54.685 10.523847
54.690 10.28265
54.695 9.993817
54.700 10.002032
54.705 10.154278
54.710 10.490272
54.715 10.760358
54.720 10.436997
54.725 10.513405
54.730 10.46497
54.735 10.27912
54.740 10.081557
54.745 10.349174
54.750 10.282385
54.755 10.317335
54.760 9.899626
54.765 10.094614
54.770 9.962691
54.775 10.036988
54.780 9.832741
54.785 9.262533
54.790 8.808523
54.795 8.990428
54.800 9.10679
54.805 9.351507
54.810 9.189844
54.815 9.296912
54.820 9.220081
54.825 9.075326
54.830 8.754683
54.835 8.560188
54.840 8.820611
54.845 8.626458
54.850 9.223722
54.855 9.729958
54.860 10.036886
54.865 10.521907
54.870 10.921813
54.875 10.808467
54.880 10.688182
54.885 10.1224
54.890 10.522715
54.895 11.075092
54.900 10.989817
54.905 10.734141
54.910 10.637148
54.915 10.975134
54.920 10.835618
54.925 10.550802
54.930 10.519871
54.935 10.414427
54.940 10.67286
54.945 10.834017
54.950 10.675858
54.955 10.682395
54.960 10.857913
54.965 10.388025
54.970 10.514823
54.975 10.352733
54.980 9.874252
54.985 9.882976
54.990 9.643162
54.995 9.476981
55.000 9.633633
55.005 9.969164
55.010 10.314605
55.015 10.864203
55.020 10.925659
55.025 10.89361
55.030 11.097868
55.035 11.259121
55.040 10.935041
55.045 10.634562
55.050 10.883986
55.055 11.530155
55.060 11.893124
55.065 11.863981
55.070 11.646299
55.075 11.555371
55.080 11.555517
55.085 11.040229
55.090 10.493734
55.095 10.243321
55.100 9.724246
55.105 10.094975
55.110 10.473162
55.115 10.386926
55.120 10.567309
55.125 10.437562
55.130 10.30907
55.135 10.288118
55.140 10.035841
55.145 9.868011
55.150 10.310063
55.155 10.511003
55.160 10.595636
55.165 10.910799
55.170 11.470852
55.175 11.370632
55.180 11.672328
55.185 11.651607
55.190 11.592607
55.195 11.716803
55.200 11.870397
55.205 11.80422
55.210 11.752268
55.215 11.593243
55.220 11.111843
55.225 11.290009
55.230 11.316258
55.235 10.860388
55.240 10.719456
55.245 11.079922
55.250 11.324928
55.255 10.913386
55.260 10.723121
55.265 11.184888
55.270 11.435822
55.275 11.474943
55.280 11.108044
55.285 11.078334
55.290 11.356277
55.295 11.066236
55.300 10.633088
55.305 11.01054
55.310 10.979781
55.315 10.699778
55.320 10.866464
55.325 11.555942
55.330 11.923197
55.335 11.352592
55.340 10.560111
55.345 10.536116
55.350 10.610544
55.355 10.340261
55.360 10.096609
55.365 9.879361
55.370 9.884899
55.375 9.973425
55.380 9.840303
55.385 10.019372
55.390 10.093616
55.395 10.245879
55.400 10.275723
55.405 10.664986
55.410 10.801435
55.415 10.877633
55.420 10.709976
55.425 11.076352
55.430 11.234751
55.435 11.272017
55.440 11.351241
55.445 11.181837
55.450 11.324864
55.455 11.581848
55.460 10.926051
55.465 11.649602
55.470 11.718005
55.475 12.095084
55.480 12.707653
55.485 12.645126
55.490 12.658578
55.495 12.768353
55.500 12.508241
55.505 12.438582
55.510 12.187824
55.515 11.964063
55.520 11.903988
55.525 11.916936
55.530 12.183949
55.535 11.935127
55.540 11.843719
55.545 11.677121
55.550 11.420102
55.555 11.510134
55.560 11.413013
55.565 11.430602
55.570 11.711405
55.575 11.689551
55.580 11.759142
55.585 11.968742
55.590 11.913091
55.595 11.773079
55.600 11.22563
55.605 10.790665
55.610 10.952249
55.615 11.29965
55.620 11.209958
55.625 10.983851
55.630 10.324754
55.635 10.636292
55.640 10.526088
55.645 9.972034
55.650 9.305901
55.655 9.490687
55.660 9.979562
55.665 10.505079
55.670 10.172261
55.675 10.576032
55.680 11.27334
55.685 12.012651
55.690 11.920716
55.695 12.049128
55.700 12.554536
55.705 12.940587
55.710 13.453042
55.715 12.917809
55.720 12.659753
55.725 12.67684
55.730 12.297137
55.735 12.89746
55.740 12.666043
55.745 11.989898
55.750 11.667081
55.755 11.246136
55.760 11.034817
55.765 10.505282
55.770 9.605248
55.775 9.776112
55.780 10.228614
55.785 10.773968
55.790 10.826839
55.795 10.709479
55.800 10.852602
55.805 11.033279
55.810 10.955028
55.815 10.901495
55.820 11.113083
55.825 11.420603
55.830 11.667024
55.835 11.910834
55.840 12.151223
55.845 11.983932
55.850 11.525267
55.855 11.437046
55.860 11.682214
55.865 11.721988
55.870 11.397504
55.875 11.14944
55.880 11.30995
55.885 11.633624
55.890 11.613928
55.895 11.283772
55.900 11.270777
55.905 11.128478
55.910 11.127276
55.915 11.359953
55.920 12.053405
55.925 12.139144
55.930 12.127016
55.935 12.064663
55.940 12.524206
55.945 12.997907
55.950 12.71901
55.955 12.651708
55.960 12.791213
55.965 13.026467
55.970 12.850202
55.975 12.708616
55.980 12.77893
55.985 12.968892
55.990 12.34862
55.995 12.617617
56.000 12.757466
56.005 12.713663
56.010 12.783741
56.015 12.342862
56.020 11.954885
56.025 12.060363
56.030 11.778764
56.035 11.909613
56.040 12.068826
56.045 11.791745
56.050 12.054177
56.055 12.308104
56.060 12.219929
56.065 12.074453
56.070 11.760026
56.075 11.409967
56.080 11.460169
56.085 11.442071
56.090 11.144776
56.095 11.510498
56.100 11.540627
56.105 11.674836
56.110 12.136664
56.115 12.639943
56.120 12.502975
56.125 12.078543
56.130 11.674265
56.135 11.927753
56.140 11.836736
56.145 11.584903
56.150 11.438609
56.155 12.294657
56.160 13.290823
56.165 13.566807
56.170 13.622148
56.175 13.971777
56.180 14.114708
56.185 13.812772
56.190 13.356603
56.195 12.979135
56.200 12.461195
56.205 12.220137
56.210 12.375708
56.215 12.38576
56.220 12.051804
56.225 11.989801
56.230 12.03154
56.235 12.249613
56.240 12.282717
56.245 12.023354
56.250 11.950015
56.255 12.628613
56.260 12.609964
56.265 12.447837
56.270 12.561693
56.275 12.69104
56.280 12.832457
56.285 12.673289
56.290 11.892211
56.295 11.90961
56.300 11.821211
56.305 11.415396
56.310 11.413896
56.315 11.765177
56.320 11.948318
56.325 12.448718
56.330 12.848516
56.335 13.282034
56.340 13.629554
56.345 13.16308
56.350 13.134305
56.355 13.218914
56.360 12.754853
56.365 12.270731
56.370 12.086105
56.375 11.94067
56.380 12.500765
56.385 12.109797
56.390 11.780987
56.395 11.78109
56.400 11.944661
56.405 11.969364
56.410 12.055815
56.415 11.592605
56.420 11.172206
56.425 11.577994
56.430 12.053576
56.435 12.21341
56.440 12.769834
56.445 13.115869
56.450 13.283267
56.455 13.444508
56.460 12.982785
56.465 12.882632
56.470 12.4282
56.475 11.939853
56.480 11.315007
56.485 11.434441
56.490 12.474026
56.495 13.057711
56.500 12.997929
56.505 12.961334
56.510 13.090248
56.515 13.502562
56.520 13.284294
56.525 12.047924
56.530 11.096315
56.535 10.852529
56.540 11.100612
56.545 10.973175
56.550 11.177358
56.555 11.589518
56.560 12.342235
56.565 12.899959
56.570 13.349979
56.575 13.141793
56.580 13.160571
56.585 12.310719
56.590 12.133738
56.595 12.185912
56.600 11.871518
56.605 11.401214
56.610 11.272955
56.615 11.161976
56.620 11.605731
56.625 11.685522
56.630 11.59974
56.635 11.4994
56.640 11.377157
56.645 11.305746
56.650 11.405691
56.655 11.560464
56.660 11.722361
56.665 11.738088
56.670 11.897439
56.675 12.51701
56.680 13.021091
56.685 13.363781
56.690 13.599881
56.695 13.486667
56.700 13.473659
56.705 14.053923
56.710 13.765497
56.715 13.066207
56.720 12.743107
56.725 12.583671
56.730 12.765404
56.735 13.1888
56.740 12.770623
56.745 12.812653
56.750 13.489969
56.755 14.087702
56.760 14.262364
56.765 14.228594
56.770 14.154016
56.775 14.326043
56.780 14.041765
56.785 13.964042
56.790 13.944548
56.795 13.536301
56.800 13.413754
56.805 13.336225
56.810 13.425941
56.815 13.35735
56.820 13.063554
56.825 12.57774
56.830 12.999486
56.835 13.284363
56.840 13.393474
56.845 14.17079
56.850 14.651565
56.855 14.612299
56.860 14.306458
56.865 14.001144
56.870 13.726315
56.875 13.52773
56.880 12.756113
56.885 12.74818
56.890 12.827164
56.895 12.873664
56.900 12.795122
56.905 13.067441
56.910 13.023705
56.915 12.650755
56.920 12.228893
56.925 12.348237
56.930 12.354681
56.935 12.351278
56.940 12.18562
56.945 12.558533
56.950 13.092184
56.955 13.257277
56.960 13.234721
56.965 13.164413
56.970 13.534559
56.975 13.658519
56.980 13.35016
56.985 13.635583
56.990 13.749937
56.995 13.883686
57.000 14.422299
57.005 14.165154
57.010 13.928545
57.015 13.889238
57.020 13.353279
57.025 13.157829
57.030 12.973595
57.035 12.371953
57.040 12.007446
57.045 11.94458
57.050 12.048128
57.055 12.626892
57.060 12.769705
57.065 12.858213
57.070 13.239479
57.075 13.78023
57.080 14.413724
57.085 14.355283
57.090 13.540467
57.095 13.575814
57.100 13.927588
57.105 13.632093
57.110 13.39951
57.115 13.217291
57.120 13.73683
57.125 14.450575
57.130 14.072638
57.135 13.71423
57.140 14.248043
57.145 14.365593
57.150 14.190414
57.155 13.902216
57.160 13.875922
57.165 14.380578
57.170 14.509131
57.175 13.782677
57.180 13.359447
57.185 13.577211
57.190 13.53504
57.195 13.080523
57.200 12.737139
57.205 12.97113
57.210 13.025617
57.215 12.874292
57.220 12.508955
57.225 12.503915
57.230 12.726209
57.235 12.898232
57.240 12.530859
57.245 12.945807
57.250 13.09481
57.255 13.199283
57.260 12.834416
57.265 12.964368
57.270 12.760098
57.275 12.917232
57.280 13.10186
57.285 13.241951
57.290 13.305523
57.295 13.400067
57.300 13.256358
57.305 13.929041
57.310 14.026777
57.315 13.278041
57.320 13.042135
57.325 13.002967
57.330 13.37657
57.335 13.837141
57.340 13.611753
57.345 13.669885
57.350 13.886469
57.355 13.863713
57.360 13.72003
57.365 13.663249
57.370 13.353166
57.375 13.266056
57.380 13.531874
57.385 13.883466
57.390 13.785119
57.395 13.969798
57.400 13.867254
57.405 14.22582
57.410 14.423667
57.415 14.454426
57.420 14.426459
57.425 14.558784
57.430 14.101774
57.435 13.881718
57.440 13.281291
57.445 12.746075
57.450 12.782342
57.455 12.605786
57.460 12.535539
57.465 13.263631
57.470 13.328168
57.475 13.490122
57.480 13.30351
57.485 12.489083
57.490 12.444331
57.495 12.207215
57.500 11.814927
57.505 11.840747
57.510 11.77789
57.515 12.251098
57.520 12.970885
57.525 12.980444
57.530 13.4526
57.535 13.449139
57.540 13.854037
57.545 14.090602
57.550 14.075839
57.555 13.979339
57.560 14.024751
57.565 13.593565
57.570 13.288334
57.575 13.12816
57.580 12.881161
57.585 12.816669
57.590 12.499021
57.595 13.079682
57.600 13.285312
57.605 12.947349
57.610 12.961184
57.615 12.705524
57.620 13.131306
57.625 12.972021
57.630 11.979541
57.635 12.21471
57.640 12.366766
57.645 12.486535
57.650 12.873863
57.655 12.58666
57.660 13.013126
57.665 13.011321
57.670 12.83985
57.675 13.133611
57.680 12.831518
57.685 12.865196
57.690 13.18364
57.695 14.30241
57.700 15.441912
57.705 15.692184
57.710 16.097275
57.715 16.1395
57.720 15.995681
57.725 15.272736
57.730 13.77549
57.735 13.492825
57.740 13.330993
57.745 12.548022
57.750 12.943331
57.755 12.653006
57.760 13.150663
57.765 13.52231
57.770 13.216274
57.775 13.083467
57.780 12.994365
57.785 12.845524
57.790 13.319872
57.795 13.414147
57.800 13.649242
57.805 13.952531
57.810 14.562325
57.815 14.656847
57.820 14.470788
57.825 14.199006
57.830 13.717068
57.835 13.351782
57.840 13.164905
57.845 13.274013
57.850 13.326732
57.855 13.585184
57.860 13.875995
57.865 14.701941
57.870 15.348575
57.875 15.350499
57.880 15.504054
57.885 15.68877
57.890 15.325284
57.895 15.090773
57.900 14.43924
57.905 13.892096
57.910 13.812973
57.915 13.745602
57.920 13.67647
57.925 14.130769
57.930 14.142995
57.935 14.59528
57.940 14.646924
57.945 14.994714
57.950 14.885609
57.955 14.639295
57.960 14.293459
57.965 14.277747
57.970 14.63991
57.975 14.539248
57.980 14.35218
57.985 14.501814
57.990 14.492037
57.995 14.799559
58.000 14.491577
58.005 14.3777
58.010 14.786161
58.015 14.443567
58.020 14.589436
58.025 14.674584
58.030 14.729275
58.035 14.893664
58.040 15.225099
58.045 15.008774
58.050 14.912455
58.055 15.123082
58.060 14.957745
58.065 15.005617
58.070 14.690155
58.075 13.943267
58.080 14.272676
58.085 14.458653
58.090 14.06173
58.095 14.120562
58.100 14.185069
58.105 14.439034
58.110 14.285213
58.115 13.791986
58.120 13.294762
58.125 13.436187
58.130 13.058065
58.135 13.114333
58.140 12.972923
58.145 13.320726
58.150 13.398442
58.155 13.757523
58.160 13.817552
58.165 14.442492
58.170 14.334959
58.175 14.177417
58.180 14.278589
58.185 14.634725
58.190 14.283359
58.195 14.226587
58.200 13.897486
58.205 13.673399
58.210 13.647944
58.215 13.343623
58.220 13.555634
58.225 14.475859
58.230 14.413074
58.235 14.44384
58.240 14.768259
58.245 15.172105
58.250 15.021396
58.255 14.682757
58.260 14.439357
58.265 14.683147
58.270 14.756958
58.275 14.821497
58.280 14.738289
58.285 14.924857
58.290 15.007833
58.295 14.599694
58.300 14.588248
58.305 14.22427
58.310 14.27626
58.315 14.352973
58.320 14.849559
58.325 14.929571
58.330 14.842558
58.335 15.173965
58.340 15.402039
58.345 15.598912
58.350 15.823754
58.355 15.542465
58.360 15.069245
58.365 15.243435
58.370 15.16597
58.375 15.262267
58.380 15.15528
58.385 14.670978
58.390 14.626443
58.395 14.924268
58.400 15.098052
58.405 14.966263
58.410 14.909911
58.415 14.283615
58.420 14.650652
58.425 14.682059
58.430 15.182294
58.435 15.344531
58.440 15.603764
58.445 15.659963
58.450 15.588904
58.455 15.176835
58.460 15.483545
58.465 15.10991
58.470 15.138303
58.475 14.999739
58.480 15.188467
58.485 15.186404
58.490 15.57363
58.495 15.242689
58.500 15.300567
58.505 15.118386
58.510 15.494461
58.515 15.801907
58.520 15.826772
