!@!!GADDS PLOTSO FILE: Chi integration type
!@!!Title/SampleName: map-62
!@!!Comment: ?
!@!!User: Bruker Instrument Administrator
!@!!Site: University of Illinois Chicago
!@!!Frame: map-62_01_000.gfrm
!@!!Wavelengths    1.54184   1.54056   1.54439
!@!!Frame angles: 2Theta: 63.000 Omega: 50.000 Phi: 0.000 Chi: 90.000
!@!!Integration range: 2Theta: 53.000 to 73.000  Gamma: -105.000 to -75.000
!@!!Integration method: bin normalized
!@!N
!@!SS
!@!M
!@!L 0.0 0.0 0.0 0.0
!@!XDegrees
!@!YCounts
53.000 7.042839
53.005 6.624966
53.010 5.978652
53.015 5.400679
53.020 5.790022
53.025 6.413854
53.030 6.92561
53.035 7.444405
53.040 7.731285
53.045 7.945455
53.050 8.144206
53.055 7.931149
53.060 7.966808
53.065 7.724487
53.070 7.738503
53.075 8.166403
53.080 8.258226
53.085 8.369946
53.090 8.489807
53.095 8.204566
53.100 8.49765
53.105 8.432126
53.110 8.103207
53.115 7.933607
53.120 7.982827
53.125 8.250833
53.130 8.552729
53.135 8.143695
53.140 7.795949
53.145 7.619692
53.150 7.889459
53.155 7.820467
53.160 7.614457
53.165 7.108251
53.170 6.859532
53.175 7.089115
53.180 7.355514
53.185 7.478048
53.190 7.212867
53.195 7.126801
53.200 7.582277
53.205 7.857485
53.210 8.002818
53.215 8.02667
53.220 7.794034
53.225 7.998115
53.230 8.388903
53.235 8.382565
53.240 8.522754
53.245 8.241247
53.250 8.376974
53.255 8.47234
53.260 8.072454
53.265 7.616955
53.270 7.657876
53.275 7.781235
53.280 7.656425
53.285 7.398148
53.290 7.408344
53.295 7.80794
53.300 7.829207
53.305 7.717328
53.310 7.878292
53.315 7.80818
53.320 7.856216
53.325 7.712509
53.330 8.232793
53.335 8.472009
53.340 8.186138
53.345 7.971684
53.350 7.871847
53.355 7.793175
53.360 7.5404
53.365 6.995161
53.370 7.068463
53.375 7.35271
53.380 7.581363
53.385 8.624166
53.390 9.000368
53.395 9.008564
53.400 9.422023
53.405 9.782887
53.410 10.169199
53.415 9.935546
53.420 9.440382
53.425 9.54291
53.430 9.618746
53.435 8.659736
53.440 8.068182
53.445 7.906566
53.450 8.280185
53.455 8.157301
53.460 8.247186
53.465 8.405077
53.470 8.769216
53.475 8.653546
53.480 8.533633
53.485 8.590766
53.490 9.017002
53.495 8.927518
53.500 8.669924
53.505 8.634239
53.510 8.864553
53.515 8.675606
53.520 7.870306
53.525 7.398286
53.530 7.104218
53.535 7.080451
53.540 7.115954
53.545 7.140938
53.550 6.956602
53.555 7.214537
53.560 7.918743
53.565 8.160119
53.570 8.125588
53.575 8.169394
53.580 8.05201
53.585 8.551919
53.590 8.415501
53.595 7.918656
53.600 7.983983
53.605 7.892997
53.610 8.11642
53.615 8.5952
53.620 8.525433
53.625 8.968044
53.630 9.112721
53.635 9.040403
53.640 9.535439
53.645 9.273015
53.650 8.945861
53.655 8.97979
53.660 8.797635
53.665 8.882383
53.670 8.920293
53.675 8.39868
53.680 8.558743
53.685 8.573533
53.690 8.623944
53.695 8.349836
53.700 8.394827
53.705 8.51517
53.710 8.641409
53.715 8.596416
53.720 8.76677
53.725 8.698052
53.730 8.841992
53.735 8.591778
53.740 8.705367
53.745 8.834949
53.750 8.938753
53.755 8.84667
53.760 8.777711
53.765 8.843282
53.770 9.014378
53.775 8.660104
53.780 8.29192
53.785 8.431925
53.790 8.644508
53.795 8.743851
53.800 9.210318
53.805 9.261342
53.810 9.464558
53.815 9.303949
53.820 9.027802
53.825 9.201369
53.830 8.627349
53.835 7.969276
53.840 8.38113
53.845 8.319139
53.850 8.046632
53.855 8.373926
53.860 8.450233
53.865 8.987223
53.870 9.273487
53.875 9.346365
53.880 9.524517
53.885 9.684931
53.890 9.379174
53.895 9.478656
53.900 9.444921
53.905 9.379525
53.910 9.323773
53.915 9.571671
53.920 9.445583
53.925 9.264013
53.930 8.987022
53.935 9.105919
53.940 9.230164
53.945 9.30987
53.950 9.463663
53.955 9.623636
53.960 10.111666
53.965 10.157125
53.970 9.977809
53.975 9.72898
53.980 9.172108
53.985 8.927786
53.990 8.803782
53.995 8.612026
54.000 8.684522
54.005 8.555208
54.010 8.352242
54.015 8.766645
54.020 9.024418
54.025 8.967783
54.030 8.817721
54.035 8.848918
54.040 9.174455
54.045 9.074263
54.050 8.911654
54.055 8.831544
54.060 9.632479
54.065 10.093103
54.070 10.152877
54.075 10.314454
54.080 10.656066
54.085 10.784214
54.090 10.43046
54.095 9.481914
54.100 8.909976
54.105 8.894216
54.110 8.916634
54.115 9.011698
54.120 8.790101
54.125 8.925557
54.130 8.963697
54.135 9.225385
54.140 8.859009
54.145 8.663851
54.150 8.935544
54.155 9.334729
54.160 9.135037
54.165 9.136576
54.170 9.144036
54.175 8.939531
54.180 8.701853
54.185 7.783256
54.190 7.413183
54.195 7.560743
54.200 7.644769
54.205 7.577986
54.210 7.851695
54.215 8.220925
54.220 8.9057
54.225 9.541524
54.230 9.743256
54.235 10.153851
54.240 10.480126
54.245 10.315423
54.250 10.158927
54.255 9.87237
54.260 9.353919
54.265 8.990176
54.270 8.64568
54.275 8.580128
54.280 8.575198
54.285 8.830878
54.290 9.018205
54.295 9.276548
54.300 9.144562
54.305 9.016406
54.310 9.196561
54.315 9.186475
54.320 8.717376
54.325 9.046841
54.330 9.011734
54.335 9.146407
54.340 9.235152
54.345 9.057236
54.350 9.260352
54.355 9.508622
54.360 9.227371
54.365 9.311468
54.370 9.318763
54.375 9.179365
54.380 8.856949
54.385 8.596671
54.390 8.540585
54.395 8.97569
54.400 8.998995
54.405 8.935996
54.410 8.888523
54.415 9.466648
54.420 9.855749
54.425 9.833372
54.430 10.009712
54.435 9.988979
54.440 10.113564
54.445 10.175595
54.450 10.040772
54.455 9.764643
54.460 9.327627
54.465 8.737109
54.470 8.999835
54.475 9.114282
54.480 9.366933
54.485 8.766516
54.490 8.812162
54.495 8.882108
54.500 9.012449
54.505 8.498771
54.510 8.849911
54.515 8.578629
54.520 8.604473
54.525 8.659571
54.530 8.615811
54.535 8.827182
54.540 8.80819
54.545 8.301441
54.550 8.601274
54.555 9.035193
54.560 9.247044
54.565 9.327928
54.570 9.141675
54.575 9.732841
54.580 9.678969
54.585 9.484833
54.590 9.364627
54.595 9.421066
54.600 9.484665
54.605 9.810909
54.610 9.930223
54.615 10.034749
54.620 9.986253
54.625 10.011828
54.630 9.898832
54.635 9.702671
54.640 8.996575
54.645 8.640445
54.650 9.039663
54.655 8.897811
54.660 9.19837
54.665 9.441498
54.670 9.514455
54.675 10.355828
54.680 10.570044
54.685 10.576657
54.690 10.314503
54.695 9.496891
54.700 9.352369
54.705 9.433825
54.710 9.214447
54.715 9.020516
54.720 8.912683
54.725 9.156664
54.730 9.346681
54.735 9.612419
54.740 9.503907
54.745 9.023049
54.750 9.456442
54.755 9.546848
54.760 9.664736
54.765 9.837345
54.770 9.728624
54.775 9.693962
54.780 9.939226
54.785 10.126795
54.790 10.053299
54.795 10.17389
54.800 9.88487
54.805 9.570942
54.810 9.80251
54.815 9.50049
54.820 9.094998
54.825 9.214138
54.830 9.306722
54.835 9.425475
54.840 9.622924
54.845 9.465187
54.850 9.776048
54.855 9.941781
54.860 10.116396
54.865 9.972349
54.870 9.856613
54.875 10.17793
54.880 10.276712
54.885 10.159175
54.890 10.091673
54.895 10.119591
54.900 10.618869
54.905 10.624222
54.910 10.276912
54.915 9.852771
54.920 9.738532
54.925 9.244066
54.930 8.62531
54.935 8.170132
54.940 8.559441
54.945 8.728185
54.950 8.834464
54.955 9.427953
54.960 9.833815
54.965 10.109274
54.970 10.17576
54.975 10.367717
54.980 10.366248
54.985 10.728018
54.990 10.351604
54.995 10.526814
55.000 10.787434
55.005 10.672282
55.010 10.521115
55.015 10.944714
55.020 10.749968
55.025 10.90743
55.030 10.905732
55.035 10.911418
55.040 11.018377
55.045 10.554238
55.050 10.686724
55.055 11.108732
55.060 11.356862
55.065 10.873147
55.070 10.898298
55.075 10.762091
55.080 10.888681
55.085 10.363857
55.090 9.652288
55.095 9.838531
55.100 9.965405
55.105 10.037403
55.110 9.922693
55.115 9.812242
55.120 10.194738
55.125 10.441914
55.130 10.34823
55.135 10.564189
55.140 10.39583
55.145 10.502899
55.150 10.634661
55.155 10.546168
55.160 10.296307
55.165 9.841535
55.170 9.105577
55.175 9.596221
55.180 9.874796
55.185 9.837562
55.190 9.918984
55.195 9.626317
55.200 9.868076
55.205 10.799747
55.210 10.620054
55.215 10.463385
55.220 10.211267
55.225 10.29737
55.230 11.039741
55.235 10.966907
55.240 10.637758
55.245 10.360732
55.250 10.293659
55.255 10.395702
55.260 9.645875
55.265 9.182735
55.270 9.230514
55.275 9.388324
55.280 9.392274
55.285 9.758328
55.290 9.917657
55.295 10.229621
55.300 10.377604
55.305 10.175167
55.310 10.05544
55.315 10.456748
55.320 10.538462
55.325 10.861004
55.330 11.346581
55.335 11.154086
55.340 10.88752
55.345 10.994812
55.350 11.172409
55.355 10.925225
55.360 10.178193
55.365 9.79369
55.370 9.834775
55.375 10.025954
55.380 9.987984
55.385 9.548197
55.390 9.513552
55.395 9.761118
55.400 10.060616
55.405 10.7945
55.410 11.09066
55.415 10.868178
55.420 10.886512
55.425 11.134457
55.430 11.436438
55.435 10.628438
55.440 9.86354
55.445 9.692539
55.450 9.788101
55.455 9.883501
55.460 9.715297
55.465 9.761861
55.470 10.144346
55.475 10.099575
55.480 10.05171
55.485 9.937727
55.490 9.974228
55.495 9.677066
55.500 9.817724
55.505 10.142453
55.510 10.250788
55.515 10.362005
55.520 10.703488
55.525 10.783117
55.530 10.873971
55.535 11.169009
55.540 11.108784
55.545 11.147738
55.550 10.988587
55.555 11.162859
55.560 11.021043
55.565 11.050849
55.570 10.634029
55.575 11.068934
55.580 11.05693
55.585 10.791178
55.590 10.291506
55.595 10.440997
55.600 10.451252
55.605 10.578372
55.610 10.708237
55.615 10.762061
55.620 10.583159
55.625 10.899819
55.630 10.988941
55.635 10.771211
55.640 10.663972
55.645 10.530098
55.650 10.364307
55.655 10.846242
55.660 10.714592
55.665 10.470677
55.670 10.038731
55.675 9.844187
55.680 10.087741
55.685 10.566058
55.690 10.498178
55.695 10.324732
55.700 10.947263
55.705 11.084092
55.710 10.704498
55.715 10.272263
55.720 9.838191
55.725 9.409643
55.730 9.594119
55.735 9.189567
55.740 9.349906
55.745 9.62966
55.750 9.828485
55.755 10.210474
55.760 10.582035
55.765 10.447584
55.770 10.888876
55.775 10.9047
55.780 10.814498
55.785 11.106691
55.790 11.190529
55.795 11.185232
55.800 11.345607
55.805 11.357053
55.810 11.42685
55.815 11.560081
55.820 11.394187
55.825 11.301551
55.830 11.324804
55.835 11.093997
55.840 11.730469
55.845 12.411761
55.850 12.603018
55.855 12.236159
55.860 12.153794
55.865 12.118048
55.870 12.11806
55.875 11.279101
55.880 10.711081
55.885 10.594788
55.890 10.910576
55.895 11.120322
55.900 10.725707
55.905 10.447849
55.910 10.609788
55.915 10.793217
55.920 11.112602
55.925 11.213255
55.930 11.304499
55.935 12.195281
55.940 13.049609
55.945 12.881961
55.950 13.200962
55.955 13.345153
55.960 13.525083
55.965 13.212267
55.970 12.611281
55.975 12.368595
55.980 12.366402
55.985 11.920883
55.990 11.595003
55.995 11.234317
56.000 11.634666
56.005 11.687588
56.010 11.734838
56.015 12.065899
56.020 11.729981
56.025 11.625772
56.030 11.519487
56.035 11.509857
56.040 11.672993
56.045 11.753899
56.050 11.420342
56.055 11.743245
56.060 12.003336
56.065 12.068767
56.070 11.981348
56.075 12.137379
56.080 11.839511
56.085 12.094708
56.090 11.846748
56.095 11.790842
56.100 11.58912
56.105 11.208091
56.110 10.623591
56.115 11.01985
56.120 10.758512
56.125 11.006346
56.130 10.629356
56.135 10.673041
56.140 10.826269
56.145 11.206811
56.150 10.670088
56.155 10.690937
56.160 10.562244
56.165 10.606912
56.170 10.961898
56.175 10.931061
56.180 10.536798
56.185 10.493512
56.190 10.142083
56.195 10.483919
56.200 10.834785
56.205 10.775549
56.210 10.874731
56.215 10.602904
56.220 11.487088
56.225 12.195258
56.230 12.607395
56.235 12.663898
56.240 12.586527
56.245 12.726696
56.250 13.05947
56.255 12.915056
56.260 12.709617
56.265 12.272292
56.270 12.009975
56.275 12.021871
56.280 11.826522
56.285 11.322077
56.290 11.091091
56.295 11.041742
56.300 11.348635
56.305 11.855549
56.310 11.816983
56.315 11.878839
56.320 11.855695
56.325 11.816529
56.330 11.497079
56.335 10.942575
56.340 10.936831
56.345 11.207051
56.350 11.447025
56.355 11.635202
56.360 11.599764
56.365 12.08702
56.370 12.225778
56.375 12.01604
56.380 11.793824
56.385 11.758178
56.390 11.534649
56.395 11.57841
56.400 11.433232
56.405 11.109488
56.410 10.986505
56.415 10.97368
56.420 11.091595
56.425 11.209608
56.430 11.145432
56.435 10.668889
56.440 11.12794
56.445 11.563717
56.450 11.439536
56.455 11.005203
56.460 11.183247
56.465 11.585195
56.470 11.67569
56.475 11.28308
56.480 10.962118
56.485 11.408038
56.490 11.816573
56.495 11.846712
56.500 11.206903
56.505 11.652024
56.510 11.644206
56.515 12.20131
56.520 12.366772
56.525 12.430135
56.530 13.09046
56.535 13.567453
56.540 13.413075
56.545 13.237629
56.550 12.906691
56.555 12.84536
56.560 12.546523
56.565 11.576775
56.570 11.658568
56.575 12.205998
56.580 12.585741
56.585 12.384758
56.590 12.054892
56.595 12.399736
56.600 12.843422
56.605 12.914032
56.610 12.419678
56.615 12.495121
56.620 12.754894
56.625 12.740638
56.630 12.484145
56.635 11.927849
56.640 11.917181
56.645 11.718721
56.650 11.190894
56.655 10.867691
56.660 10.624718
56.665 10.842518
56.670 10.900428
56.675 10.854958
56.680 11.113172
56.685 11.111205
56.690 11.506517
56.695 11.996048
56.700 12.239922
56.705 12.51611
56.710 12.380285
56.715 12.26081
56.720 12.383002
56.725 12.303972
56.730 12.138963
56.735 12.543903
56.740 12.709048
56.745 12.893503
56.750 13.568197
56.755 14.003427
56.760 14.45602
56.765 14.748737
56.770 14.397784
56.775 14.118414
56.780 13.368684
56.785 13.196455
56.790 13.531671
56.795 13.166883
56.800 12.769816
56.805 12.846183
56.810 13.413717
56.815 13.801282
56.820 13.293385
56.825 12.628618
56.830 12.542629
56.835 12.411482
56.840 12.709414
56.845 12.181787
56.850 12.117889
56.855 11.949187
56.860 11.760374
56.865 11.558799
56.870 11.458069
56.875 11.236866
56.880 11.275195
56.885 11.511115
56.890 11.964157
56.895 12.320208
56.900 13.104425
56.905 13.534717
56.910 13.307142
56.915 13.312042
56.920 13.117826
56.925 13.194263
56.930 13.367126
56.935 12.900388
56.940 12.4646
56.945 12.552032
56.950 12.524958
56.955 12.533202
56.960 12.399614
56.965 12.302439
56.970 12.32599
56.975 12.679289
56.980 12.891368
56.985 12.561275
56.990 12.464472
56.995 11.909522
57.000 11.42126
57.005 11.421382
57.010 10.840321
57.015 10.929195
57.020 11.358039
57.025 11.136004
57.030 11.271856
57.035 11.48104
57.040 11.369843
57.045 11.629886
57.050 11.330799
57.055 11.139359
57.060 11.508801
57.065 11.680083
57.070 11.847387
57.075 12.09577
57.080 11.921989
57.085 11.938571
57.090 12.040942
57.095 11.974002
57.100 12.115206
57.105 12.19237
57.110 12.313221
57.115 13.021543
57.120 13.264936
57.125 13.080133
57.130 12.867344
57.135 12.487224
57.140 12.619225
57.145 12.33857
57.150 11.949922
57.155 12.133579
57.160 12.323843
57.165 12.581877
57.170 12.596796
57.175 12.201845
57.180 12.041354
57.185 11.809998
57.190 11.955382
57.195 11.739978
57.200 11.978193
57.205 12.427193
57.210 13.112774
57.215 13.029356
57.220 13.590003
57.225 13.403527
57.230 13.509367
57.235 13.417555
57.240 13.241371
57.245 12.709961
57.250 12.681578
57.255 11.808008
57.260 11.793273
57.265 11.773853
57.270 11.36037
57.275 11.075243
57.280 10.972614
57.285 11.057899
57.290 11.764493
57.295 11.983458
57.300 12.095625
57.305 12.324814
57.310 12.491632
57.315 12.706284
57.320 13.153502
57.325 13.225311
57.330 13.450728
57.335 13.569861
57.340 13.856995
57.345 14.144757
57.350 14.891887
57.355 14.500834
57.360 13.967906
57.365 13.814088
57.370 13.746848
57.375 13.501377
57.380 13.035107
57.385 12.287578
57.390 12.234612
57.395 12.272243
57.400 12.481133
57.405 12.46284
57.410 12.56503
57.415 12.994446
57.420 13.205018
57.425 13.299866
57.430 12.922713
57.435 12.841918
57.440 13.242862
57.445 13.363699
57.450 12.808717
57.455 12.726945
57.460 12.750954
57.465 12.905229
57.470 12.570135
57.475 12.121259
57.480 12.027692
57.485 12.577574
57.490 12.985738
57.495 13.205544
57.500 13.306505
57.505 13.160682
57.510 13.587719
57.515 13.745522
57.520 13.648301
57.525 13.620901
57.530 13.529366
57.535 14.015097
57.540 14.27956
57.545 13.693897
57.550 13.541279
57.555 13.299977
57.560 12.750222
57.565 12.766184
57.570 12.506501
57.575 12.384767
57.580 12.885861
57.585 13.073392
57.590 13.413102
57.595 14.008492
57.600 14.297373
57.605 14.386942
57.610 14.868311
57.615 14.688304
57.620 14.597402
57.625 14.452461
57.630 13.981797
57.635 13.870267
57.640 13.914601
57.645 14.056576
57.650 13.983736
57.655 14.18
57.660 15.271065
57.665 15.439149
57.670 15.054762
57.675 14.430061
57.680 13.847761
57.685 14.150005
57.690 14.146652
57.695 13.399879
57.700 13.62827
57.705 13.536884
57.710 13.902006
57.715 13.92949
57.720 13.364736
57.725 12.789285
57.730 11.990163
57.735 11.84671
57.740 12.146622
57.745 12.34324
57.750 12.584491
57.755 13.099668
57.760 13.860603
57.765 13.832569
57.770 13.85098
57.775 13.293783
57.780 13.064952
57.785 12.971485
57.790 12.798255
57.795 12.363585
57.800 12.776886
57.805 13.655755
57.810 14.226214
57.815 14.37819
57.820 14.050567
57.825 13.946987
57.830 13.983799
57.835 14.232901
57.840 14.068377
57.845 13.797487
57.850 13.900441
57.855 13.916633
57.860 14.04509
57.865 14.376206
57.870 14.137856
57.875 14.184026
57.880 14.017215
57.885 13.510189
57.890 13.472493
57.895 13.429012
57.900 12.994953
57.905 12.67792
57.910 12.171915
57.915 12.530923
57.920 12.907447
57.925 12.995476
57.930 13.372558
57.935 13.729598
57.940 13.505177
57.945 13.308496
57.950 13.022626
57.955 12.775361
57.960 12.906692
57.965 12.429975
57.970 11.998442
57.975 12.374479
57.980 13.101192
57.985 13.489285
57.990 13.715361
57.995 13.465797
58.000 13.200857
58.005 13.163775
58.010 13.185887
58.015 12.881436
58.020 12.95807
58.025 12.935773
58.030 13.368916
58.035 13.506501
58.040 13.840278
58.045 14.387576
58.050 14.688635
58.055 14.868165
58.060 14.831064
58.065 14.519768
58.070 14.491828
58.075 14.237327
58.080 14.315039
58.085 14.280874
58.090 14.398539
58.095 14.67901
58.100 15.042422
58.105 14.921854
58.110 14.394385
58.115 13.363121
58.120 13.226005
58.125 12.849627
58.130 12.344305
58.135 13.004751
58.140 13.691343
58.145 14.02365
58.150 14.368271
58.155 14.171589
58.160 14.0998
58.165 14.146008
58.170 13.223193
58.175 12.592972
58.180 11.653383
58.185 11.438208
58.190 11.329136
58.195 11.203899
58.200 11.154193
58.205 11.609809
58.210 12.144075
58.215 13.028341
58.220 13.018161
58.225 12.580409
58.230 12.713373
58.235 13.213944
58.240 13.011875
58.245 13.130754
58.250 13.565653
58.255 14.140899
58.260 14.34969
58.265 13.628348
58.270 13.048192
58.275 12.610916
58.280 12.258315
58.285 12.014709
58.290 12.122105
58.295 12.935985
58.300 13.525031
58.305 13.916989
58.310 14.329619
58.315 14.866083
58.320 14.430345
58.325 14.231318
58.330 13.843477
58.335 14.363495
58.340 13.872149
58.345 13.982617
58.350 13.463834
58.355 13.941965
58.360 13.765126
58.365 13.826405
58.370 13.999959
58.375 14.293508
58.380 14.22728
58.385 14.533315
58.390 14.465684
58.395 14.711707
58.400 15.043363
58.405 14.927021
58.410 14.426105
58.415 14.265504
58.420 13.960396
58.425 13.347621
58.430 13.165145
58.435 12.722291
58.440 12.620892
58.445 12.813031
58.450 12.945737
58.455 13.128245
58.460 13.707869
58.465 13.651768
58.470 13.403123
58.475 13.94996
58.480 14.205931
58.485 14.846224
58.490 15.497866
58.495 15.488966
58.500 15.995872
58.505 16.064991
58.510 15.917006
58.515 16.071405
58.520 15.450717
58.525 15.361524
58.530 15.851242
58.535 15.542714
58.540 15.215925
58.545 15.012581
