!@!!GADDS PLOTSO FILE: Chi integration type
!@!!Title/SampleName: map-74
!@!!Comment: ?
!@!!User: Bruker Instrument Administrator
!@!!Site: University of Illinois Chicago
!@!!Frame: map-74_01_000.gfrm
!@!!Wavelengths    1.54184   1.54056   1.54439
!@!!Frame angles: 2Theta: 63.000 Omega: 50.000 Phi: 0.000 Chi: 90.000
!@!!Integration range: 2Theta: 53.000 to 73.000  Gamma: -105.000 to -75.000
!@!!Integration method: bin normalized
!@!N
!@!SS
!@!M
!@!L 0.0 0.0 0.0 0.0
!@!XDegrees
!@!YCounts
53.000 9.414827
53.005 9.380972
53.010 9.084512
53.015 9.046356
53.020 8.963488
53.025 9.212751
53.030 9.265173
53.035 9.581155
53.040 9.744749
53.045 9.708441
53.050 9.768723
53.055 9.827762
53.060 9.572351
53.065 9.838996
53.070 9.716486
53.075 9.856258
53.080 10.110622
53.085 9.848783
53.090 9.718026
53.095 9.439377
53.100 9.310347
53.105 9.516289
53.110 9.808584
53.115 9.907269
53.120 9.913672
53.125 10.017592
53.130 10.291339
53.135 9.883348
53.140 9.273855
53.145 8.904615
53.150 8.825749
53.155 8.805846
53.160 9.673404
53.165 10.291666
53.170 10.747963
53.175 11.16345
53.180 10.825366
53.185 10.688503
53.190 10.315213
53.195 9.22037
53.200 8.373009
53.205 7.936841
53.210 7.918798
53.215 8.437225
53.220 8.551035
53.225 8.364848
53.230 8.534242
53.235 8.83848
53.240 9.12649
53.245 9.20486
53.250 9.007488
53.255 9.390705
53.260 9.749698
53.265 9.524796
53.270 9.437659
53.275 9.546217
53.280 10.059737
53.285 10.469489
53.290 10.097495
53.295 10.166121
53.300 10.624079
53.305 10.740925
53.310 10.418922
53.315 10.040506
53.320 9.878358
53.325 10.276172
53.330 10.301943
53.335 10.35007
53.340 10.211058
53.345 9.856629
53.350 9.937272
53.355 10.209906
53.360 9.844647
53.365 9.424874
53.370 9.965945
53.375 10.324441
53.380 10.646208
53.385 10.274641
53.390 10.226418
53.395 10.581684
53.400 10.266101
53.405 9.704355
53.410 9.275459
53.415 9.019725
53.420 8.880685
53.425 9.069377
53.430 9.370367
53.435 9.763725
53.440 10.131052
53.445 10.148551
53.450 10.221518
53.455 10.571477
53.460 9.966459
53.465 9.660801
53.470 9.774997
53.475 9.7068
53.480 10.037058
53.485 10.322567
53.490 10.062533
53.495 10.222569
53.500 10.607007
53.505 10.254375
53.510 10.546979
53.515 10.457507
53.520 10.224061
53.525 10.645662
53.530 10.777497
53.535 10.810202
53.540 11.270705
53.545 10.857117
53.550 11.240132
53.555 11.271951
53.560 10.76339
53.565 10.593637
53.570 10.558272
53.575 10.353954
53.580 10.313669
53.585 9.828184
53.590 9.873111
53.595 9.576057
53.600 9.683792
53.605 9.508121
53.610 9.711568
53.615 9.972062
53.620 10.450992
53.625 10.592872
53.630 10.640092
53.635 10.420934
53.640 10.120799
53.645 9.95205
53.650 9.685373
53.655 9.57007
53.660 9.707644
53.665 9.98923
53.670 9.847463
53.675 9.766734
53.680 10.124385
53.685 10.127421
53.690 9.909468
53.695 9.819193
53.700 9.706027
53.705 10.005965
53.710 10.644852
53.715 10.574556
53.720 10.669391
53.725 10.514447
53.730 10.676537
53.735 10.230916
53.740 9.793967
53.745 9.309016
53.750 9.546547
53.755 9.551503
53.760 9.806695
53.765 10.213164
53.770 10.603728
53.775 10.815432
53.780 10.401699
53.785 10.36014
53.790 10.184553
53.795 10.176432
53.800 10.159378
53.805 10.391728
53.810 10.311552
53.815 10.441216
53.820 10.697349
53.825 11.15224
53.830 11.077261
53.835 11.033591
53.840 11.427101
53.845 11.693159
53.850 11.444653
53.855 10.969554
53.860 10.650827
53.865 10.70795
53.870 10.798603
53.875 10.555353
53.880 10.911334
53.885 10.950984
53.890 10.74469
53.895 10.708789
53.900 10.463428
53.905 10.157132
53.910 10.093442
53.915 9.851776
53.920 10.22213
53.925 10.833737
53.930 10.599738
53.935 10.660009
53.940 10.72727
53.945 10.849796
53.950 10.552232
53.955 10.372245
53.960 10.374423
53.965 10.744292
53.970 10.793803
53.975 10.307511
53.980 10.500497
53.985 10.856174
53.990 10.576231
53.995 10.149755
54.000 10.195269
54.005 10.645607
54.010 10.908497
54.015 10.798032
54.020 10.819038
54.025 10.941186
54.030 11.195043
54.035 11.229371
54.040 11.019047
54.045 11.310218
54.050 11.316068
54.055 11.4279
54.060 11.458052
54.065 10.923402
54.070 10.721624
54.075 11.059884
54.080 11.248137
54.085 11.025101
54.090 10.693931
54.095 11.074627
54.100 11.349044
54.105 10.963727
54.110 10.009206
54.115 10.02054
54.120 10.008668
54.125 10.363912
54.130 10.525952
54.135 10.879697
54.140 11.442187
54.145 11.986281
54.150 11.624351
54.155 11.55037
54.160 11.18956
54.165 10.58355
54.170 10.422244
54.175 9.771301
54.180 9.795288
54.185 10.035835
54.190 9.520127
54.195 9.670619
54.200 10.202221
54.205 10.189137
54.210 10.593359
54.215 10.729713
54.220 11.192478
54.225 11.845419
54.230 11.803805
54.235 11.671432
54.240 11.527772
54.245 11.530245
54.250 11.119012
54.255 10.756292
54.260 10.657069
54.265 10.880717
54.270 10.875544
54.275 11.138994
54.280 11.436306
54.285 11.984476
54.290 11.863156
54.295 11.719729
54.300 11.403553
54.305 11.722352
54.310 11.405508
54.315 11.118829
54.320 11.325191
54.325 11.220352
54.330 11.247452
54.335 11.65135
54.340 11.713071
54.345 11.441906
54.350 11.399405
54.355 11.367083
54.360 11.738347
54.365 11.778154
54.370 11.306731
54.375 10.906776
54.380 10.887085
54.385 10.490967
54.390 10.486857
54.395 10.356531
54.400 10.279293
54.405 10.209753
54.410 10.312796
54.415 10.617717
54.420 10.569571
54.425 10.500508
54.430 10.377771
54.435 10.26248
54.440 10.018636
54.445 9.933387
54.450 9.782871
54.455 9.63792
54.460 9.976103
54.465 10.285552
54.470 10.488252
54.475 10.567723
54.480 10.178519
54.485 10.293253
54.490 10.219053
54.495 9.726605
54.500 9.901735
54.505 10.212154
54.510 10.925099
54.515 11.592876
54.520 11.734382
54.525 11.844418
54.530 11.69922
54.535 11.192205
54.540 10.900097
54.545 10.747909
54.550 10.739865
54.555 10.579359
54.560 10.787781
54.565 10.962075
54.570 11.13622
54.575 11.366817
54.580 11.155264
54.585 10.945377
54.590 10.864931
54.595 10.436129
54.600 10.273022
54.605 10.476005
54.610 10.676949
54.615 11.071429
54.620 11.362494
54.625 11.452612
54.630 11.655683
54.635 11.97247
54.640 12.001651
54.645 12.336796
54.650 12.198314
54.655 12.17205
54.660 12.813934
54.665 12.952541
54.670 12.812621
54.675 12.619709
54.680 12.738127
54.685 12.678508
54.690 12.61102
54.695 12.589609
54.700 12.788667
54.705 12.768825
54.710 12.183376
54.715 11.413246
54.720 11.181767
54.725 11.382128
54.730 11.677966
54.735 11.941912
54.740 12.703117
54.745 13.318087
54.750 13.512836
54.755 13.662953
54.760 13.308523
54.765 12.797117
54.770 12.335309
54.775 11.450155
54.780 11.717968
54.785 11.833694
54.790 11.979774
54.795 11.902738
54.800 11.918246
54.805 11.792741
54.810 11.734719
54.815 11.240794
54.820 11.014705
54.825 11.459215
54.830 11.686186
54.835 11.73766
54.840 12.573062
54.845 13.489087
54.850 14.136135
54.855 14.400659
54.860 13.800519
54.865 13.693788
54.870 13.658092
54.875 13.048835
54.880 12.606558
54.885 11.934592
54.890 11.279419
54.895 11.30651
54.900 11.129767
54.905 11.422048
54.910 11.447413
54.915 11.350688
54.920 11.874118
54.925 12.059854
54.930 12.068675
54.935 12.04956
54.940 11.563639
54.945 11.417396
54.950 11.559366
54.955 10.966464
54.960 11.098378
54.965 11.102878
54.970 11.127514
54.975 11.630341
54.980 11.573612
54.985 11.447088
54.990 11.726925
54.995 11.692295
55.000 11.351192
55.005 11.287842
55.010 11.134826
55.015 11.18004
55.020 11.18375
55.025 11.045908
55.030 11.054837
55.035 11.184383
55.040 10.791064
55.045 10.397282
55.050 10.719295
55.055 11.147161
55.060 11.71389
55.065 11.730706
55.070 11.990193
55.075 12.585587
55.080 12.908167
55.085 12.362441
55.090 11.772888
55.095 11.516129
55.100 11.619097
55.105 11.398971
55.110 11.152394
55.115 11.461322
55.120 11.383197
55.125 11.20331
55.130 11.141425
55.135 11.78105
55.140 12.046128
55.145 11.974586
55.150 11.662993
55.155 12.044974
55.160 12.954317
55.165 13.155193
55.170 12.505347
55.175 12.449049
55.180 12.766767
55.185 13.145088
55.190 13.211034
55.195 13.217096
55.200 13.668989
55.205 13.570716
55.210 13.747693
55.215 13.448344
55.220 13.116839
55.225 12.479698
55.230 11.845082
55.235 11.303545
55.240 11.326303
55.245 11.403022
55.250 11.269619
55.255 11.064713
55.260 11.691232
55.265 11.80121
55.270 12.231806
55.275 12.245551
55.280 12.264616
55.285 12.53488
55.290 12.810887
55.295 12.914083
55.300 12.827383
55.305 12.689683
55.310 12.931781
55.315 13.336704
55.320 13.68364
55.325 14.04949
55.330 14.020104
55.335 13.817534
55.340 13.491556
55.345 13.410751
55.350 13.067453
55.355 13.005138
55.360 12.979334
55.365 12.997599
55.370 13.188894
55.375 13.418281
55.380 13.102686
55.385 12.924651
55.390 12.406883
55.395 12.022405
55.400 11.779903
55.405 11.923952
55.410 11.952675
55.415 12.246632
55.420 12.360494
55.425 12.362517
55.430 12.505214
55.435 12.741516
55.440 12.619781
55.445 12.252862
55.450 12.58952
55.455 12.779356
55.460 12.724146
55.465 12.59729
55.470 12.406709
55.475 12.743336
55.480 12.574699
55.485 12.218959
55.490 12.59978
55.495 12.831015
55.500 12.814014
55.505 12.690898
55.510 12.502992
55.515 12.583944
55.520 12.764333
55.525 12.355388
55.530 12.024455
55.535 11.871696
55.540 11.934767
55.545 12.187717
55.550 12.500763
55.555 12.336431
55.560 12.77406
55.565 12.700109
55.570 12.571283
55.575 12.153192
55.580 11.99585
55.585 11.592307
55.590 11.41334
55.595 10.987446
55.600 11.423115
55.605 12.111541
55.610 12.462387
55.615 12.457451
55.620 12.554718
55.625 12.546482
55.630 12.232437
55.635 12.171723
55.640 11.902065
55.645 12.163484
55.650 12.410637
55.655 12.871137
55.660 13.349128
55.665 14.044359
55.670 14.050042
55.675 13.43283
55.680 13.129759
55.685 13.51709
55.690 13.19193
55.695 13.551481
55.700 13.156273
55.705 12.890913
55.710 13.273315
55.715 13.078833
55.720 12.555284
55.725 11.959196
55.730 11.490147
55.735 11.419889
55.740 11.630692
55.745 11.82768
55.750 11.410856
55.755 11.205988
55.760 11.527566
55.765 11.302327
55.770 11.45853
55.775 11.652888
55.780 12.061497
55.785 12.586624
55.790 12.708379
55.795 12.557762
55.800 12.947824
55.805 13.745716
55.810 13.914276
55.815 13.767302
55.820 13.951458
55.825 14.026889
55.830 14.10784
55.835 13.867474
55.840 12.837883
55.845 12.647025
55.850 12.607207
55.855 12.119925
55.860 11.975266
55.865 12.174588
55.870 12.281975
55.875 13.143303
55.880 13.260361
55.885 13.638162
55.890 13.930509
55.895 13.942244
55.900 13.85872
55.905 14.1374
55.910 13.437913
55.915 13.158281
55.920 13.113916
55.925 13.556033
55.930 13.316958
55.935 13.289927
55.940 13.580185
55.945 13.986327
55.950 13.463119
55.955 13.209901
55.960 12.948397
55.965 13.137278
55.970 12.526028
55.975 11.643907
55.980 11.58882
55.985 11.859241
55.990 11.632552
55.995 11.889289
56.000 12.230323
56.005 12.518816
56.010 12.334358
56.015 11.992069
56.020 11.742904
56.025 12.10659
56.030 11.877798
56.035 12.142582
56.040 12.134879
56.045 12.418816
56.050 12.968449
56.055 13.320913
56.060 12.993506
56.065 12.964763
56.070 12.499771
56.075 13.281986
56.080 14.077931
56.085 14.022124
56.090 13.223768
56.095 13.262567
56.100 13.57158
56.105 13.67485
56.110 12.580423
56.115 11.98932
56.120 12.37193
56.125 12.513233
56.130 12.423699
56.135 12.211293
56.140 12.205909
56.145 13.15733
56.150 12.964522
56.155 12.803077
56.160 12.853521
56.165 12.949956
56.170 13.060623
56.175 12.966517
56.180 12.671253
56.185 12.640935
56.190 12.723166
56.195 12.820955
56.200 12.66337
56.205 12.621104
56.210 12.76218
56.215 12.896113
56.220 12.910007
56.225 13.857819
56.230 14.656433
56.235 15.020632
56.240 15.30752
56.245 15.880299
56.250 16.311684
56.255 16.213757
56.260 15.383466
56.265 14.95116
56.270 14.738676
56.275 14.255311
56.280 13.187276
56.285 13.004834
56.290 13.472808
56.295 13.223635
56.300 13.082357
56.305 13.270926
56.310 13.823412
56.315 13.769051
56.320 13.753438
56.325 13.616908
56.330 13.560436
56.335 13.412501
56.340 13.208317
56.345 13.321716
56.350 13.710201
56.355 13.294584
56.360 13.178573
56.365 13.650765
56.370 13.604989
56.375 13.258649
56.380 12.735499
56.385 13.391325
56.390 12.969207
56.395 12.722341
56.400 12.83105
56.405 12.693944
56.410 12.761153
56.415 12.538241
56.420 11.898074
56.425 12.512309
56.430 13.045208
56.435 12.771766
56.440 13.004551
56.445 13.322906
56.450 13.45261
56.455 13.306788
56.460 12.833918
56.465 12.284761
56.470 12.305139
56.475 12.487561
56.480 12.285376
56.485 12.257558
56.490 12.452371
56.495 12.860415
56.500 13.411783
56.505 13.710945
56.510 13.5721
56.515 13.546839
56.520 13.879371
56.525 13.754907
56.530 14.136189
56.535 14.599727
56.540 14.168836
56.545 14.222645
56.550 14.555131
56.555 14.941524
56.560 15.073022
56.565 13.980563
56.570 13.211541
56.575 13.752275
56.580 13.863696
56.585 13.702652
56.590 13.254269
56.595 12.767799
56.600 12.635081
56.605 12.373408
56.610 11.834883
56.615 11.465693
56.620 11.199747
56.625 11.157974
56.630 11.572948
56.635 12.485703
56.640 12.691635
56.645 12.440433
56.650 13.253568
56.655 13.628677
56.660 13.930441
56.665 13.874341
56.670 13.779683
56.675 14.051111
56.680 14.246412
56.685 14.081564
56.690 13.837056
56.695 14.094335
56.700 14.087632
56.705 14.170711
56.710 14.315922
56.715 14.731241
56.720 14.5587
56.725 14.622812
56.730 14.611963
56.735 14.394286
56.740 14.168763
56.745 14.170048
56.750 14.360665
56.755 14.234608
56.760 14.208866
56.765 14.135687
56.770 14.676352
56.775 14.969762
56.780 14.78882
56.785 14.710338
56.790 14.881065
56.795 14.87658
56.800 14.738495
56.805 14.136739
56.810 13.763284
56.815 12.939689
56.820 12.649211
56.825 12.665193
56.830 12.379395
56.835 12.662686
56.840 12.735457
56.845 12.981335
56.850 13.757902
56.855 13.793792
56.860 14.11834
56.865 14.26979
56.870 14.057078
56.875 14.175999
56.880 13.869021
56.885 13.873306
56.890 13.738849
56.895 13.126164
56.900 13.105101
56.905 13.160807
56.910 13.021067
56.915 12.931092
56.920 12.89724
56.925 12.890462
56.930 13.669712
56.935 13.890407
56.940 14.18999
56.945 14.92405
56.950 15.049543
56.955 15.162757
56.960 15.335123
56.965 14.539963
56.970 14.675261
56.975 14.253722
56.980 13.635982
56.985 13.769799
56.990 13.251317
56.995 13.189149
57.000 13.712155
57.005 13.633887
57.010 13.906567
57.015 14.0784
57.020 14.037479
57.025 14.284834
57.030 14.30673
57.035 14.108582
57.040 14.221084
57.045 14.278511
57.050 14.334763
57.055 14.084624
57.060 13.98407
57.065 13.976862
57.070 14.046845
57.075 13.892778
57.080 13.741441
57.085 14.057429
57.090 14.57101
57.095 14.595857
57.100 14.581954
57.105 14.544538
57.110 14.793869
57.115 14.600915
57.120 14.451859
57.125 14.438865
57.130 14.576635
57.135 14.68711
57.140 14.965156
57.145 15.063186
57.150 15.586321
57.155 15.586048
57.160 15.639148
57.165 15.86421
57.170 15.480599
57.175 15.097599
57.180 15.046164
57.185 14.592381
57.190 14.367865
57.195 14.222378
57.200 14.070649
57.205 13.864705
57.210 13.443758
57.215 13.626172
57.220 13.503682
57.225 13.611917
57.230 13.595942
57.235 13.799595
57.240 13.840238
57.245 13.83033
57.250 13.395372
57.255 13.684978
57.260 13.003615
57.265 12.784517
57.270 12.712722
57.275 12.972375
57.280 13.067768
57.285 13.176294
57.290 13.74369
57.295 14.015998
57.300 14.235728
57.305 14.522901
57.310 14.905966
57.315 15.501496
57.320 15.52755
57.325 15.121386
57.330 15.511819
57.335 15.431873
57.340 14.832917
57.345 14.464637
57.350 14.505469
57.355 14.466593
57.360 14.646289
57.365 14.629306
57.370 14.856369
57.375 15.249673
57.380 15.70218
57.385 15.139396
57.390 14.957289
57.395 14.900209
57.400 14.749783
57.405 14.595506
57.410 14.718512
57.415 14.699402
57.420 14.750707
57.425 14.385595
57.430 14.160496
57.435 14.538738
57.440 14.342094
57.445 13.826654
57.450 13.489622
57.455 13.588573
57.460 14.427811
57.465 14.57644
57.470 14.34102
57.475 14.690834
57.480 14.937151
57.485 15.218987
57.490 15.297405
57.495 14.939116
57.500 15.148149
57.505 14.738695
57.510 14.577901
57.515 15.062109
57.520 14.69628
57.525 14.332048
57.530 14.191871
57.535 14.224411
57.540 14.496184
57.545 13.753573
57.550 13.060678
57.555 13.602446
57.560 14.143938
57.565 14.045156
57.570 13.635891
57.575 13.570049
57.580 14.074327
57.585 14.655109
57.590 15.274602
57.595 15.739657
57.600 15.96753
57.605 16.150244
57.610 16.992886
57.615 17.119654
57.620 16.682657
57.625 16.497469
57.630 16.380703
57.635 16.63818
57.640 16.213522
57.645 15.395116
57.650 14.892734
57.655 15.005551
57.660 14.007727
57.665 13.368952
57.670 13.398513
57.675 14.191955
57.680 14.265636
57.685 14.59944
57.690 14.978878
57.695 15.591509
57.700 15.390589
57.705 14.883864
57.710 14.706899
57.715 15.028885
57.720 15.478096
57.725 15.348218
57.730 15.659268
57.735 16.005428
57.740 15.902065
57.745 15.733172
57.750 15.906938
57.755 15.484149
57.760 15.532248
57.765 15.051296
57.770 15.360311
57.775 15.732757
57.780 15.692175
57.785 15.501801
57.790 15.290689
57.795 14.996915
57.800 15.097611
57.805 15.384643
57.810 15.635879
57.815 15.854474
57.820 16.138426
57.825 15.777596
57.830 15.292476
57.835 15.25486
57.840 14.597389
57.845 14.237373
57.850 14.160562
57.855 14.170758
57.860 14.898162
57.865 15.598285
57.870 15.745124
57.875 16.289942
57.880 16.439041
57.885 16.286263
57.890 15.807044
57.895 16.133369
57.900 16.081923
57.905 16.274246
57.910 15.573602
57.915 15.550849
57.920 15.757668
57.925 16.291534
57.930 15.860301
57.935 15.768704
57.940 15.398485
57.945 15.743869
57.950 15.922631
57.955 15.565299
57.960 14.919307
57.965 14.902603
57.970 16.060452
57.975 16.738462
57.980 17.111183
57.985 17.078089
57.990 17.332691
57.995 17.604383
58.000 17.228891
58.005 16.445778
58.010 16.205597
58.015 15.601228
58.020 15.420865
58.025 15.600045
58.030 16.100737
58.035 16.157984
58.040 16.43285
58.045 16.59903
58.050 17.419918
58.055 17.712372
58.060 17.278732
58.065 17.119858
58.070 17.269173
58.075 17.363583
58.080 16.884815
58.085 15.94398
58.090 16.430826
58.095 17.312836
58.100 17.719406
58.105 18.112062
58.110 17.766445
58.115 17.95208
58.120 18.057652
58.125 17.441622
58.130 16.734022
58.135 15.812519
58.140 15.4522
58.145 15.916174
58.150 16.311424
58.155 16.630016
58.160 16.73237
58.165 17.009588
58.170 17.647064
58.175 17.838495
58.180 17.146229
58.185 17.106613
58.190 17.34738
58.195 17.394506
58.200 17.769421
58.205 17.84783
58.210 17.93198
58.215 18.425211
58.220 18.951653
58.225 18.689308
58.230 18.247511
58.235 17.961739
58.240 17.248672
58.245 16.911528
58.250 17.454361
58.255 16.948656
58.260 17.056347
58.265 17.038273
58.270 17.295603
58.275 18.250933
58.280 19.205564
58.285 18.406019
58.290 19.002447
58.295 19.665668
58.300 19.796158
58.305 20.06547
58.310 20.212143
58.315 19.875027
58.320 20.413815
58.325 20.148676
58.330 20.005941
58.335 20.784927
58.340 20.51362
58.345 20.380274
58.350 19.964169
58.355 20.115137
58.360 20.260086
58.365 20.720726
58.370 20.730822
58.375 20.77116
58.380 20.560774
58.385 20.707541
58.390 21.202257
58.395 21.276234
58.400 20.63484
58.405 19.943323
58.410 20.172205
58.415 20.495796
58.420 20.835766
58.425 20.163748
58.430 19.707691
58.435 19.726269
58.440 19.850279
58.445 19.326504
58.450 19.007191
58.455 18.305933
58.460 18.304787
58.465 19.000093
