!@!!GADDS PLOTSO FILE: Chi integration type
!@!!Title/SampleName: map-c8
!@!!Comment: ?
!@!!User: Bruker Instrument Administrator
!@!!Site: University of Illinois Chicago
!@!!Frame: map-c8_01_000.gfrm
!@!!Wavelengths    1.54184   1.54056   1.54439
!@!!Frame angles: 2Theta: 63.000 Omega: 50.000 Phi: 0.000 Chi: 90.000
!@!!Integration range: 2Theta: 53.000 to 73.000  Gamma: -105.000 to -75.000
!@!!Integration method: bin normalized
!@!N
!@!SS
!@!M
!@!L 0.0 0.0 0.0 0.0
!@!XDegrees
!@!YCounts
53.000 7.154841
53.005 6.695065
53.010 6.591441
53.015 6.191185
53.020 6.082018
53.025 5.738259
53.030 5.739233
53.035 5.87455
53.040 5.69813
53.045 5.402953
53.050 5.543555
53.055 5.520326
53.060 5.111733
53.065 4.910196
53.070 5.134097
53.075 5.240293
53.080 5.457863
53.085 5.217799
53.090 5.579915
53.095 6.12475
53.100 6.554309
53.105 6.874088
53.110 7.240331
53.115 7.509611
53.120 7.897166
53.125 7.679426
53.130 7.469212
53.135 7.217575
53.140 7.408914
53.145 7.032366
53.150 6.454915
53.155 6.358669
53.160 6.445073
53.165 6.453579
53.170 5.815503
53.175 5.436343
53.180 5.722222
53.185 6.306834
53.190 6.121889
53.195 6.218663
53.200 6.73167
53.205 7.257127
53.210 7.327963
53.215 7.159682
53.220 7.279718
53.225 7.453335
53.230 7.31945
53.235 7.414474
53.240 7.602355
53.245 7.605957
53.250 7.028036
53.255 6.406596
53.260 6.574858
53.265 6.17785
53.270 5.832217
53.275 5.844883
53.280 5.96797
53.285 6.265997
53.290 6.304221
53.295 6.617416
53.300 7.019935
53.305 7.044787
53.310 6.946535
53.315 7.14418
53.320 7.759938
53.325 8.017576
53.330 7.923744
53.335 7.608754
53.340 7.113983
53.345 7.226292
53.350 7.628405
53.355 7.328821
53.360 6.892033
53.365 6.973834
53.370 7.216318
53.375 7.315191
53.380 7.020214
53.385 6.270802
53.390 6.139189
53.395 6.371316
53.400 6.337124
53.405 6.220868
53.410 6.186103
53.415 6.092968
53.420 6.13017
53.425 6.111934
53.430 5.779678
53.435 6.029496
53.440 6.387404
53.445 6.560426
53.450 6.568983
53.455 6.634997
53.460 7.137889
53.465 7.307665
53.470 7.18997
53.475 7.200242
53.480 7.366158
53.485 7.433899
53.490 7.536149
53.495 7.178663
53.500 7.037279
53.505 6.475151
53.510 6.27774
53.515 6.390957
53.520 6.565968
53.525 6.038587
53.530 5.874957
53.535 6.280129
53.540 6.7822
53.545 6.962792
53.550 6.99905
53.555 7.220772
53.560 7.760052
53.565 8.23598
53.570 8.202484
53.575 8.255859
53.580 8.162782
53.585 7.951328
53.590 7.801108
53.595 7.764169
53.600 7.32603
53.605 7.245808
53.610 7.009735
53.615 6.918545
53.620 6.982705
53.625 6.795242
53.630 6.67263
53.635 6.989484
53.640 6.967436
53.645 7.167997
53.650 7.253281
53.655 7.423923
53.660 7.360621
53.665 6.963792
53.670 7.013062
53.675 6.860659
53.680 6.516941
53.685 6.724256
53.690 6.595204
53.695 7.018415
53.700 7.3961
53.705 7.420387
53.710 7.570195
53.715 7.794171
53.720 7.432514
53.725 7.338464
53.730 7.117887
53.735 6.599546
53.740 6.587066
53.745 6.357442
53.750 6.200327
53.755 5.968335
53.760 6.36871
53.765 6.272827
53.770 6.410447
53.775 6.800232
53.780 7.388998
53.785 7.506721
53.790 7.55524
53.795 7.473532
53.800 7.683021
53.805 7.662463
53.810 7.492801
53.815 6.952944
53.820 7.374795
53.825 7.435503
53.830 7.690197
53.835 7.739209
53.840 7.59288
53.845 7.647309
53.850 7.45835
53.855 7.528968
53.860 7.477956
53.865 6.866581
53.870 6.692119
53.875 7.025949
53.880 7.294859
53.885 7.31795
53.890 7.102613
53.895 7.017778
53.900 7.29169
53.905 7.472075
53.910 7.057837
53.915 6.837638
53.920 7.250251
53.925 7.310481
53.930 7.274037
53.935 7.500521
53.940 7.34377
53.945 7.429957
53.950 7.397857
53.955 7.175092
53.960 7.614509
53.965 8.095112
53.970 8.266645
53.975 8.608724
53.980 8.598345
53.985 8.598054
53.990 8.498879
53.995 8.58431
54.000 8.381441
54.005 8.147237
54.010 7.612792
54.015 7.679752
54.020 8.022765
54.025 7.999494
54.030 7.370283
54.035 7.246539
54.040 7.337353
54.045 7.647677
54.050 7.599382
54.055 7.739453
54.060 7.7714
54.065 7.93444
54.070 7.712251
54.075 7.703467
54.080 7.920521
54.085 7.677254
54.090 7.469605
54.095 7.562634
54.100 7.676341
54.105 7.983347
54.110 7.949376
54.115 7.801276
54.120 7.974328
54.125 7.923322
54.130 7.749967
54.135 7.477876
54.140 6.982764
54.145 6.863381
54.150 6.640004
54.155 6.388277
54.160 6.29832
54.165 6.576549
54.170 6.740997
54.175 7.439735
54.180 7.936805
54.185 8.098066
54.190 8.481984
54.195 8.334323
54.200 8.610271
54.205 8.859993
54.210 7.984278
54.215 7.984106
54.220 7.557233
54.225 7.532452
54.230 7.70713
54.235 7.607375
54.240 7.558687
54.245 7.622365
54.250 7.602294
54.255 7.969234
54.260 8.103119
54.265 8.366401
54.270 8.526267
54.275 8.69234
54.280 9.046433
54.285 9.108981
54.290 9.368283
54.295 9.484417
54.300 9.007079
54.305 8.527384
54.310 8.417366
54.315 8.268088
54.320 8.459614
54.325 8.495536
54.330 8.528669
54.335 8.305848
54.340 8.800282
54.345 8.60672
54.350 8.464774
54.355 7.953977
54.360 7.340765
54.365 7.161325
54.370 7.691203
54.375 7.829426
54.380 8.001538
54.385 7.850689
54.390 8.067227
54.395 8.061225
54.400 7.914829
54.405 7.544243
54.410 7.257266
54.415 7.317077
54.420 7.383911
54.425 7.41748
54.430 7.554835
54.435 7.68188
54.440 7.491951
54.445 7.418164
54.450 7.682034
54.455 7.565281
54.460 7.703927
54.465 7.97394
54.470 8.140053
54.475 8.719969
54.480 8.96363
54.485 8.851398
54.490 8.96351
54.495 9.157958
54.500 9.022282
54.505 8.973956
54.510 8.511962
54.515 8.428505
54.520 8.734369
54.525 8.669926
54.530 8.267764
54.535 7.952883
54.540 7.708828
54.545 8.364567
54.550 8.066094
54.555 7.351381
54.560 7.120612
54.565 7.396155
54.570 7.796199
54.575 7.94386
54.580 7.252604
54.585 7.57309
54.590 8.055245
54.595 8.325263
54.600 8.089251
54.605 7.854253
54.610 7.578638
54.615 7.524195
54.620 7.50401
54.625 7.59857
54.630 7.521852
54.635 7.495992
54.640 7.432115
54.645 7.727346
54.650 7.841371
54.655 7.876986
54.660 7.727445
54.665 7.371489
54.670 7.300426
54.675 7.469007
54.680 7.45406
54.685 7.236756
54.690 7.055989
54.695 7.719422
54.700 8.236913
54.705 8.449296
54.710 8.427383
54.715 8.35147
54.720 8.367513
54.725 8.354242
54.730 8.166449
54.735 8.348209
54.740 8.047284
54.745 8.212598
54.750 8.742551
54.755 9.370466
54.760 9.318175
54.765 9.06318
54.770 9.010941
54.775 9.007196
54.780 9.135993
54.785 8.763406
54.790 8.05577
54.795 8.274767
54.800 8.151524
54.805 8.270606
54.810 8.408984
54.815 8.117873
54.820 8.006416
54.825 8.450596
54.830 8.372664
54.835 8.471673
54.840 9.088461
54.845 9.263429
54.850 9.506072
54.855 9.415709
54.860 9.544598
54.865 9.806637
54.870 9.442363
54.875 8.799941
54.880 8.526356
54.885 8.365723
54.890 8.320519
54.895 8.061679
54.900 7.647371
54.905 7.493453
54.910 7.208037
54.915 7.416014
54.920 7.608389
54.925 8.150326
54.930 8.365005
54.935 8.427312
54.940 8.75351
54.945 8.964732
54.950 9.407663
54.955 9.357421
54.960 9.019518
54.965 8.846289
54.970 8.961113
54.975 8.843474
54.980 8.61118
54.985 8.168764
54.990 8.10977
54.995 8.130738
55.000 7.992757
55.005 7.938948
55.010 8.050703
55.015 7.972156
55.020 7.83639
55.025 7.704891
55.030 7.473722
55.035 7.350272
55.040 7.531461
55.045 7.43858
55.050 7.207709
55.055 7.057386
55.060 6.998986
55.065 7.121657
55.070 7.005411
55.075 7.091228
55.080 7.520807
55.085 8.016113
55.090 8.241128
55.095 8.577689
55.100 9.192778
55.105 9.650735
55.110 9.453409
55.115 9.143519
55.120 8.585768
55.125 8.486814
55.130 7.997573
55.135 7.691518
55.140 7.406204
55.145 7.614891
55.150 7.835733
55.155 8.170396
55.160 8.409973
55.165 8.952026
55.170 9.219356
55.175 9.229151
55.180 9.261473
55.185 9.620881
55.190 9.940718
55.195 9.930979
55.200 10.35815
55.205 10.358425
55.210 10.370056
55.215 10.153484
55.220 9.93696
55.225 9.660498
55.230 9.159567
55.235 8.55158
55.240 8.758041
55.245 9.204005
55.250 9.642893
55.255 9.301218
55.260 9.116631
55.265 8.964247
55.270 8.651054
55.275 8.438496
55.280 7.702328
55.285 7.385385
55.290 7.533778
55.295 7.714409
55.300 8.542017
55.305 8.522224
55.310 8.318012
55.315 8.768584
55.320 8.951519
55.325 9.012047
55.330 9.244061
55.335 8.911712
55.340 8.787223
55.345 8.592212
55.350 8.423787
55.355 8.26147
55.360 8.179071
55.365 7.687441
55.370 7.579766
55.375 7.921489
55.380 8.344409
55.385 8.40068
55.390 8.627882
55.395 8.907091
55.400 9.280262
55.405 9.338898
55.410 9.726051
55.415 9.788579
55.420 10.260985
55.425 10.594057
55.430 11.073082
55.435 10.723309
55.440 10.35291
55.445 9.817518
55.450 9.632308
55.455 9.073388
55.460 8.472422
55.465 8.262802
55.470 8.704701
55.475 9.092219
55.480 9.000681
55.485 9.109089
55.490 9.295424
55.495 9.25351
55.500 8.996447
55.505 9.014947
55.510 9.194801
55.515 9.217027
55.520 8.851524
55.525 8.640072
55.530 8.291041
55.535 8.135491
55.540 7.838402
55.545 7.734325
55.550 7.963032
55.555 8.285676
55.560 8.718415
55.565 9.097232
55.570 9.607305
55.575 9.905935
55.580 9.662767
55.585 9.605772
55.590 9.237626
55.595 9.240535
55.600 9.555418
55.605 9.548777
55.610 9.45943
55.615 9.511944
55.620 9.480167
55.625 9.323007
55.630 9.129528
55.635 8.826721
55.640 8.280893
55.645 8.250393
55.650 8.259013
55.655 8.556601
55.660 9.006999
55.665 8.428268
55.670 8.145124
55.675 8.361812
55.680 8.267649
55.685 8.563796
55.690 8.501781
55.695 8.360181
55.700 8.975015
55.705 9.223497
55.710 9.442931
55.715 9.898132
55.720 9.804257
55.725 9.635494
55.730 9.962567
55.735 10.096258
55.740 10.377156
55.745 10.363749
55.750 10.58461
55.755 11.109073
55.760 11.183708
55.765 10.637361
55.770 10.070779
55.775 9.910317
55.780 9.846676
55.785 9.366666
55.790 8.811479
55.795 9.177258
55.800 10.183336
55.805 10.745472
55.810 10.466189
55.815 10.357555
55.820 10.524531
55.825 10.727365
55.830 10.578339
55.835 10.24673
55.840 10.437494
55.845 10.9711
55.850 10.876252
55.855 10.753917
55.860 10.904468
55.865 11.091014
55.870 11.44404
55.875 11.146915
55.880 11.032429
55.885 10.951559
55.890 11.053881
55.895 10.922305
55.900 10.362724
55.905 10.029384
55.910 10.308722
55.915 10.198973
55.920 10.086982
55.925 9.755485
55.930 9.697034
55.935 10.300392
55.940 10.25953
55.945 10.036745
55.950 10.511623
55.955 10.67575
55.960 10.984758
55.965 11.043933
55.970 11.105498
55.975 11.400724
55.980 11.0615
55.985 10.655611
55.990 10.428152
55.995 10.362325
56.000 10.809315
56.005 10.414314
56.010 9.980415
56.015 10.16611
56.020 10.032986
56.025 10.296409
56.030 10.47639
56.035 9.901807
56.040 9.901978
56.045 10.014267
56.050 10.190022
56.055 10.942729
56.060 10.773479
56.065 10.063332
56.070 10.193445
56.075 10.00777
56.080 10.098759
56.085 10.109276
56.090 9.114218
56.095 9.10307
56.100 8.819913
56.105 8.824217
56.110 8.74784
56.115 8.539576
56.120 8.400242
56.125 8.912355
56.130 9.388735
56.135 10.57043
56.140 10.643263
56.145 11.2514
56.150 11.211998
56.155 11.316219
56.160 11.053806
56.165 10.936089
56.170 10.574836
56.175 10.379933
56.180 9.975001
56.185 10.34763
56.190 10.295386
56.195 10.374644
56.200 10.198322
56.205 9.869627
56.210 10.049711
56.215 10.07668
56.220 9.919948
56.225 9.760413
56.230 9.965616
56.235 10.012142
56.240 10.583299
56.245 10.243901
56.250 10.096028
56.255 10.010935
56.260 10.261771
56.265 10.454626
56.270 10.432152
56.275 10.013931
56.280 9.896298
56.285 9.898309
56.290 10.126045
56.295 10.154648
56.300 9.688986
56.305 9.838676
56.310 10.262891
56.315 10.555045
56.320 10.950802
56.325 10.835119
56.330 10.850729
56.335 10.835592
56.340 10.565239
56.345 10.520402
56.350 10.362017
56.355 10.230627
56.360 10.210341
56.365 10.226343
56.370 10.24888
56.375 10.209323
56.380 10.107992
56.385 9.815307
56.390 9.302691
56.395 8.817305
56.400 8.489855
56.405 8.234366
56.410 8.48364
56.415 8.379035
56.420 8.695549
56.425 8.861201
56.430 9.396435
56.435 9.723532
56.440 9.921172
56.445 9.778995
56.450 10.090689
56.455 10.415436
56.460 10.235075
56.465 9.879577
56.470 9.795897
56.475 9.772427
56.480 9.786852
56.485 9.494938
56.490 9.440167
56.495 9.702751
56.500 9.620796
56.505 9.497445
56.510 9.583545
56.515 9.637161
56.520 9.443685
56.525 9.457875
56.530 9.720858
56.535 9.832107
56.540 9.467784
56.545 8.884052
56.550 9.151193
56.555 9.896411
56.560 10.006154
56.565 10.188898
56.570 10.007277
56.575 10.364014
56.580 10.294762
56.585 10.394289
56.590 10.254445
56.595 10.205209
56.600 10.155639
56.605 10.886614
56.610 11.305663
56.615 11.723933
56.620 11.399893
56.625 11.409508
56.630 11.469067
56.635 10.759875
56.640 10.191101
56.645 10.33183
56.650 10.206008
56.655 10.247659
56.660 10.119612
56.665 10.480424
56.670 11.326923
56.675 11.45079
56.680 11.16804
56.685 11.328133
56.690 11.545906
56.695 11.563915
56.700 11.26289
56.705 11.224756
56.710 11.23585
56.715 10.991877
56.720 11.175892
56.725 11.214627
56.730 11.312436
56.735 11.011496
56.740 10.71744
56.745 10.688655
56.750 10.846784
56.755 10.412542
56.760 10.684717
56.765 10.338759
56.770 10.251403
56.775 10.728333
56.780 10.68059
56.785 10.884237
56.790 10.612316
56.795 10.515865
56.800 11.165272
56.805 11.833899
56.810 11.85327
56.815 12.244374
56.820 12.244054
56.825 12.499381
56.830 12.457663
56.835 12.42237
56.840 12.160292
56.845 11.847454
56.850 11.381794
56.855 10.958305
56.860 10.974113
56.865 10.574145
56.870 10.136
56.875 9.874869
56.880 9.539685
56.885 9.798798
56.890 9.92118
56.895 9.974852
56.900 10.424684
56.905 10.429657
56.910 10.728253
56.915 10.937688
56.920 11.068152
56.925 11.210191
56.930 11.019904
56.935 10.399076
56.940 10.67857
56.945 10.674685
56.950 10.27963
56.955 10.215281
56.960 9.78622
56.965 9.899868
56.970 10.172599
56.975 9.620711
56.980 9.747894
56.985 10.021651
56.990 10.134494
56.995 10.485744
57.000 10.318031
57.005 9.557248
57.010 10.132433
57.015 10.540394
57.020 11.093688
57.025 11.188296
57.030 11.459454
57.035 11.584733
57.040 12.179624
57.045 11.666327
57.050 11.338207
57.055 11.408746
57.060 11.410777
57.065 10.980967
57.070 11.002414
57.075 10.73063
57.080 10.898134
57.085 10.444347
57.090 9.865323
57.095 9.52613
57.100 10.070929
57.105 10.191467
57.110 10.296208
57.115 10.191155
57.120 10.434231
57.125 10.477443
57.130 10.381948
57.135 9.864244
57.140 9.505078
57.145 10.032023
57.150 10.45803
57.155 10.846475
57.160 11.360306
57.165 12.209161
57.170 12.761463
57.175 13.172722
57.180 12.965645
57.185 12.194094
57.190 11.526975
57.195 11.18879
57.200 10.829762
57.205 10.649713
57.210 11.099915
57.215 11.89185
57.220 12.530226
57.225 12.742977
57.230 12.510643
57.235 11.914547
57.240 12.085154
57.245 11.319186
57.250 10.588501
57.255 10.402267
57.260 10.423029
57.265 10.533656
57.270 10.952826
57.275 11.098632
57.280 11.167213
57.285 10.973147
57.290 11.122095
57.295 10.871014
57.300 10.78548
57.305 10.38776
57.310 9.966775
57.315 9.7584
57.320 10.02299
57.325 9.937971
57.330 10.202361
57.335 10.424971
57.340 10.879408
57.345 10.917057
57.350 11.254189
57.355 11.386397
57.360 11.337325
57.365 11.386317
57.370 11.367463
57.375 11.712831
57.380 11.867448
57.385 11.72541
57.390 11.577853
57.395 12.129484
57.400 11.894998
57.405 11.842934
57.410 11.599432
57.415 11.61695
57.420 11.593898
57.425 11.24594
57.430 10.777157
57.435 10.388379
57.440 9.795876
57.445 9.53559
57.450 9.432757
57.455 9.798639
57.460 9.990498
57.465 10.005701
57.470 10.393177
57.475 10.61452
57.480 10.949602
57.485 11.262782
57.490 11.268453
57.495 11.746066
57.500 12.060924
57.505 12.430352
57.510 12.913021
57.515 12.969899
57.520 12.782085
57.525 12.690063
57.530 12.22355
57.535 12.276699
57.540 12.372862
57.545 12.257981
57.550 11.837037
57.555 11.610343
57.560 11.818527
57.565 11.886575
57.570 11.878365
57.575 11.568889
57.580 11.158626
57.585 11.526493
57.590 11.545176
57.595 11.19163
57.600 11.448766
57.605 11.096887
57.610 10.585404
57.615 10.683845
57.620 10.890919
57.625 11.480982
57.630 11.605887
57.635 11.649832
57.640 11.868958
57.645 12.41709
57.650 12.532372
57.655 11.910801
57.660 11.4477
57.665 11.01739
57.670 10.766145
57.675 10.742845
57.680 10.581196
57.685 10.483422
57.690 10.696495
57.695 11.034195
57.700 11.780231
57.705 11.988724
57.710 12.336471
57.715 12.881182
57.720 13.277757
57.725 13.533415
57.730 13.369689
57.735 12.787807
57.740 12.644806
57.745 12.614412
57.750 12.50053
57.755 12.227272
57.760 11.99591
57.765 12.136255
57.770 12.615464
57.775 12.768621
57.780 12.610378
57.785 12.122912
57.790 12.17527
57.795 12.519432
57.800 12.561254
57.805 12.551574
57.810 12.934187
57.815 13.282073
57.820 13.25269
57.825 13.36799
57.830 13.056511
57.835 12.697786
57.840 12.153625
57.845 11.442788
57.850 11.018683
57.855 10.921831
57.860 10.84547
57.865 11.135887
57.870 11.409921
57.875 11.451135
57.880 11.804481
57.885 12.119582
57.890 12.442854
57.895 12.581728
57.900 12.561769
57.905 12.452419
57.910 13.085521
57.915 13.119205
57.920 13.30782
57.925 13.741758
57.930 13.679137
57.935 13.925511
57.940 14.065393
57.945 13.560776
57.950 13.360896
57.955 12.887874
57.960 12.318423
57.965 12.482141
57.970 12.564622
57.975 13.116538
57.980 13.175643
57.985 12.870922
57.990 13.113761
57.995 12.994435
58.000 12.757969
58.005 12.590164
58.010 12.600036
58.015 12.69575
58.020 12.965788
58.025 13.447488
58.030 13.819645
58.035 14.337406
58.040 14.212542
58.045 14.267978
58.050 14.428514
58.055 14.498871
58.060 13.815796
58.065 13.782866
58.070 13.500718
58.075 13.854984
58.080 13.647423
58.085 13.095247
58.090 13.200454
58.095 13.662983
58.100 13.94388
58.105 13.775179
58.110 13.160783
58.115 12.558588
58.120 13.189448
58.125 13.545176
58.130 13.454674
58.135 13.054428
58.140 12.787862
58.145 13.075269
58.150 13.59453
58.155 13.606788
58.160 13.163219
58.165 13.203853
58.170 13.297893
58.175 14.325607
58.180 15.1971
58.185 14.988863
58.190 14.388196
58.195 14.211301
58.200 14.244237
58.205 14.44396
58.210 13.617685
58.215 12.961507
58.220 13.005972
58.225 13.422992
58.230 13.194985
58.235 13.042704
58.240 13.054739
58.245 13.235909
58.250 13.219584
58.255 13.343414
58.260 13.334156
58.265 13.384168
58.270 13.928154
58.275 14.273842
58.280 14.744098
58.285 14.860788
58.290 15.024414
58.295 15.384578
58.300 15.725415
58.305 15.662995
58.310 15.131802
58.315 14.796266
58.320 15.006844
58.325 15.519513
58.330 15.47954
58.335 15.735468
58.340 15.669744
58.345 15.926478
58.350 15.370667
58.355 15.409401
58.360 15.418657
58.365 15.995638
58.370 16.119709
58.375 16.176018
58.380 16.233416
58.385 16.585518
58.390 16.932924
58.395 16.771645
58.400 16.519135
58.405 16.670143
58.410 17.194569
58.415 17.753393
58.420 17.874449
58.425 17.936375
58.430 18.696421
58.435 19.244408
58.440 18.914892
58.445 18.848618
58.450 19.2393
58.455 20.024021
58.460 20.321156
58.465 20.347912
58.470 20.246418
58.475 20.035778
58.480 19.745369
58.485 20.086758
58.490 20.499311
58.495 20.511251
58.500 20.811018
58.505 21.54775
58.510 22.156803
58.515 22.468023
58.520 22.406242
58.525 22.462717
58.530 22.269587
58.535 22.804411
58.540 22.840031
58.545 23.072714
58.550 23.165121
58.555 23.136509
58.560 23.865744
58.565 24.520409
58.570 24.693283
58.575 25.165976
58.580 25.294579
58.585 25.843487
58.590 26.83824
58.595 27.375982
58.600 28.08338
58.605 27.945944
58.610 29.223906
58.615 29.807192
