!@!!GADDS PLOTSO FILE: Chi integration type
!@!!Title/SampleName: map-2
!@!!Comment: ?
!@!!User: Bruker Instrument Administrator
!@!!Site: University of Illinois Chicago
!@!!Frame: map-2_01_000.gfrm
!@!!Wavelengths    1.54184   1.54056   1.54439
!@!!Frame angles: 2Theta: 63.000 Omega: 50.000 Phi: 0.000 Chi: 90.000
!@!!Integration range: 2Theta: 53.000 to 73.000  Gamma: -105.000 to -75.000
!@!!Integration method: bin normalized
!@!N
!@!SS
!@!M
!@!L 0.0 0.0 0.0 0.0
!@!XDegrees
!@!YCounts
53.000 6.795475
53.005 6.753826
53.010 6.550379
53.015 6.597036
53.020 6.663143
53.025 6.729005
53.030 7.012933
53.035 7.504529
53.040 7.38587
53.045 7.428862
53.050 7.615085
53.055 7.779959
53.060 7.562381
53.065 7.546577
53.070 7.154749
53.075 7.048143
53.080 6.986558
53.085 6.717753
53.090 6.692514
53.095 6.803118
53.100 6.887512
53.105 7.116508
53.110 7.766151
53.115 7.504833
53.120 7.172894
53.125 7.369449
53.130 7.258817
53.135 6.959826
53.140 6.527966
53.145 6.166005
53.150 6.697793
53.155 7.240206
53.160 7.333843
53.165 7.989082
53.170 8.030874
53.175 7.909605
53.180 8.03493
53.185 8.014984
53.190 7.711596
53.195 7.046378
53.200 6.748137
53.205 6.996014
53.210 7.289689
53.215 7.067692
53.220 7.212895
53.225 7.749832
53.230 8.195524
53.235 8.147452
53.240 8.190201
53.245 8.308908
53.250 8.425488
53.255 7.954789
53.260 7.389815
53.265 7.078854
53.270 7.094498
53.275 7.119169
53.280 6.832141
53.285 6.856742
53.290 6.927019
53.295 7.096599
53.300 7.291446
53.305 7.494175
53.310 7.760233
53.315 8.233171
53.320 8.38023
53.325 8.653552
53.330 8.91435
53.335 8.884744
53.340 8.757074
53.345 8.724243
53.350 8.360331
53.355 7.990012
53.360 7.675179
53.365 7.5146
53.370 7.529663
53.375 7.423267
53.380 7.544325
53.385 7.784018
53.390 7.854046
53.395 7.785278
53.400 7.642208
53.405 7.367328
53.410 7.540386
53.415 7.366008
53.420 7.620989
53.425 7.890036
53.430 7.951086
53.435 8.266233
53.440 8.219251
53.445 7.980933
53.450 8.047926
53.455 8.043211
53.460 8.200554
53.465 8.166016
53.470 8.263663
53.475 8.459855
53.480 8.601786
53.485 8.796525
53.490 8.425224
53.495 7.806611
53.500 7.751394
53.505 7.447328
53.510 7.652212
53.515 7.227475
53.520 6.904818
53.525 7.055381
53.530 7.618735
53.535 7.90035
53.540 7.97995
53.545 7.719106
53.550 7.743945
53.555 7.405083
53.560 7.107831
53.565 6.697285
53.570 6.633375
53.575 6.736012
53.580 6.936974
53.585 6.95252
53.590 6.784473
53.595 7.244464
53.600 7.607277
53.605 7.6054
53.610 7.610205
53.615 8.211705
53.620 8.654908
53.625 8.91718
53.630 9.150898
53.635 8.920435
53.640 8.707552
53.645 8.168881
53.650 7.375441
53.655 7.288194
53.660 7.272723
53.665 6.977288
53.670 7.256366
53.675 7.426605
53.680 7.543429
53.685 7.871076
53.690 7.699666
53.695 7.675
53.700 7.91038
53.705 7.677804
53.710 7.876499
53.715 7.977202
53.720 7.903748
53.725 8.082511
53.730 7.593828
53.735 7.432159
53.740 7.659446
53.745 7.856446
53.750 7.960814
53.755 7.982609
53.760 8.322801
53.765 8.556446
53.770 8.727178
53.775 8.224292
53.780 7.665608
53.785 7.518916
53.790 7.297953
53.795 7.027115
53.800 7.07359
53.805 6.855185
53.810 7.242406
53.815 7.442627
53.820 7.569032
53.825 7.972236
53.830 8.467307
53.835 8.814239
53.840 8.816456
53.845 9.117066
53.850 9.279695
53.855 9.274684
53.860 9.236878
53.865 8.977098
53.870 8.917098
53.875 8.989401
53.880 8.921124
53.885 8.760705
53.890 8.641552
53.895 8.530121
53.900 8.472975
53.905 8.547882
53.910 8.389184
53.915 8.323482
53.920 8.57482
53.925 8.77018
53.930 8.9037
53.935 9.104845
53.940 9.324409
53.945 9.704181
53.950 9.527167
53.955 9.234912
53.960 8.419093
53.965 8.054655
53.970 8.002567
53.975 7.420731
53.980 7.117529
53.985 7.218079
53.990 7.797483
53.995 8.533527
54.000 8.753589
54.005 8.700794
54.010 8.738836
54.015 8.76692
54.020 8.522821
54.025 8.306156
54.030 8.142079
54.035 7.958183
54.040 7.94277
54.045 8.327489
54.050 8.290091
54.055 8.453815
54.060 8.686165
54.065 8.944613
54.070 9.345908
54.075 9.258619
54.080 8.947176
54.085 9.140371
54.090 9.11039
54.095 8.933103
54.100 8.876717
54.105 8.714627
54.110 8.914164
54.115 9.03269
54.120 8.79299
54.125 8.747173
54.130 8.312282
54.135 8.140633
54.140 8.026993
54.145 7.818076
54.150 7.748391
54.155 7.827004
54.160 7.550071
54.165 7.999595
54.170 7.790513
54.175 7.679402
54.180 7.862614
54.185 7.779623
54.190 7.729829
54.195 7.873003
54.200 8.121225
54.205 8.195614
54.210 8.092275
54.215 8.123929
54.220 8.659381
54.225 9.004775
54.230 9.082188
54.235 9.371229
54.240 9.76601
54.245 9.995847
54.250 9.929312
54.255 10.106236
54.260 10.298072
54.265 10.759542
54.270 11.157199
54.275 11.213792
54.280 11.835978
54.285 12.064665
54.290 11.97481
54.295 11.842959
54.300 10.850032
54.305 10.118541
54.310 9.687974
54.315 9.233537
54.320 9.119645
54.325 8.685074
54.330 8.544704
54.335 8.256031
54.340 8.113284
54.345 8.28329
54.350 8.347584
54.355 8.083915
54.360 8.077137
54.365 8.329073
54.370 8.745112
54.375 8.645352
54.380 8.308353
54.385 8.071401
54.390 8.477807
54.395 8.434165
54.400 8.055547
54.405 8.540651
54.410 8.986878
54.415 9.075798
54.420 8.978678
54.425 8.874971
54.430 9.102435
54.435 9.140779
54.440 8.785411
54.445 8.860442
54.450 8.681006
54.455 8.743075
54.460 8.889407
54.465 8.774255
54.470 9.329144
54.475 9.258361
54.480 9.399365
54.485 9.821272
54.490 9.265965
54.495 9.323841
54.500 9.470397
54.505 9.154558
54.510 9.348878
54.515 9.524199
54.520 9.623063
54.525 9.718653
54.530 9.228541
54.535 8.90931
54.540 8.905517
54.545 8.937401
54.550 8.377166
54.555 7.995031
54.560 8.104508
54.565 8.314463
54.570 8.535683
54.575 8.323788
54.580 7.990491
54.585 8.40321
54.590 8.886474
54.595 8.820738
54.600 9.150524
54.605 8.947502
54.610 8.924215
54.615 8.845316
54.620 8.630835
54.625 8.458323
54.630 8.622614
54.635 8.577041
54.640 8.736468
54.645 8.765731
54.650 9.259736
54.655 9.73809
54.660 9.994882
54.665 9.88843
54.670 9.61439
54.675 9.647097
54.680 9.801029
54.685 9.470308
54.690 9.12586
54.695 9.037945
54.700 9.104974
54.705 9.389591
54.710 9.176438
54.715 8.955917
54.720 8.776457
54.725 8.989008
54.730 9.053323
54.735 8.526752
54.740 8.320995
54.745 8.66508
54.750 8.881974
54.755 8.763988
54.760 8.562485
54.765 8.234815
54.770 8.72789
54.775 8.8773
54.780 8.371133
54.785 8.677478
54.790 8.889033
54.795 8.662062
54.800 8.852545
54.805 9.032635
54.810 9.218125
54.815 9.507811
54.820 8.910777
54.825 8.742146
54.830 9.162321
54.835 9.093875
54.840 8.874598
54.845 8.853177
54.850 9.365246
54.855 10.21594
54.860 10.817516
54.865 11.165566
54.870 11.118608
54.875 10.911293
54.880 10.712087
54.885 10.201382
54.890 9.893491
54.895 9.700694
54.900 9.651576
54.905 9.759342
54.910 10.089501
54.915 9.650969
54.920 9.097085
54.925 8.636588
54.930 8.618958
54.935 8.762587
54.940 8.466832
54.945 8.079062
54.950 8.437982
54.955 8.979992
54.960 9.254762
54.965 9.207889
54.970 8.927
54.975 8.930058
54.980 9.114746
54.985 9.05584
54.990 8.9552
54.995 8.797412
55.000 8.76836
55.005 9.176743
55.010 9.455003
55.015 9.752133
55.020 9.513268
55.025 9.44348
55.030 9.45913
55.035 9.00364
55.040 8.584782
55.045 8.341261
55.050 8.500005
55.055 9.004947
55.060 9.033954
55.065 8.955267
55.070 9.125405
55.075 9.632974
55.080 9.834205
55.085 8.902826
55.090 8.622294
55.095 8.418602
55.100 8.27158
55.105 8.196755
55.110 7.895379
55.115 7.83333
55.120 8.224946
55.125 8.102997
55.130 8.147266
55.135 8.440581
55.140 8.53452
55.145 8.694337
55.150 9.338328
55.155 9.80934
55.160 10.135516
55.165 10.159786
55.170 10.189181
55.175 10.213303
55.180 9.553823
55.185 8.652159
55.190 7.906014
55.195 7.703123
55.200 7.488646
55.205 7.354096
55.210 7.567331
55.215 8.095268
55.220 8.828863
55.225 9.478342
55.230 9.949056
55.235 9.908254
55.240 9.719347
55.245 9.879984
55.250 10.264441
55.255 10.286282
55.260 10.53094
55.265 10.526692
55.270 10.547555
55.275 10.716007
55.280 10.427024
55.285 9.925469
55.290 9.709672
55.295 9.5068
55.300 9.413072
55.305 9.634965
55.310 9.718748
55.315 9.903419
55.320 10.067313
55.325 10.344879
55.330 10.204283
55.335 10.346109
55.340 10.085523
55.345 10.081185
55.350 10.25318
55.355 10.298396
55.360 10.193975
55.365 9.978528
55.370 9.785792
55.375 9.737317
55.380 9.421839
55.385 9.336734
55.390 9.556952
55.395 9.469781
55.400 9.4692
55.405 9.78243
55.410 9.985311
55.415 10.009936
55.420 9.474046
55.425 9.058248
55.430 9.377831
55.435 9.711606
55.440 9.711171
55.445 9.944195
55.450 9.751931
55.455 10.248371
55.460 10.331564
55.465 10.136213
55.470 9.630594
55.475 9.436649
55.480 9.29983
55.485 9.551283
55.490 9.560433
55.495 9.660767
55.500 9.444192
55.505 10.018009
55.510 9.784203
55.515 9.964499
55.520 10.233275
55.525 10.422871
55.530 10.176682
55.535 10.171204
55.540 9.810891
55.545 9.573565
55.550 9.17499
55.555 8.958406
55.560 8.880509
55.565 9.598562
55.570 9.548416
55.575 9.597054
55.580 10.388083
55.585 10.8937
55.590 10.426875
55.595 10.424118
55.600 10.271914
55.605 10.8421
55.610 11.22853
55.615 11.077834
55.620 10.988103
55.625 11.459835
55.630 11.648383
55.635 11.630517
55.640 11.542681
55.645 11.039124
55.650 11.353491
55.655 11.395862
55.660 11.032624
55.665 10.970629
55.670 10.899372
55.675 10.945615
55.680 10.528457
55.685 9.780701
55.690 9.350734
55.695 9.321648
55.700 8.97815
55.705 9.07536
55.710 9.257183
55.715 9.560927
55.720 10.002134
55.725 10.318964
55.730 10.161667
55.735 10.264943
55.740 9.86623
55.745 9.743316
55.750 9.563564
55.755 9.312231
55.760 9.351096
55.765 9.660663
55.770 9.745588
55.775 10.046137
55.780 10.56095
55.785 11.210382
55.790 11.454872
55.795 11.384296
55.800 11.413144
55.805 11.790769
55.810 11.970848
55.815 11.922647
55.820 11.690664
55.825 11.609552
55.830 11.654403
55.835 12.062307
55.840 11.683456
55.845 11.438354
55.850 11.089644
55.855 10.98166
55.860 10.63168
55.865 10.003837
55.870 9.453074
55.875 9.523087
55.880 9.623462
55.885 9.92209
55.890 10.066172
55.895 10.597366
55.900 11.050113
55.905 11.387945
55.910 11.390334
55.915 11.044253
55.920 11.195086
55.925 10.991795
55.930 10.985137
55.935 11.040271
55.940 11.046675
55.945 11.237523
55.950 11.353242
55.955 11.081827
55.960 11.286025
55.965 11.050237
55.970 10.816887
55.975 10.603876
55.980 10.518363
55.985 10.581542
55.990 10.690566
55.995 10.799516
56.000 11.697358
56.005 11.768446
56.010 11.815286
56.015 12.186179
56.020 12.500103
56.025 12.054267
56.030 11.474603
56.035 10.689738
56.040 10.660362
56.045 10.500412
56.050 9.959854
56.055 9.673063
56.060 10.080373
56.065 10.4567
56.070 10.72082
56.075 11.326459
56.080 11.645736
56.085 11.611014
56.090 11.439603
56.095 11.340225
56.100 11.190996
56.105 10.806559
56.110 10.06075
56.115 9.95807
56.120 9.768595
56.125 10.120112
56.130 10.206828
56.135 10.423948
56.140 10.631029
56.145 10.297449
56.150 10.183863
56.155 10.265775
56.160 9.993935
56.165 10.041323
56.170 10.286892
56.175 10.825669
56.180 11.613241
56.185 11.625312
56.190 11.736319
56.195 11.805427
56.200 12.298147
56.205 12.359409
56.210 12.140714
56.215 11.772324
56.220 11.720993
56.225 11.954718
56.230 11.69547
56.235 11.594757
56.240 11.509543
56.245 11.801763
56.250 12.304479
56.255 12.63322
56.260 12.934317
56.265 12.718236
56.270 12.279941
56.275 12.125821
56.280 11.476787
56.285 11.144536
56.290 11.24728
56.295 11.357561
56.300 11.417348
56.305 11.501516
56.310 11.51299
56.315 11.521089
56.320 12.010861
56.325 11.893922
56.330 11.759178
56.335 11.879973
56.340 11.511748
56.345 11.419473
56.350 11.188707
56.355 11.109184
56.360 11.180181
56.365 11.186268
56.370 11.686856
56.375 12.300379
56.380 12.465483
56.385 12.555681
56.390 12.091083
56.395 12.026554
56.400 11.984373
56.405 11.129862
56.410 10.715903
56.415 10.423822
56.420 10.580459
56.425 10.962526
56.430 11.267471
56.435 11.111534
56.440 11.238272
56.445 11.2292
56.450 11.163326
56.455 11.028774
56.460 10.630686
56.465 10.099756
56.470 10.068104
56.475 10.235745
56.480 10.911984
56.485 11.263032
56.490 11.327567
56.495 10.970584
56.500 10.904334
56.505 11.445651
56.510 11.174013
56.515 10.35471
56.520 10.480784
56.525 10.904718
56.530 10.971042
56.535 10.833906
56.540 10.59304
56.545 10.864619
56.550 10.870089
56.555 10.212088
56.560 10.075642
56.565 10.450208
56.570 10.501768
56.575 10.297698
56.580 10.630961
56.585 10.990552
56.590 11.443774
56.595 12.091679
56.600 12.376642
56.605 12.571884
56.610 12.471274
56.615 11.774047
56.620 11.846016
56.625 11.292558
56.630 10.653462
56.635 10.574317
56.640 10.085379
56.645 9.92212
56.650 9.792661
56.655 9.775338
56.660 9.80951
56.665 10.168515
56.670 10.109212
56.675 10.92262
56.680 11.695328
56.685 12.260672
56.690 12.291508
56.695 12.317651
56.700 12.138826
56.705 12.240651
56.710 11.83559
56.715 11.706557
56.720 12.225586
56.725 12.509654
56.730 12.229207
56.735 12.11226
56.740 12.366632
56.745 12.472448
56.750 11.755187
56.755 11.576072
56.760 12.022923
56.765 13.015732
56.770 13.425159
56.775 13.407785
56.780 13.429429
56.785 13.984195
56.790 13.646505
56.795 13.181164
56.800 12.320762
56.805 12.149022
56.810 12.147153
56.815 12.287114
56.820 12.087618
56.825 12.186178
56.830 12.020637
56.835 12.08715
56.840 12.200453
56.845 11.890674
56.850 11.549191
56.855 11.375137
56.860 11.184786
56.865 11.508549
56.870 11.566782
56.875 11.082616
56.880 10.953405
56.885 11.039834
56.890 11.33304
56.895 11.352951
56.900 11.685269
56.905 11.861523
56.910 12.353869
56.915 13.217767
56.920 13.277102
56.925 13.192815
56.930 13.497145
56.935 12.877017
56.940 12.730847
56.945 12.665695
56.950 11.929777
56.955 11.840392
56.960 11.855541
56.965 11.949316
56.970 12.057946
56.975 12.348519
56.980 12.25857
56.985 12.944367
56.990 13.16122
56.995 12.854384
57.000 12.723321
57.005 12.648938
57.010 12.301925
57.015 12.349788
57.020 12.182785
57.025 11.901548
57.030 11.567169
57.035 11.231174
57.040 11.617933
57.045 11.799559
57.050 11.721342
57.055 12.131236
57.060 12.488092
57.065 13.235356
57.070 13.718164
57.075 13.95077
57.080 14.263787
57.085 14.342564
57.090 14.039707
57.095 13.870847
57.100 13.854809
57.105 13.901073
57.110 13.631036
57.115 13.39109
57.120 13.385365
57.125 13.685537
57.130 13.763302
57.135 13.54765
57.140 12.978398
57.145 12.461601
57.150 12.295056
57.155 12.018864
57.160 11.906565
57.165 11.974811
57.170 11.923492
57.175 12.09869
57.180 11.843709
57.185 12.112329
57.190 12.519945
57.195 12.159789
57.200 12.161536
57.205 11.903225
57.210 12.112344
57.215 12.82855
57.220 12.713452
57.225 12.3784
57.230 12.397413
57.235 12.595827
57.240 13.005442
57.245 12.57314
57.250 12.050942
57.255 11.861589
57.260 11.921532
57.265 11.783572
57.270 11.202618
57.275 11.332399
57.280 11.77562
57.285 11.816105
57.290 11.582231
57.295 11.436729
57.300 11.770036
57.305 12.333726
57.310 12.295273
57.315 12.401187
57.320 13.192725
57.325 13.460093
57.330 13.854027
57.335 13.902236
57.340 13.716373
57.345 13.889733
57.350 14.001458
57.355 13.641978
57.360 13.730011
57.365 14.043468
57.370 14.494884
57.375 14.643142
57.380 14.922154
57.385 14.500166
57.390 14.180771
57.395 14.137209
57.400 13.825222
57.405 13.322429
57.410 12.825709
57.415 12.387175
57.420 12.845471
57.425 13.216167
57.430 13.126099
57.435 12.718883
57.440 12.525325
57.445 12.481314
57.450 12.6861
57.455 12.750733
57.460 12.813172
57.465 13.069852
57.470 13.394386
57.475 13.416022
57.480 13.56895
57.485 13.398587
57.490 12.837034
57.495 12.102052
57.500 11.776625
57.505 11.66406
57.510 12.154347
57.515 12.225316
57.520 12.162348
57.525 12.779999
57.530 13.072299
57.535 13.390129
57.540 13.575629
57.545 13.367528
57.550 13.240206
57.555 13.534252
57.560 13.466321
57.565 13.519967
57.570 13.243171
57.575 12.542758
57.580 12.247516
57.585 11.819571
57.590 11.072566
57.595 10.988513
57.600 11.048748
57.605 10.893339
57.610 10.718186
57.615 10.681428
57.620 11.038174
57.625 11.600966
57.630 11.756181
57.635 12.08774
57.640 12.880024
57.645 13.3859
57.650 13.742475
57.655 13.621359
57.660 13.533807
57.665 13.902419
57.670 13.451954
57.675 13.20442
57.680 13.548376
57.685 13.762976
57.690 14.334432
57.695 14.176353
57.700 13.497787
57.705 13.208746
57.710 12.827749
57.715 12.668789
57.720 12.719837
57.725 12.578181
57.730 12.493406
57.735 12.975131
57.740 13.297783
57.745 13.417727
57.750 13.596071
57.755 13.777398
57.760 13.787486
57.765 13.876722
57.770 13.833491
57.775 13.919315
57.780 13.683022
57.785 13.130673
57.790 12.92948
57.795 13.241946
57.800 12.994642
57.805 12.779532
57.810 12.636668
57.815 12.948136
57.820 13.242844
57.825 13.124783
57.830 13.095776
57.835 13.260441
57.840 13.166755
57.845 12.915741
57.850 12.56563
57.855 12.610433
57.860 12.568948
57.865 12.541994
57.870 12.532651
57.875 12.557396
57.880 12.929613
57.885 12.890529
57.890 12.470963
57.895 12.4709
57.900 12.69352
57.905 13.362231
57.910 13.878713
57.915 13.974618
57.920 14.357775
57.925 14.30452
57.930 14.163532
57.935 13.885949
57.940 13.994368
57.945 13.812982
57.950 13.875317
57.955 13.693061
57.960 13.807697
57.965 13.710154
57.970 13.711946
57.975 13.29865
57.980 13.223242
57.985 13.021461
57.990 13.441519
57.995 13.040119
58.000 13.032281
58.005 13.240719
58.010 12.940229
58.015 13.205818
58.020 13.397877
58.025 13.587433
58.030 13.768781
58.035 14.031929
58.040 13.536237
58.045 13.711266
58.050 13.62029
58.055 13.225402
58.060 12.888429
58.065 12.673597
58.070 12.501925
58.075 12.93029
58.080 12.743957
58.085 13.06265
58.090 13.573778
58.095 14.154318
58.100 14.362653
58.105 14.493662
58.110 14.702182
58.115 15.121023
58.120 14.686912
58.125 13.848425
58.130 13.497266
58.135 13.727448
58.140 13.49547
58.145 13.034437
58.150 12.853722
58.155 12.98402
58.160 13.281515
58.165 13.469513
58.170 13.487082
58.175 13.919396
58.180 13.462494
58.185 13.363562
58.190 13.525544
58.195 13.363289
58.200 13.186322
58.205 12.889983
58.210 12.398012
58.215 13.057518
58.220 12.872313
58.225 12.55083
58.230 12.245506
58.235 12.086576
58.240 12.377864
58.245 12.589354
58.250 12.252479
58.255 12.120796
58.260 12.539474
58.265 12.836254
58.270 13.115724
58.275 13.125191
58.280 13.147982
58.285 13.245529
58.290 13.543401
58.295 13.799951
58.300 14.131386
58.305 14.282933
58.310 14.41276
58.315 14.411389
58.320 14.782249
58.325 14.815883
58.330 14.54824
58.335 14.629916
58.340 13.932135
58.345 13.385843
58.350 12.865933
58.355 12.523502
58.360 12.806236
58.365 13.093303
58.370 12.901352
58.375 13.566388
58.380 14.157098
58.385 15.142326
58.390 15.730827
58.395 16.302832
58.400 16.32361
58.405 16.452738
58.410 16.891386
58.415 17.147385
58.420 16.418844
58.425 15.523037
58.430 14.618677
58.435 14.609213
58.440 14.372962
58.445 13.6722
58.450 13.071679
58.455 13.262885
58.460 13.791177
58.465 13.898397
58.470 13.918255
58.475 14.107742
58.480 14.249888
58.485 14.607746
58.490 14.477043
58.495 14.367674
58.500 14.20077
58.505 13.765252
58.510 13.630616
58.515 13.53557
58.520 13.406455
58.525 13.292423
58.530 13.455633
58.535 13.236192
58.540 13.611879
58.545 13.935715
58.550 14.103378
58.555 14.37301
58.560 14.384246
58.565 14.006593
58.570 14.295295
58.575 13.946497
58.580 13.475391
