!@!!GADDS PLOTSO FILE: Chi integration type
!@!!Title/SampleName: map-15e
!@!!Comment: ?
!@!!User: Bruker Instrument Administrator
!@!!Site: University of Illinois Chicago
!@!!Frame: map-15e_01_000.gfrm
!@!!Wavelengths    1.54184   1.54056   1.54439
!@!!Frame angles: 2Theta: 63.000 Omega: 50.000 Phi: 0.000 Chi: 90.000
!@!!Integration range: 2Theta: 53.000 to 73.000  Gamma: -105.000 to -75.000
!@!!Integration method: bin normalized
!@!N
!@!SS
!@!M
!@!L 0.0 0.0 0.0 0.0
!@!XDegrees
!@!YCounts
53.000 6.623959
53.005 6.879349
53.010 6.980723
53.015 6.879067
53.020 6.638163
53.025 6.401328
53.030 6.944632
53.035 6.932856
53.040 7.063605
53.045 7.382009
53.050 7.672676
53.055 7.682062
53.060 7.63756
53.065 7.192299
53.070 7.269055
53.075 7.073231
53.080 6.962113
53.085 7.056197
53.090 7.05238
53.095 7.208531
53.100 7.323733
53.105 7.342042
53.110 7.674776
53.115 7.105519
53.120 6.837658
53.125 6.568746
53.130 6.522145
53.135 6.325715
53.140 5.891685
53.145 5.652004
53.150 6.305128
53.155 6.952711
53.160 7.190102
53.165 7.326866
53.170 7.584874
53.175 7.660683
53.180 7.611856
53.185 7.329238
53.190 6.846128
53.195 6.57844
53.200 6.322791
53.205 6.188553
53.210 6.377345
53.215 6.651982
53.220 6.591124
53.225 6.819366
53.230 6.877368
53.235 6.87154
53.240 6.995485
53.245 6.574019
53.250 6.611942
53.255 6.749785
53.260 6.663308
53.265 6.766156
53.270 6.80153
53.275 6.857844
53.280 6.562243
53.285 6.199116
53.290 6.229943
53.295 6.597904
53.300 6.486053
53.305 6.278034
53.310 6.490028
53.315 7.199837
53.320 7.561935
53.325 7.335902
53.330 6.984628
53.335 7.093631
53.340 7.09074
53.345 6.972217
53.350 6.503304
53.355 6.136178
53.360 5.946631
53.365 5.778952
53.370 5.650599
53.375 5.518984
53.380 5.579704
53.385 5.867966
53.390 6.165991
53.395 6.825272
53.400 7.139437
53.405 7.180565
53.410 7.247555
53.415 7.264815
53.420 7.43024
53.425 7.378394
53.430 7.032483
53.435 7.077467
53.440 7.173384
53.445 7.291782
53.450 7.020926
53.455 6.542662
53.460 6.264709
53.465 6.525324
53.470 6.803249
53.475 6.925436
53.480 6.672298
53.485 6.627455
53.490 6.928463
53.495 7.132244
53.500 6.842268
53.505 6.642449
53.510 6.491445
53.515 6.564417
53.520 6.34154
53.525 6.12874
53.530 6.218229
53.535 6.355749
53.540 6.314833
53.545 6.564055
53.550 6.751173
53.555 7.450243
53.560 7.326282
53.565 6.838193
53.570 6.503508
53.575 6.728994
53.580 6.717469
53.585 6.595456
53.590 6.116555
53.595 6.118603
53.600 6.33965
53.605 6.312922
53.610 6.128556
53.615 6.131523
53.620 6.091725
53.625 6.205698
53.630 6.389154
53.635 7.183894
53.640 7.401843
53.645 7.483357
53.650 7.233739
53.655 7.198925
53.660 7.50707
53.665 7.275609
53.670 6.908702
53.675 6.731095
53.680 6.703751
53.685 6.992332
53.690 7.22671
53.695 7.062149
53.700 6.903916
53.705 6.802741
53.710 6.671361
53.715 6.767757
53.720 6.77689
53.725 6.789838
53.730 6.713627
53.735 6.636196
53.740 6.601727
53.745 7.132329
53.750 7.245378
53.755 7.308025
53.760 7.240258
53.765 7.320624
53.770 7.691051
53.775 7.497139
53.780 7.01117
53.785 6.781984
53.790 6.664613
53.795 7.006777
53.800 7.253266
53.805 7.293165
53.810 7.418
53.815 7.372143
53.820 7.381581
53.825 7.302807
53.830 6.916847
53.835 6.872955
53.840 7.020955
53.845 7.116861
53.850 7.162766
53.855 7.177418
53.860 7.20433
53.865 7.180768
53.870 6.920744
53.875 6.496404
53.880 6.479113
53.885 6.509098
53.890 6.651705
53.895 6.32932
53.900 6.092342
53.905 6.235927
53.910 6.303067
53.915 6.472089
53.920 6.476715
53.925 6.529526
53.930 7.237102
53.935 7.309474
53.940 7.297491
53.945 6.986819
53.950 6.806106
53.955 6.704298
53.960 6.355796
53.965 5.878748
53.970 6.129337
53.975 6.216858
53.980 6.401153
53.985 6.545013
53.990 6.387534
53.995 6.454198
54.000 6.773976
54.005 7.04241
54.010 7.213871
54.015 7.440666
54.020 7.507837
54.025 7.712958
54.030 7.793039
54.035 7.450608
54.040 7.04264
54.045 6.743703
54.050 6.683348
54.055 6.724522
54.060 6.819053
54.065 6.97721
54.070 7.120224
54.075 7.156257
54.080 7.126106
54.085 6.857418
54.090 6.552756
54.095 6.445168
54.100 6.11394
54.105 5.888556
54.110 5.874453
54.115 5.863006
54.120 6.02122
54.125 6.110731
54.130 6.113627
54.135 6.441246
54.140 6.860358
54.145 7.235651
54.150 7.295213
54.155 6.954124
54.160 6.770649
54.165 6.639536
54.170 6.225235
54.175 6.010079
54.180 5.668225
54.185 5.530659
54.190 5.356357
54.195 5.322001
54.200 5.701007
54.205 6.000523
54.210 6.476146
54.215 6.602758
54.220 6.640421
54.225 6.733572
54.230 6.782042
54.235 6.629992
54.240 6.018206
54.245 5.549965
54.250 5.709448
54.255 6.063172
54.260 6.300683
54.265 6.135454
54.270 5.98988
54.275 6.260351
54.280 6.220352
54.285 6.37494
54.290 6.709642
54.295 6.921888
54.300 7.190248
54.305 7.665171
54.310 7.901649
54.315 7.985562
54.320 7.980439
54.325 7.476748
54.330 7.329819
54.335 6.886416
54.340 6.505372
54.345 6.201931
54.350 6.193355
54.355 6.189504
54.360 6.486357
54.365 6.923764
54.370 6.985218
54.375 7.027711
54.380 6.920192
54.385 6.786833
54.390 6.749521
54.395 6.463578
54.400 5.955835
54.405 6.109634
54.410 6.333474
54.415 6.560518
54.420 6.65162
54.425 6.767934
54.430 6.825176
54.435 7.174792
54.440 7.330053
54.445 7.525837
54.450 7.37832
54.455 6.966868
54.460 6.808766
54.465 6.861708
54.470 6.938152
54.475 6.9752
54.480 6.90061
54.485 7.066569
54.490 7.257249
54.495 7.413864
54.500 7.164222
54.505 7.249228
54.510 6.919922
54.515 6.978086
54.520 6.985736
54.525 6.795073
54.530 6.857612
54.535 6.889359
54.540 6.762807
54.545 6.83499
54.550 7.132356
54.555 7.218486
54.560 7.388258
54.565 7.165645
54.570 7.345236
54.575 7.089664
54.580 6.812105
54.585 6.761163
54.590 6.849587
54.595 6.648954
54.600 6.919398
54.605 6.615389
54.610 6.33185
54.615 6.403892
54.620 6.167622
54.625 6.037703
54.630 6.274269
54.635 6.230732
54.640 6.871598
54.645 7.366507
54.650 7.366459
54.655 7.177243
54.660 7.468801
54.665 7.295914
54.670 7.365949
54.675 6.79474
54.680 6.831665
54.685 6.837895
54.690 7.108717
54.695 6.889579
54.700 6.921055
54.705 6.88131
54.710 7.326709
54.715 7.397645
54.720 7.363261
54.725 7.27601
54.730 7.521205
54.735 7.688612
54.740 7.882999
54.745 7.545995
54.750 7.427885
54.755 7.447911
54.760 7.477551
54.765 7.718543
54.770 7.758142
54.775 7.966773
54.780 7.815977
54.785 7.89507
54.790 7.961004
54.795 7.825059
54.800 7.549695
54.805 7.466561
54.810 7.389695
54.815 7.674885
54.820 7.749061
54.825 7.806272
54.830 7.71116
54.835 8.017098
54.840 8.333839
54.845 8.621061
54.850 9.2402
54.855 9.101961
54.860 9.107483
54.865 9.158798
54.870 8.749314
54.875 8.48819
54.880 8.318097
54.885 7.905344
54.890 7.97138
54.895 7.928596
54.900 7.7058
54.905 7.649962
54.910 7.500197
54.915 7.339139
54.920 7.521592
54.925 7.430899
54.930 7.5808
54.935 8.000616
54.940 7.994033
54.945 8.504442
54.950 9.28145
54.955 9.396532
54.960 9.504762
54.965 9.575044
54.970 9.148567
54.975 9.334315
54.980 8.58202
54.985 7.974768
54.990 7.889259
54.995 7.618145
55.000 7.566677
55.005 7.990384
55.010 8.278438
55.015 8.423035
55.020 8.453365
55.025 8.819368
55.030 8.705621
55.035 8.628368
55.040 8.262633
55.045 7.954032
55.050 7.806416
55.055 7.903698
55.060 7.421757
55.065 7.224504
55.070 7.097648
55.075 7.283646
55.080 7.406349
55.085 7.138888
55.090 7.065923
55.095 7.511865
55.100 7.860403
55.105 7.995646
55.110 7.683774
55.115 7.476478
55.120 7.907333
55.125 7.768137
55.130 7.387284
55.135 7.359998
55.140 7.605852
55.145 7.961552
55.150 7.866313
55.155 7.037986
55.160 6.813831
55.165 6.819378
55.170 6.746445
55.175 6.622968
55.180 6.957086
55.185 7.049968
55.190 7.57796
55.195 7.88049
55.200 8.053588
55.205 8.006516
55.210 8.272137
55.215 8.216618
55.220 8.347964
55.225 8.178894
55.230 7.729627
55.235 7.757417
55.240 7.393694
55.245 6.781664
55.250 6.699762
55.255 6.161066
55.260 6.133168
55.265 6.356172
55.270 6.04187
55.275 5.899413
55.280 5.692961
55.285 5.761194
55.290 5.945943
55.295 5.871646
55.300 5.79604
55.305 5.827255
55.310 6.182211
55.315 6.308704
55.320 6.15846
55.325 6.480402
55.330 6.339055
55.335 5.988623
55.340 5.998851
55.345 5.745173
55.350 5.671031
55.355 5.746452
55.360 5.773909
55.365 6.544889
55.370 7.145802
55.375 7.274761
55.380 7.389348
55.385 7.458665
55.390 7.587957
55.395 7.472157
55.400 6.935207
55.405 6.688764
55.410 6.524425
55.415 6.712146
55.420 6.747746
55.425 6.568665
55.430 6.521141
55.435 6.805433
55.440 6.794977
55.445 6.882565
55.450 7.030359
55.455 6.868538
55.460 6.995617
55.465 7.368419
55.470 7.771714
55.475 7.992507
55.480 7.89903
55.485 7.406711
55.490 7.530349
55.495 7.550552
55.500 7.245384
55.505 6.739249
55.510 6.835998
55.515 7.074479
55.520 7.394032
55.525 7.314643
55.530 7.028461
55.535 7.432116
55.540 7.517427
55.545 7.339038
55.550 7.365314
55.555 7.408967
55.560 7.594889
55.565 7.846841
55.570 7.733792
55.575 8.107154
55.580 8.151351
55.585 7.82806
55.590 7.806642
55.595 7.605294
55.600 7.638695
55.605 7.310854
55.610 7.111368
55.615 7.25666
55.620 7.271415
55.625 7.497529
55.630 7.776288
55.635 7.73222
55.640 7.799818
55.645 7.630964
55.650 7.646144
55.655 7.372383
55.660 6.944512
55.665 6.155949
55.670 5.822177
55.675 5.705842
55.680 6.194678
55.685 6.217573
55.690 6.340545
55.695 6.253011
55.700 6.579299
55.705 6.816861
55.710 6.43821
55.715 5.875784
55.720 5.885263
55.725 6.329551
55.730 6.73818
55.735 6.67735
55.740 6.423687
55.745 6.855539
55.750 6.920559
55.755 6.915962
55.760 6.757071
55.765 6.623428
55.770 6.800828
55.775 7.251948
55.780 7.28463
55.785 7.358648
55.790 7.414057
55.795 7.385857
55.800 7.243262
55.805 7.256249
55.810 7.405549
55.815 7.440842
55.820 7.330613
55.825 7.174644
55.830 7.264476
55.835 7.454015
55.840 7.632617
55.845 7.52601
55.850 7.266828
55.855 7.230154
55.860 7.401392
55.865 7.362888
55.870 7.155429
55.875 6.666334
55.880 6.866205
55.885 7.463592
55.890 7.290905
55.895 7.434146
55.900 7.780992
55.905 7.852664
55.910 7.755784
55.915 7.339775
55.920 7.198419
55.925 7.534247
55.930 7.475554
55.935 7.748476
55.940 8.005759
55.945 8.382509
55.950 8.719101
55.955 8.741481
55.960 8.366719
55.965 8.082372
55.970 8.007987
55.975 7.965215
55.980 7.722571
55.985 7.450319
55.990 7.153446
55.995 7.70516
56.000 7.668088
56.005 7.797084
56.010 7.868632
56.015 7.869831
56.020 7.661717
56.025 7.951344
56.030 7.950585
56.035 7.956923
56.040 7.446074
56.045 7.249065
56.050 7.238279
56.055 7.401579
56.060 7.134472
56.065 6.990065
56.070 6.774293
56.075 7.064613
56.080 7.207189
56.085 7.557958
56.090 7.518173
56.095 7.551768
56.100 7.368021
56.105 7.607091
56.110 7.77044
56.115 7.960033
56.120 7.768575
56.125 7.812807
56.130 7.78415
56.135 7.947683
56.140 7.955415
56.145 8.039084
56.150 7.9223
56.155 7.980829
56.160 8.396619
56.165 9.033643
56.170 8.866013
56.175 8.709735
56.180 8.413421
56.185 8.895376
56.190 8.501817
56.195 7.975986
56.200 7.6119
56.205 7.837719
56.210 8.263416
56.215 8.154159
56.220 7.646973
56.225 7.758929
56.230 7.922953
56.235 8.043081
56.240 7.874494
56.245 7.408071
56.250 7.451113
56.255 7.484375
56.260 7.819221
56.265 7.845862
56.270 7.779909
56.275 7.894056
56.280 8.133675
56.285 8.454506
56.290 9.084949
56.295 9.005399
56.300 8.955309
56.305 8.812834
56.310 8.745538
56.315 8.554116
56.320 8.026834
56.325 7.312979
56.330 7.015407
56.335 7.132195
56.340 6.91428
56.345 7.160361
56.350 7.582192
56.355 8.191792
56.360 8.558623
56.365 8.923735
56.370 8.898324
56.375 8.463796
56.380 8.243877
56.385 8.270842
56.390 7.864002
56.395 7.88597
56.400 7.694714
56.405 7.777482
56.410 8.157608
56.415 8.093843
56.420 8.031796
56.425 7.851053
56.430 7.631464
56.435 7.527968
56.440 7.61985
56.445 7.880003
56.450 7.769859
56.455 7.739418
56.460 8.126706
56.465 8.466255
56.470 8.657841
56.475 8.514058
56.480 8.409194
56.485 8.432404
56.490 8.605952
56.495 8.944117
56.500 8.936452
56.505 8.655217
56.510 8.556554
56.515 8.698131
56.520 9.452691
56.525 9.371194
56.530 8.965514
56.535 9.254716
56.540 9.602224
56.545 10.104014
56.550 9.783126
56.555 9.593327
56.560 9.584089
56.565 9.764653
56.570 9.473232
56.575 9.111149
56.580 8.700478
56.585 8.707199
56.590 8.632762
56.595 8.869499
56.600 9.225235
56.605 9.304094
56.610 9.463954
56.615 9.759735
56.620 9.818817
56.625 9.567695
56.630 9.544278
56.635 9.224655
56.640 9.157148
56.645 9.096251
56.650 8.835437
56.655 8.622543
56.660 8.215234
56.665 7.565471
56.670 7.219787
56.675 7.317988
56.680 7.376579
56.685 7.581203
56.690 7.933672
56.695 8.649479
56.700 8.847216
56.705 9.277564
56.710 9.477541
56.715 9.436578
56.720 9.335783
56.725 9.31482
56.730 9.192309
56.735 8.866479
56.740 8.156167
56.745 8.134953
56.750 8.390118
56.755 8.270727
56.760 8.305596
56.765 8.024728
56.770 8.782558
56.775 9.207982
56.780 9.404709
56.785 9.627425
56.790 9.566165
56.795 9.436317
56.800 9.78708
56.805 9.465919
56.810 9.426
56.815 8.785302
56.820 8.371306
56.825 8.520208
56.830 8.513845
56.835 8.409257
56.840 8.594091
56.845 8.472753
56.850 8.507185
56.855 8.602645
56.860 8.491062
56.865 8.754066
56.870 8.92027
56.875 8.746054
56.880 8.606643
56.885 8.697583
56.890 8.738916
56.895 8.811692
56.900 8.901346
56.905 8.748128
56.910 9.268204
56.915 9.453935
56.920 9.462747
56.925 9.504192
56.930 9.211242
56.935 8.702814
56.940 8.213888
56.945 7.65068
56.950 7.590562
56.955 7.519166
56.960 7.420021
56.965 7.704101
56.970 8.028681
56.975 8.689981
56.980 9.031754
56.985 9.067491
56.990 9.05682
56.995 8.864713
57.000 8.385223
57.005 7.84098
57.010 7.371217
57.015 7.364284
57.020 7.363844
57.025 7.42638
57.030 7.383569
57.035 7.627684
57.040 7.779244
57.045 7.884344
57.050 7.909895
57.055 7.809173
57.060 7.937271
57.065 7.972458
57.070 7.651271
57.075 7.546668
57.080 7.284134
57.085 7.152018
57.090 7.151474
57.095 7.104537
57.100 7.232907
57.105 7.388443
57.110 7.663033
57.115 7.776147
57.120 7.404226
57.125 7.18516
57.130 6.793465
57.135 6.621103
57.140 6.765809
57.145 6.51568
57.150 6.323031
57.155 6.576836
57.160 6.854156
57.165 6.917738
57.170 6.832668
57.175 7.064204
57.180 7.085181
57.185 7.134994
57.190 7.036325
57.195 6.861329
57.200 7.030818
57.205 7.104488
57.210 7.128993
57.215 7.332139
57.220 7.225717
57.225 7.59055
57.230 7.786397
57.235 7.871749
57.240 7.977075
57.245 8.134597
57.250 7.86872
57.255 7.877622
57.260 7.602035
57.265 7.543387
57.270 7.656256
57.275 7.354866
57.280 6.826508
57.285 7.37207
57.290 7.644922
57.295 7.670613
57.300 7.907328
57.305 7.876536
57.310 8.060926
57.315 8.92802
57.320 9.189383
57.325 9.019862
57.330 8.84505
57.335 8.649413
57.340 8.619364
57.345 8.599972
57.350 7.666298
57.355 7.479237
57.360 7.739257
57.365 7.845149
57.370 7.705089
57.375 8.196783
57.380 8.384981
57.385 8.795868
57.390 8.600867
57.395 8.59218
57.400 8.853777
57.405 9.252285
57.410 8.731898
57.415 8.559729
57.420 8.430626
57.425 7.99365
57.430 7.705135
57.435 7.544105
57.440 7.556017
57.445 7.535444
57.450 7.275299
57.455 7.267586
57.460 7.39563
57.465 7.295104
57.470 7.019903
57.475 6.775314
57.480 6.626256
57.485 6.762749
57.490 7.048576
57.495 7.510294
57.500 7.897703
57.505 7.772884
57.510 7.685329
57.515 8.426212
57.520 8.464095
57.525 8.46333
57.530 8.422282
57.535 8.480867
57.540 8.752643
57.545 8.899698
57.550 8.586565
57.555 8.221795
57.560 7.911377
57.565 8.06174
57.570 8.200702
57.575 8.322308
57.580 8.323646
57.585 8.360496
57.590 8.561416
57.595 8.543017
57.600 8.328954
57.605 8.188114
57.610 8.097385
57.615 7.734524
57.620 7.900484
57.625 8.093511
57.630 8.506349
57.635 8.346313
57.640 8.189715
57.645 7.999378
57.650 7.973895
57.655 8.016849
57.660 8.16855
57.665 7.952116
57.670 7.855241
57.675 7.74891
57.680 7.777643
57.685 7.97201
57.690 7.717697
57.695 7.353138
57.700 7.209586
57.705 6.941447
57.710 6.981501
57.715 7.381061
57.720 7.419943
57.725 7.815421
57.730 7.876318
57.735 7.885737
57.740 8.106286
57.745 7.770055
57.750 7.322672
57.755 7.080276
57.760 6.71032
57.765 6.742519
57.770 7.158473
57.775 7.238453
57.780 7.363258
57.785 7.526309
57.790 7.841665
57.795 7.975527
57.800 7.673426
57.805 7.367139
57.810 7.673584
57.815 8.079188
57.820 7.963244
57.825 7.649712
57.830 7.601024
57.835 7.718025
57.840 7.780138
57.845 7.8397
57.850 7.605642
57.855 7.546
57.860 7.869207
57.865 7.523838
57.870 7.206245
57.875 7.259325
57.880 6.861013
57.885 7.026895
57.890 6.706919
57.895 6.430308
57.900 6.814468
57.905 6.72332
57.910 6.410942
57.915 6.073415
57.920 6.176555
57.925 6.489939
57.930 6.446983
57.935 6.243464
57.940 6.621852
57.945 6.91455
57.950 6.985008
57.955 6.938992
57.960 7.021766
57.965 6.889504
57.970 6.948861
57.975 6.875741
57.980 6.938879
57.985 7.307807
57.990 7.379515
57.995 7.374181
58.000 7.781533
58.005 8.52602
58.010 8.560748
58.015 8.655403
58.020 8.50445
58.025 8.702501
58.030 9.174003
58.035 9.113277
58.040 8.725704
58.045 8.914108
58.050 8.756953
58.055 8.751086
58.060 8.414369
58.065 8.075438
58.070 8.501397
58.075 8.592261
58.080 8.308957
58.085 8.322322
58.090 8.348691
58.095 8.410363
58.100 8.294251
58.105 7.84421
58.110 7.42747
58.115 7.445398
58.120 7.721375
58.125 8.180779
58.130 8.621387
58.135 8.755387
58.140 8.685735
58.145 8.754733
58.150 8.844635
58.155 8.311919
58.160 7.673018
58.165 7.223937
58.170 7.011714
58.175 7.211462
58.180 7.272667
58.185 7.207193
58.190 7.60299
58.195 7.440237
58.200 7.388085
58.205 7.633685
58.210 7.830878
58.215 7.883532
58.220 7.85325
58.225 7.889318
58.230 8.344854
58.235 8.523331
58.240 8.695107
58.245 8.54577
58.250 8.681931
58.255 9.059182
58.260 9.143063
58.265 9.13986
58.270 8.931487
58.275 8.401589
58.280 8.212981
58.285 7.837945
58.290 7.346765
58.295 6.992712
58.300 6.828762
58.305 6.917819
58.310 7.07467
58.315 7.283293
58.320 7.491897
58.325 7.996609
58.330 8.079146
58.335 8.015255
58.340 7.849502
58.345 7.846457
58.350 8.086425
58.355 7.69366
58.360 7.594683
58.365 7.898417
58.370 7.873343
58.375 8.158016
58.380 8.264354
58.385 8.272543
58.390 8.486358
58.395 8.476434
58.400 8.132413
58.405 8.273593
58.410 8.493791
58.415 8.404031
58.420 8.114701
58.425 8.400429
58.430 7.987271
58.435 7.975358
58.440 7.68186
58.445 7.163182
58.450 7.071411
58.455 7.456719
58.460 7.205505
58.465 7.316577
58.470 7.207171
58.475 7.22648
58.480 7.323591
58.485 7.362595
58.490 7.482073
58.495 7.568243
58.500 7.787764
58.505 7.89449
58.510 8.122452
58.515 8.261931
58.520 8.074652
58.525 7.67475
58.530 7.233159
58.535 7.272373
58.540 7.155103
58.545 7.358023
58.550 7.667576
58.555 7.852886
58.560 7.77404
58.565 8.133238
58.570 8.078419
58.575 8.220595
58.580 8.230953
58.585 7.822722
58.590 7.924003
58.595 8.196218
58.600 7.723571
58.605 7.493855
58.610 7.219434
58.615 6.979126
58.620 7.042791
58.625 7.229939
58.630 7.487699
58.635 7.826654
58.640 7.874227
58.645 8.108515
58.650 8.443051
58.655 8.621402
58.660 8.383692
58.665 8.175204
58.670 8.494956
58.675 8.542352
58.680 8.364705
58.685 7.899378
58.690 7.806694
58.695 8.146736
58.700 8.417564
58.705 8.364598
58.710 8.860944
58.715 8.806086
58.720 9.114828
58.725 8.95845
58.730 8.439433
58.735 8.375918
58.740 8.43477
58.745 8.465881
58.750 8.229625
58.755 7.983884
58.760 8.416832
