!@!!GADDS PLOTSO FILE: Chi integration type
!@!!Title/SampleName: map-146
!@!!Comment: ?
!@!!User: Bruker Instrument Administrator
!@!!Site: University of Illinois Chicago
!@!!Frame: map-146_01_000.gfrm
!@!!Wavelengths    1.54184   1.54056   1.54439
!@!!Frame angles: 2Theta: 63.000 Omega: 50.000 Phi: 0.000 Chi: 90.000
!@!!Integration range: 2Theta: 53.000 to 73.000  Gamma: -105.000 to -75.000
!@!!Integration method: bin normalized
!@!N
!@!SS
!@!M
!@!L 0.0 0.0 0.0 0.0
!@!XDegrees
!@!YCounts
53.000 8.698616
53.005 8.362325
53.010 7.849217
53.015 7.968186
53.020 8.256172
53.025 8.114384
53.030 8.175776
53.035 8.219333
53.040 8.442063
53.045 8.614144
53.050 8.383128
53.055 8.206876
53.060 8.753262
53.065 8.849099
53.070 8.973335
53.075 9.395749
53.080 10.120673
53.085 10.708344
53.090 10.848101
53.095 10.500638
53.100 10.694878
53.105 10.458546
53.110 10.156344
53.115 9.939429
53.120 9.880581
53.125 10.186742
53.130 10.129723
53.135 9.86729
53.140 9.724962
53.145 9.763761
53.150 9.631808
53.155 9.576447
53.160 9.514956
53.165 9.732655
53.170 10.254062
53.175 10.599918
53.180 11.055464
53.185 11.217232
53.190 10.917056
53.195 10.502252
53.200 10.659795
53.205 10.455034
53.210 9.99357
53.215 9.475856
53.220 9.280349
53.225 9.026906
53.230 8.906016
53.235 8.764958
53.240 8.425133
53.245 8.56179
53.250 8.116561
53.255 7.770992
53.260 7.832038
53.265 7.702753
53.270 7.711719
53.275 7.834881
53.280 8.029825
53.285 8.76826
53.290 8.951961
53.295 9.234761
53.300 9.29072
53.305 9.562617
53.310 9.886699
53.315 9.867948
53.320 9.89246
53.325 10.258048
53.330 10.368079
53.335 10.538051
53.340 10.437132
53.345 10.234612
53.350 10.766147
53.355 11.204021
53.360 11.582998
53.365 11.78385
53.370 11.587789
53.375 11.979212
53.380 11.620667
53.385 11.140639
53.390 10.673094
53.395 10.045585
53.400 10.190453
53.405 9.922565
53.410 9.513632
53.415 10.1759
53.420 10.406054
53.425 10.678068
53.430 10.560713
53.435 10.378678
53.440 10.402435
53.445 10.512383
53.450 9.785587
53.455 9.418908
53.460 9.246876
53.465 9.090117
53.470 9.194663
53.475 9.562432
53.480 9.533193
53.485 9.705804
53.490 9.818259
53.495 10.329469
53.500 10.541499
53.505 10.52241
53.510 10.346365
53.515 10.168311
53.520 9.998552
53.525 10.340648
53.530 10.170777
53.535 9.963405
53.540 9.749117
53.545 9.896096
53.550 10.132454
53.555 9.807905
53.560 9.815704
53.565 10.108269
53.570 10.384362
53.575 10.776258
53.580 10.774324
53.585 10.797209
53.590 10.686559
53.595 10.497894
53.600 10.282325
53.605 9.766394
53.610 9.476131
53.615 9.467545
53.620 9.493904
53.625 9.782489
53.630 9.537642
53.635 9.450457
53.640 10.044742
53.645 10.624696
53.650 10.686769
53.655 10.715432
53.660 10.815473
53.665 11.031507
53.670 10.966249
53.675 10.423301
53.680 9.879878
53.685 10.130553
53.690 10.340192
53.695 10.467126
53.700 10.931855
53.705 11.304063
53.710 11.547139
53.715 11.554788
53.720 11.202047
53.725 11.387827
53.730 11.394729
53.735 11.229053
53.740 11.320208
53.745 11.357871
53.750 11.237036
53.755 11.161077
53.760 10.563205
53.765 10.671847
53.770 10.863628
53.775 10.611718
53.780 10.688117
53.785 10.96853
53.790 11.135586
53.795 11.523266
53.800 11.270023
53.805 10.609345
53.810 11.063416
53.815 10.833184
53.820 10.711921
53.825 10.59636
53.830 10.449807
53.835 10.88984
53.840 11.337021
53.845 11.161162
53.850 11.103201
53.855 11.306694
53.860 11.098932
53.865 10.877445
53.870 10.741855
53.875 10.392939
53.880 10.442346
53.885 10.484738
53.890 10.137863
53.895 9.983319
53.900 9.479844
53.905 9.210014
53.910 9.324639
53.915 9.540624
53.920 9.509202
53.925 9.477711
53.930 10.09615
53.935 10.257066
53.940 10.136685
53.945 9.914203
53.950 10.012772
53.955 10.059733
53.960 10.54765
53.965 10.572236
53.970 10.616877
53.975 10.496546
53.980 10.768334
53.985 10.98193
53.990 11.023236
53.995 10.272955
54.000 9.661264
54.005 9.733989
54.010 10.071768
54.015 9.878761
54.020 9.432766
54.025 9.723296
54.030 10.357319
54.035 11.019054
54.040 11.280492
54.045 10.681996
54.050 10.702049
54.055 10.900679
54.060 11.17835
54.065 10.890345
54.070 10.843052
54.075 10.586824
54.080 10.634966
54.085 10.283286
54.090 9.951451
54.095 9.89018
54.100 10.088128
54.105 10.121926
54.110 10.252836
54.115 10.653876
54.120 11.166475
54.125 11.308986
54.130 11.054094
54.135 10.866388
54.140 10.76584
54.145 11.099158
54.150 10.940286
54.155 11.155205
54.160 11.481015
54.165 11.814428
54.170 12.596609
54.175 12.709158
54.180 12.312966
54.185 12.519461
54.190 11.739389
54.195 11.264424
54.200 11.137926
54.205 10.585309
54.210 10.017914
54.215 9.815511
54.220 9.941966
54.225 10.264099
54.230 10.461821
54.235 10.747401
54.240 11.245858
54.245 11.42613
54.250 11.73175
54.255 11.533792
54.260 11.435573
54.265 11.476247
54.270 10.948545
54.275 10.657319
54.280 11.18786
54.285 10.928892
54.290 11.467302
54.295 11.5512
54.300 11.185037
54.305 11.6948
54.310 11.748457
54.315 11.732763
54.320 11.785539
54.325 11.382442
54.330 11.371184
54.335 11.315646
54.340 10.553204
54.345 10.333357
54.350 10.296522
54.355 10.564103
54.360 10.818678
54.365 10.468809
54.370 10.816301
54.375 10.939572
54.380 10.816672
54.385 10.576078
54.390 10.340328
54.395 10.240767
54.400 10.197227
54.405 10.090387
54.410 10.389839
54.415 10.485859
54.420 10.443364
54.425 9.943368
54.430 9.925824
54.435 10.305682
54.440 10.472858
54.445 10.826543
54.450 10.762857
54.455 11.000463
54.460 11.719697
54.465 11.888733
54.470 11.831534
54.475 11.234615
54.480 10.842085
54.485 10.955307
54.490 10.797215
54.495 10.860407
54.500 10.625857
54.505 10.546635
54.510 10.850268
54.515 11.248438
54.520 11.378122
54.525 11.257907
54.530 11.252982
54.535 11.773427
54.540 12.262543
54.545 12.113451
54.550 11.892094
54.555 12.032402
54.560 12.641806
54.565 12.528469
54.570 12.207719
54.575 12.431757
54.580 12.531684
54.585 12.721802
54.590 12.876883
54.595 12.399775
54.600 12.030024
54.605 11.874989
54.610 10.996245
54.615 10.44051
54.620 10.24792
54.625 10.402113
54.630 10.653156
54.635 10.659215
54.640 10.932824
54.645 11.6847
54.650 12.067893
54.655 11.719028
54.660 11.467831
54.665 11.202204
54.670 11.250058
54.675 11.370089
54.680 11.218483
54.685 11.745512
54.690 11.895105
54.695 11.64421
54.700 12.013133
54.705 11.7645
54.710 11.91029
54.715 11.761908
54.720 11.52288
54.725 11.617447
54.730 11.527493
54.735 11.206498
54.740 10.750455
54.745 10.498599
54.750 10.570458
54.755 10.489479
54.760 10.534683
54.765 10.860901
54.770 11.363992
54.775 11.76749
54.780 11.767824
54.785 11.863007
54.790 11.778356
54.795 12.221295
54.800 12.486205
54.805 12.810238
54.810 13.498002
54.815 13.313613
54.820 13.509641
54.825 13.999607
54.830 13.546962
54.835 13.286422
54.840 12.381113
54.845 11.933475
54.850 12.018776
54.855 11.571164
54.860 11.197719
54.865 11.069543
54.870 11.349235
54.875 11.740529
54.880 12.17863
54.885 12.549051
54.890 12.746224
54.895 12.701524
54.900 12.916118
54.905 13.000801
54.910 13.321003
54.915 12.971097
54.920 12.793174
54.925 12.675613
54.930 12.465114
54.935 12.156816
54.940 11.574683
54.945 11.37746
54.950 11.159753
54.955 11.141063
54.960 11.054032
54.965 11.029558
54.970 11.004457
54.975 10.972671
54.980 11.057155
54.985 11.203305
54.990 10.952129
54.995 10.916086
55.000 10.500039
55.005 10.232329
55.010 10.366858
55.015 10.043275
55.020 9.778714
55.025 10.077905
55.030 10.217408
55.035 10.760766
55.040 11.206569
55.045 11.291472
55.050 11.313232
55.055 11.931314
55.060 12.249674
55.065 12.600981
55.070 12.681847
55.075 13.044058
55.080 13.537619
55.085 13.322754
55.090 13.192203
55.095 13.290874
55.100 13.023148
55.105 12.807796
55.110 11.950374
55.115 11.795662
55.120 12.145532
55.125 11.888083
55.130 12.457375
55.135 13.351554
55.140 13.830438
55.145 14.168837
55.150 13.963164
55.155 13.395502
55.160 13.188391
55.165 12.536174
55.170 11.986157
55.175 11.603645
55.180 11.567301
55.185 11.813051
55.190 12.133249
55.195 12.099011
55.200 11.757546
55.205 12.055006
55.210 11.923918
55.215 11.91441
55.220 12.588553
55.225 12.496725
55.230 12.394609
55.235 12.99121
55.240 13.116008
55.245 13.227061
55.250 13.294718
55.255 12.334541
55.260 12.290827
55.265 12.288213
55.270 11.600595
55.275 11.26488
55.280 11.106381
55.285 11.247651
55.290 11.785389
55.295 11.604753
55.300 11.463886
55.305 11.717203
55.310 11.597196
55.315 11.51005
55.320 11.091269
55.325 11.011371
55.330 11.142436
55.335 10.286188
55.340 10.220383
55.345 10.504492
55.350 10.884091
55.355 11.037604
55.360 11.126842
55.365 11.767193
55.370 12.885355
55.375 13.113925
55.380 13.293156
55.385 13.213906
55.390 13.477339
55.395 13.66114
55.400 13.24347
55.405 13.006261
55.410 12.93719
55.415 12.838918
55.420 12.879679
55.425 13.223785
55.430 12.990717
55.435 12.847654
55.440 12.918898
55.445 12.732068
55.450 12.810129
55.455 12.554245
55.460 12.227407
55.465 12.515945
55.470 12.456478
55.475 12.635839
55.480 12.185089
55.485 11.906223
55.490 12.175282
55.495 11.63603
55.500 11.585954
55.505 11.674179
55.510 11.965296
55.515 12.424299
55.520 12.55279
55.525 12.077505
55.530 12.195338
55.535 12.545358
55.540 12.430882
55.545 12.068472
55.550 11.874587
55.555 12.119007
55.560 12.837856
55.565 12.720531
55.570 12.187059
55.575 12.206082
55.580 12.578637
55.585 12.586944
55.590 12.496744
55.595 11.927764
55.600 12.25395
55.605 12.451854
55.610 11.861078
55.615 11.404088
55.620 11.187459
55.625 11.04846
55.630 11.042674
55.635 10.602202
55.640 10.491529
55.645 11.220874
55.650 11.400485
55.655 11.199999
55.660 11.185633
55.665 11.194409
55.670 12.057368
55.675 12.71452
55.680 12.836473
55.685 13.386763
55.690 13.349898
55.695 13.428803
55.700 13.12098
55.705 12.507752
55.710 11.990987
55.715 11.942051
55.720 12.438869
55.725 12.649577
55.730 12.675415
55.735 12.375484
55.740 11.973781
55.745 11.545904
55.750 11.181452
55.755 10.601114
55.760 10.865399
55.765 11.056493
55.770 11.677434
55.775 11.977969
55.780 12.450074
55.785 12.85536
55.790 12.837703
55.795 12.744006
55.800 12.840589
55.805 12.988979
55.810 13.613296
55.815 13.87937
55.820 14.129394
55.825 14.302132
55.830 14.338351
55.835 14.710978
55.840 14.836483
55.845 14.123856
55.850 13.74276
55.855 13.009578
55.860 12.962573
55.865 13.009166
55.870 12.318077
55.875 12.366427
55.880 12.189959
55.885 12.007531
55.890 12.35235
55.895 12.364251
55.900 12.263676
55.905 12.373939
55.910 12.352214
55.915 12.725946
55.920 13.264947
55.925 13.607075
55.930 13.973373
55.935 14.303343
55.940 14.538348
55.945 14.219905
55.950 13.777062
55.955 13.13825
55.960 12.546905
55.965 12.307457
55.970 11.956534
55.975 12.221491
55.980 12.634038
55.985 13.294492
55.990 13.433353
55.995 13.591401
56.000 13.258895
56.005 13.004152
56.010 12.525312
56.015 11.926877
56.020 12.132081
56.025 12.036872
56.030 12.402859
56.035 12.902387
56.040 12.898557
56.045 13.070802
56.050 13.468818
56.055 13.397996
56.060 13.557556
56.065 13.630625
56.070 13.379699
56.075 13.763589
56.080 13.72792
56.085 13.417674
56.090 13.011364
56.095 12.667215
56.100 11.96616
56.105 11.788086
56.110 12.119293
56.115 11.974138
56.120 12.106728
56.125 12.456429
56.130 12.615864
56.135 12.829582
56.140 12.648504
56.145 12.112247
56.150 12.736251
56.155 13.110586
56.160 13.14527
56.165 12.904088
56.170 13.23581
56.175 13.192887
56.180 13.157683
56.185 12.679563
56.190 12.421604
56.195 12.965576
56.200 13.448204
56.205 13.679459
56.210 14.048218
56.215 14.394896
56.220 14.543477
56.225 14.034863
56.230 13.704984
56.235 14.174232
56.240 14.2199
56.245 14.037588
56.250 13.867326
56.255 14.223019
56.260 14.804754
56.265 14.386487
56.270 13.818812
56.275 13.96994
56.280 13.817872
56.285 13.781418
56.290 13.876892
56.295 13.226145
56.300 13.06043
56.305 12.92713
56.310 12.937366
56.315 13.005627
56.320 12.819322
56.325 12.267698
56.330 12.586622
56.335 12.668732
56.340 12.732121
56.345 12.756701
56.350 12.902672
56.355 12.642425
56.360 12.537149
56.365 12.7324
56.370 12.848675
56.375 12.697642
56.380 12.42789
56.385 12.31342
56.390 12.384147
56.395 13.113935
56.400 12.955782
56.405 12.885574
56.410 13.272055
56.415 13.770371
56.420 14.097146
56.425 13.950818
56.430 13.79679
56.435 13.800485
56.440 14.013147
56.445 13.397511
56.450 12.568191
56.455 12.274942
56.460 12.353114
56.465 12.273922
56.470 12.657514
56.475 12.576316
56.480 13.103031
56.485 13.348447
56.490 14.042301
56.495 14.347248
56.500 14.229863
56.505 14.436899
56.510 14.548359
56.515 14.235035
56.520 14.166158
56.525 13.787233
56.530 13.305429
56.535 13.256514
56.540 13.040946
56.545 13.390459
56.550 14.254029
56.555 14.107452
56.560 14.396022
56.565 14.778352
56.570 14.769209
56.575 14.810513
56.580 14.473879
56.585 13.737039
56.590 13.962216
56.595 14.27802
56.600 14.132163
56.605 14.239118
56.610 13.934218
56.615 14.441695
56.620 14.814381
56.625 14.559904
56.630 14.121919
56.635 14.067423
56.640 13.915833
56.645 14.051175
56.650 13.617445
56.655 13.547805
56.660 13.859201
56.665 13.84652
56.670 14.172566
56.675 14.668659
56.680 14.812266
56.685 15.351457
56.690 15.51743
56.695 15.27971
56.700 15.523595
56.705 15.201399
56.710 14.945265
56.715 14.875317
56.720 14.360036
56.725 14.440992
56.730 14.189865
56.735 13.991066
56.740 14.200611
56.745 14.079371
56.750 14.307692
56.755 14.232318
56.760 14.026597
56.765 14.310811
56.770 14.458853
56.775 14.035585
56.780 13.947333
56.785 13.617017
56.790 13.693071
56.795 14.451664
56.800 15.063404
56.805 15.482751
56.810 15.960051
56.815 15.742941
56.820 16.00349
56.825 15.896943
56.830 15.043045
56.835 14.959925
56.840 14.82719
56.845 14.832238
56.850 14.448174
56.855 14.327906
56.860 14.554083
56.865 14.085081
56.870 13.30974
56.875 13.451633
56.880 13.211599
56.885 13.501005
56.890 13.297315
56.895 13.196872
56.900 13.631254
56.905 14.41449
56.910 14.535786
56.915 14.598501
56.920 14.326186
56.925 14.131396
56.930 14.233571
56.935 14.236641
56.940 13.701791
56.945 13.67314
56.950 14.181362
56.955 14.624342
56.960 14.925992
56.965 15.033759
56.970 15.102665
56.975 15.31291
56.980 15.737759
56.985 15.963489
56.990 15.653752
56.995 15.942709
57.000 15.914228
57.005 15.785428
57.010 15.43529
57.015 14.944214
57.020 14.715878
57.025 15.064596
57.030 15.230238
57.035 15.362892
57.040 14.734015
57.045 14.605789
57.050 14.353428
57.055 14.419618
57.060 13.919118
57.065 13.670429
57.070 13.760197
57.075 14.175579
57.080 14.340208
57.085 14.541543
57.090 14.580425
57.095 14.127295
57.100 13.622976
57.105 13.318403
57.110 13.117878
57.115 12.548882
57.120 11.68687
57.125 11.892834
57.130 12.260693
57.135 12.733483
57.140 12.962679
57.145 13.587079
57.150 13.821835
57.155 14.047205
57.160 13.728149
57.165 14.009101
57.170 14.137114
57.175 14.348336
57.180 14.016421
57.185 13.902952
57.190 13.825358
57.195 13.969829
57.200 14.005516
57.205 14.224732
57.210 14.648944
57.215 14.949749
57.220 15.389261
57.225 15.413451
57.230 15.298833
57.235 14.923623
57.240 14.313021
57.245 13.615049
57.250 13.37109
57.255 13.419032
57.260 13.352803
57.265 13.386392
57.270 13.744869
57.275 13.614402
57.280 13.950511
57.285 14.253115
57.290 14.474957
57.295 15.046
57.300 14.877254
57.305 14.875395
57.310 14.989309
57.315 15.798746
57.320 15.086494
57.325 14.506829
57.330 14.320092
57.335 14.119121
57.340 13.999674
57.345 14.245728
57.350 13.724572
57.355 14.306451
57.360 14.782288
57.365 15.184222
57.370 15.679141
57.375 15.697362
57.380 15.171698
57.385 14.759396
57.390 14.338827
57.395 14.581243
57.400 14.062168
57.405 14.094447
57.410 13.770203
57.415 13.895882
57.420 14.49639
57.425 14.955497
57.430 13.933909
57.435 13.732608
57.440 14.029616
57.445 14.706713
57.450 15.085443
57.455 15.19221
57.460 15.307622
57.465 15.849194
57.470 15.68692
57.475 15.364238
57.480 15.082304
57.485 14.713888
57.490 14.170243
57.495 14.093019
57.500 14.560811
57.505 14.98533
57.510 15.080698
57.515 15.43414
57.520 15.311389
57.525 15.540251
57.530 16.033905
57.535 16.403063
57.540 16.547255
57.545 16.549868
57.550 16.759724
57.555 16.862316
57.560 16.914457
57.565 16.874767
57.570 16.348373
57.575 16.043182
57.580 15.587628
57.585 15.301404
57.590 15.195123
57.595 15.025842
57.600 14.349679
57.605 14.185032
57.610 14.607133
57.615 14.579046
57.620 14.804551
57.625 15.296679
57.630 15.128778
57.635 15.245783
57.640 14.961672
57.645 14.775552
57.650 14.943604
57.655 14.443036
57.660 14.538235
57.665 14.718557
57.670 14.173294
57.675 14.508591
57.680 14.748167
57.685 14.959042
57.690 14.779536
57.695 14.449393
57.700 14.350847
57.705 14.718552
57.710 14.190854
57.715 13.948829
57.720 14.346766
57.725 14.885696
57.730 15.031552
57.735 14.955647
57.740 14.653859
57.745 14.582282
57.750 14.333143
57.755 13.882077
57.760 13.09878
57.765 13.234157
57.770 13.265689
57.775 13.87509
57.780 13.762071
57.785 13.577789
57.790 13.43186
57.795 14.031586
57.800 14.063321
57.805 14.272312
57.810 14.343384
57.815 15.183418
57.820 15.206481
57.825 15.361978
57.830 15.201031
57.835 15.149724
57.840 15.2506
57.845 15.308434
57.850 15.644232
57.855 16.217854
57.860 16.10714
57.865 15.81145
57.870 15.276375
57.875 15.134494
57.880 14.7505
57.885 13.969724
57.890 13.629251
57.895 13.768094
57.900 14.309846
57.905 14.85566
57.910 14.91619
57.915 14.956526
57.920 14.914576
57.925 14.789117
57.930 14.557802
57.935 13.939672
57.940 13.862813
57.945 13.990698
57.950 14.253614
57.955 14.247453
57.960 14.537333
57.965 14.829062
57.970 15.297737
57.975 15.467585
57.980 15.29537
57.985 15.873072
57.990 16.358381
57.995 16.209154
58.000 15.983622
58.005 15.835856
58.010 15.669957
58.015 15.693178
58.020 15.217746
58.025 15.219856
58.030 15.564955
58.035 16.016626
58.040 16.233229
58.045 15.939763
58.050 15.967144
58.055 16.193192
58.060 16.407724
58.065 16.168346
58.070 16.433537
58.075 17.26219
58.080 17.586565
58.085 17.959059
58.090 18.120426
58.095 17.715021
58.100 17.869097
58.105 17.492134
58.110 17.114016
58.115 17.118233
58.120 16.421494
58.125 16.226265
58.130 16.477514
58.135 17.037813
58.140 16.889185
58.145 16.577538
58.150 16.400778
58.155 16.638939
58.160 16.064152
58.165 16.188154
58.170 16.113966
58.175 15.756315
58.180 15.849353
58.185 15.80852
58.190 15.703762
58.195 15.681945
58.200 15.229825
58.205 14.935664
58.210 14.576921
58.215 14.457109
58.220 14.44063
58.225 14.693774
58.230 15.123846
58.235 14.966225
58.240 14.777677
58.245 14.88937
58.250 15.109291
58.255 15.195119
58.260 14.920539
58.265 14.787129
58.270 14.898255
58.275 15.403422
58.280 16.148664
58.285 16.376837
58.290 16.398369
58.295 16.271706
58.300 16.379353
58.305 16.537392
58.310 16.410343
58.315 15.493332
58.320 15.15389
58.325 15.158503
58.330 14.967455
58.335 15.142797
58.340 15.143264
58.345 15.044027
58.350 15.101341
58.355 15.46722
58.360 15.60876
58.365 15.600084
58.370 15.365394
58.375 15.61261
58.380 16.011551
58.385 16.309921
58.390 15.876981
58.395 15.843235
58.400 15.754052
58.405 15.83841
58.410 15.833611
58.415 15.530393
58.420 15.202558
58.425 14.972292
58.430 14.606034
58.435 14.978182
58.440 14.712856
58.445 14.271902
58.450 14.643092
58.455 14.721609
58.460 15.063515
58.465 15.330171
