!@!!GADDS PLOTSO FILE: Chi integration type
!@!!Title/SampleName: map-76
!@!!Comment: ?
!@!!User: Bruker Instrument Administrator
!@!!Site: University of Illinois Chicago
!@!!Frame: map-76_01_000.gfrm
!@!!Wavelengths    1.54184   1.54056   1.54439
!@!!Frame angles: 2Theta: 63.000 Omega: 50.000 Phi: 0.000 Chi: 90.000
!@!!Integration range: 2Theta: 53.000 to 73.000  Gamma: -105.000 to -75.000
!@!!Integration method: bin normalized
!@!N
!@!SS
!@!M
!@!L 0.0 0.0 0.0 0.0
!@!XDegrees
!@!YCounts
53.000 6.618302
53.005 6.530021
53.010 6.449247
53.015 6.594625
53.020 6.663371
53.025 7.246094
53.030 7.477877
53.035 7.266499
53.040 7.191955
53.045 6.900398
53.050 6.830645
53.055 6.931623
53.060 6.75697
53.065 6.76308
53.070 6.717929
53.075 6.852291
53.080 7.323882
53.085 7.826014
53.090 7.875216
53.095 8.095387
53.100 8.35027
53.105 8.662997
53.110 8.710541
53.115 8.836659
53.120 8.801826
53.125 8.653849
53.130 8.55376
53.135 8.30927
53.140 7.926646
53.145 8.082168
53.150 7.742017
53.155 7.555664
53.160 7.208494
53.165 7.299283
53.170 7.490906
53.175 7.940786
53.180 8.086974
53.185 8.261858
53.190 8.204915
53.195 8.391015
53.200 8.400684
53.205 8.454729
53.210 8.33092
53.215 7.95461
53.220 8.082933
53.225 8.504898
53.230 8.538432
53.235 8.483899
53.240 8.409848
53.245 8.29934
53.250 8.801291
53.255 8.761646
53.260 8.942421
53.265 8.873477
53.270 9.022522
53.275 9.337926
53.280 9.587542
53.285 9.643961
53.290 9.953188
53.295 9.874526
53.300 9.943285
53.305 9.789888
53.310 9.46431
53.315 9.023782
53.320 8.665062
53.325 8.302433
53.330 8.092487
53.335 8.204283
53.340 8.043756
53.345 8.034638
53.350 8.444396
53.355 8.451777
53.360 8.461574
53.365 8.536467
53.370 8.425902
53.375 8.906858
53.380 9.144847
53.385 8.845633
53.390 8.666957
53.395 8.468162
53.400 8.369653
53.405 8.385098
53.410 8.383451
53.415 8.247923
53.420 8.341284
53.425 8.480036
53.430 9.026299
53.435 9.339173
53.440 9.38475
53.445 9.16803
53.450 8.952803
53.455 8.960493
53.460 8.275101
53.465 7.847969
53.470 7.711347
53.475 7.637515
53.480 7.521767
53.485 7.874858
53.490 7.711271
53.495 8.488345
53.500 8.259227
53.505 8.182666
53.510 8.124526
53.515 7.565856
53.520 6.867246
53.525 6.804926
53.530 6.474155
53.535 6.687365
53.540 6.771215
53.545 6.955653
53.550 7.502534
53.555 7.796279
53.560 7.732581
53.565 7.653217
53.570 7.611112
53.575 7.527942
53.580 7.527377
53.585 7.400653
53.590 8.070842
53.595 8.638095
53.600 8.938824
53.605 9.060566
53.610 8.967207
53.615 8.997163
53.620 8.801083
53.625 8.40026
53.630 7.742652
53.635 7.333004
53.640 7.803782
53.645 8.3773
53.650 8.590966
53.655 9.018517
53.660 8.908591
53.665 9.007175
53.670 9.044888
53.675 8.572072
53.680 8.109223
53.685 7.75996
53.690 7.589154
53.695 7.709268
53.700 7.731612
53.705 7.857316
53.710 7.772444
53.715 8.047259
53.720 8.630669
53.725 8.891221
53.730 9.123747
53.735 9.462591
53.740 9.430233
53.745 9.581636
53.750 9.312009
53.755 9.05986
53.760 8.877791
53.765 8.729835
53.770 8.413245
53.775 8.338527
53.780 8.360426
53.785 8.164619
53.790 7.637988
53.795 7.666023
53.800 7.872744
53.805 7.995826
53.810 7.93468
53.815 8.198844
53.820 8.694753
53.825 8.835988
53.830 8.802502
53.835 8.671698
53.840 9.018648
53.845 9.029822
53.850 8.634312
53.855 8.795076
53.860 9.269891
53.865 9.76777
53.870 10.033049
53.875 9.707239
53.880 9.684329
53.885 9.758679
53.890 9.39176
53.895 8.913543
53.900 8.245729
53.905 7.942155
53.910 8.389549
53.915 8.541567
53.920 8.498521
53.925 8.60547
53.930 8.998228
53.935 9.15601
53.940 8.989186
53.945 8.946054
53.950 9.069668
53.955 9.254024
53.960 9.436377
53.965 9.583044
53.970 9.628572
53.975 9.954877
53.980 9.907579
53.985 10.143605
53.990 9.855755
53.995 9.390615
54.000 9.164094
54.005 9.123115
54.010 9.064532
54.015 8.731379
54.020 8.343293
54.025 9.036236
54.030 9.57835
54.035 9.837083
54.040 9.759818
54.045 10.035367
54.050 9.951661
54.055 9.877659
54.060 9.41808
54.065 8.969438
54.070 8.40029
54.075 7.872383
54.080 7.377715
54.085 7.348357
54.090 7.516943
54.095 7.910812
54.100 8.425135
54.105 9.004359
54.110 9.264445
54.115 9.329601
54.120 9.465414
54.125 9.135726
54.130 8.497191
54.135 8.344531
54.140 7.890002
54.145 8.484393
54.150 8.813301
54.155 9.260715
54.160 9.972396
54.165 10.30493
54.170 10.257335
54.175 10.684118
54.180 10.006705
54.185 9.585342
54.190 9.562911
54.195 9.280224
54.200 8.831355
54.205 8.776686
54.210 8.826407
54.215 9.288421
54.220 9.694878
54.225 9.451395
54.230 9.891357
54.235 10.488572
54.240 10.580229
54.245 10.793429
54.250 10.807568
54.255 10.664519
54.260 10.516135
54.265 10.223816
54.270 10.457513
54.275 10.513653
54.280 10.20695
54.285 10.488578
54.290 10.701128
54.295 10.918635
54.300 10.692325
54.305 10.588037
54.310 10.607601
54.315 10.314802
54.320 10.164255
54.325 9.836561
54.330 9.837082
54.335 10.130497
54.340 9.920407
54.345 10.240053
54.350 10.01678
54.355 9.773649
54.360 9.503117
54.365 9.076401
54.370 8.415829
54.375 8.177429
54.380 7.72323
54.385 7.785091
54.390 8.132957
54.395 9.177551
54.400 9.985641
54.405 10.422207
54.410 10.372548
54.415 10.633301
54.420 10.765313
54.425 10.277382
54.430 9.802111
54.435 10.56601
54.440 11.332335
54.445 11.415965
54.450 11.291322
54.455 11.086321
54.460 11.160546
54.465 10.757573
54.470 10.136799
54.475 10.185154
54.480 10.408822
54.485 10.549089
54.490 10.226798
54.495 10.007415
54.500 10.04173
54.505 9.405602
54.510 8.876436
54.515 8.87859
54.520 8.500816
54.525 8.871965
54.530 8.670986
54.535 8.422828
54.540 8.251921
54.545 8.466343
54.550 8.662933
54.555 9.303922
54.560 9.408417
54.565 9.441323
54.570 9.725304
54.575 10.010406
54.580 9.999737
54.585 10.258035
54.590 10.48295
54.595 10.674881
54.600 10.777797
54.605 10.812011
54.610 10.539608
54.615 10.403833
54.620 10.064468
54.625 9.594276
54.630 9.610811
54.635 9.513616
54.640 9.05908
54.645 8.95054
54.650 8.61256
54.655 8.653893
54.660 8.542923
54.665 8.342414
54.670 8.54516
54.675 9.58341
54.680 9.986069
54.685 9.89062
54.690 10.190766
54.695 10.582855
54.700 10.616067
54.705 10.240279
54.710 9.911696
54.715 10.138002
54.720 10.307331
54.725 10.030181
54.730 9.616697
54.735 9.557841
54.740 9.517375
54.745 9.252094
54.750 9.322633
54.755 9.637537
54.760 9.937197
54.765 10.60987
54.770 11.075769
54.775 11.536623
54.780 11.599162
54.785 11.342864
54.790 11.180089
54.795 11.094102
54.800 10.91166
54.805 10.867894
54.810 10.8352
54.815 11.220728
54.820 11.499806
54.825 11.809336
54.830 11.899059
54.835 11.782306
54.840 11.505498
54.845 11.305138
54.850 11.020523
54.855 10.684242
54.860 10.202215
54.865 10.184043
54.870 10.562899
54.875 10.719042
54.880 10.517501
54.885 10.785112
54.890 11.038219
54.895 11.145085
54.900 10.976695
54.905 10.766867
54.910 10.77439
54.915 10.922618
54.920 10.96876
54.925 10.972569
54.930 10.809003
54.935 10.699281
54.940 10.579329
54.945 10.795794
54.950 10.423673
54.955 9.881626
54.960 9.511809
54.965 9.34859
54.970 9.228438
54.975 9.041403
54.980 8.985463
54.985 9.220901
54.990 9.665451
54.995 10.178051
55.000 10.23999
55.005 10.318667
55.010 9.941357
55.015 9.507669
55.020 9.166333
55.025 8.913014
55.030 8.58944
55.035 8.948716
55.040 9.033134
55.045 9.548966
55.050 9.824743
55.055 9.988733
55.060 10.380808
55.065 9.957449
55.070 10.197647
55.075 10.154985
55.080 10.185254
55.085 10.637077
55.090 10.649057
55.095 11.100212
55.100 11.624172
55.105 11.411942
55.110 11.475333
55.115 11.171193
55.120 11.398008
55.125 11.53546
55.130 10.771586
55.135 10.271067
55.140 10.491599
55.145 10.677272
55.150 10.494778
55.155 10.228647
55.160 10.191115
55.165 10.513203
55.170 10.800077
55.175 10.585583
55.180 10.712708
55.185 10.601544
55.190 10.829188
55.195 10.765924
55.200 10.861199
55.205 10.361248
55.210 10.509801
55.215 10.404286
55.220 10.734654
55.225 11.085997
55.230 11.283648
55.235 10.807007
55.240 10.92059
55.245 11.137097
55.250 11.74214
55.255 11.02538
55.260 10.553092
55.265 10.974502
55.270 11.507275
55.275 11.580734
55.280 11.272612
55.285 11.209929
55.290 11.238709
55.295 10.650883
55.300 9.970711
55.305 9.707399
55.310 9.744603
55.315 9.598674
55.320 9.49358
55.325 9.474115
55.330 10.044424
55.335 9.967939
55.340 10.484057
55.345 10.389008
55.350 10.411952
55.355 10.96077
55.360 11.433196
55.365 11.089062
55.370 11.32957
55.375 11.012284
55.380 11.471334
55.385 11.294396
55.390 10.911617
55.395 10.493484
55.400 10.369972
55.405 10.489713
55.410 10.756751
55.415 10.916366
55.420 10.774018
55.425 11.105116
55.430 11.168986
55.435 11.218753
55.440 10.708218
55.445 10.274806
55.450 9.766182
55.455 9.778267
55.460 9.24006
55.465 9.497574
55.470 9.53746
55.475 9.326301
55.480 8.889384
55.485 8.777074
55.490 8.842233
55.495 9.248966
55.500 8.943302
55.505 9.01493
55.510 9.751008
55.515 10.168521
55.520 10.140415
55.525 9.933521
55.530 10.054529
55.535 10.336054
55.540 10.429239
55.545 10.453638
55.550 10.618905
55.555 11.204701
55.560 11.301008
55.565 10.886166
55.570 10.876234
55.575 10.916454
55.580 10.390148
55.585 10.263026
55.590 9.805971
55.595 10.042471
55.600 10.334435
55.605 10.338336
55.610 10.435511
55.615 10.467927
55.620 10.568445
55.625 10.920404
55.630 10.901763
55.635 11.13711
55.640 10.955518
55.645 10.930782
55.650 11.01888
55.655 10.960382
55.660 10.776897
55.665 10.715452
55.670 10.44124
55.675 10.306081
55.680 10.518693
55.685 10.688263
55.690 10.73129
55.695 10.96942
55.700 11.242355
55.705 11.994146
55.710 12.161487
55.715 12.248857
55.720 12.263438
55.725 11.92286
55.730 11.354802
55.735 10.897417
55.740 10.336471
55.745 9.989141
55.750 9.915828
55.755 10.085002
55.760 10.225246
55.765 10.658494
55.770 10.629706
55.775 10.951874
55.780 11.601442
55.785 11.744433
55.790 11.739233
55.795 11.481514
55.800 11.207872
55.805 10.992805
55.810 10.647164
55.815 10.3536
55.820 10.473273
55.825 10.906792
55.830 11.283919
55.835 11.864252
55.840 12.429781
55.845 12.987079
55.850 12.979088
55.855 12.589225
55.860 12.2643
55.865 12.14083
55.870 11.944449
55.875 11.801401
55.880 11.455576
55.885 11.463684
55.890 11.475295
55.895 11.449642
55.900 11.837269
55.905 12.038808
55.910 11.402385
55.915 11.570827
55.920 11.450933
55.925 11.611771
55.930 12.236918
55.935 12.170138
55.940 12.590914
55.945 12.955215
55.950 13.198605
55.955 13.577948
55.960 13.269666
55.965 12.712675
55.970 12.11218
55.975 11.644947
55.980 11.409117
55.985 10.939391
55.990 10.758472
55.995 11.25913
56.000 11.448863
56.005 11.619086
56.010 11.71074
56.015 12.124479
56.020 12.421428
56.025 12.221662
56.030 11.665138
56.035 11.466316
56.040 11.593452
56.045 11.411689
56.050 10.666017
56.055 10.022162
56.060 10.069371
56.065 10.033147
56.070 9.894729
56.075 9.897273
56.080 10.168228
56.085 10.296522
56.090 10.570988
56.095 10.52757
56.100 10.224686
56.105 9.874181
56.110 9.763174
56.115 9.923729
56.120 10.145368
56.125 10.200342
56.130 10.597711
56.135 11.075664
56.140 11.238238
56.145 11.2935
56.150 11.694174
56.155 12.246722
56.160 12.143631
56.165 11.990582
56.170 12.302454
56.175 12.083695
56.180 11.95742
56.185 11.717302
56.190 11.296731
56.195 11.464128
56.200 11.588623
56.205 11.55768
56.210 11.745107
56.215 11.351237
56.220 11.576599
56.225 11.823013
56.230 11.822517
56.235 12.306354
56.240 12.903811
56.245 13.348529
56.250 13.244152
56.255 13.021023
56.260 12.769068
56.265 12.596581
56.270 11.575327
56.275 11.104162
56.280 10.763765
56.285 10.70192
56.290 10.762162
56.295 11.254207
56.300 11.673918
56.305 12.565269
56.310 12.595092
56.315 12.801325
56.320 12.440413
56.325 12.631394
56.330 12.281777
56.335 11.902077
56.340 11.432506
56.345 11.638659
56.350 12.067914
56.355 12.204888
56.360 11.380342
56.365 10.948715
56.370 10.997071
56.375 10.683198
56.380 10.305464
56.385 9.950009
56.390 10.729501
56.395 11.722379
56.400 12.240196
56.405 12.387341
56.410 12.127299
56.415 11.825968
56.420 11.886931
56.425 11.527023
56.430 11.300541
56.435 11.20936
56.440 10.947136
56.445 11.458691
56.450 11.629197
56.455 11.472698
56.460 11.698012
56.465 11.63341
56.470 11.772418
56.475 12.032378
56.480 12.048306
56.485 12.452213
56.490 13.340652
56.495 13.35633
56.500 13.061712
56.505 12.998612
56.510 13.182615
56.515 13.553682
56.520 13.321258
56.525 12.204782
56.530 11.88571
56.535 12.021266
56.540 12.348342
56.545 12.567428
56.550 12.674853
56.555 12.725242
56.560 13.148286
56.565 13.108731
56.570 13.325549
56.575 12.90187
56.580 12.297068
56.585 12.128592
56.590 11.964719
56.595 11.750392
56.600 11.695914
56.605 11.454181
56.610 11.487241
56.615 11.447492
56.620 11.063184
56.625 11.723397
56.630 11.745901
56.635 11.443097
56.640 11.304935
56.645 11.191734
56.650 11.445905
56.655 11.723743
56.660 11.563993
56.665 11.609221
56.670 11.873627
56.675 12.068782
56.680 12.013996
56.685 11.751919
56.690 11.827596
56.695 11.420854
56.700 11.560479
56.705 11.51674
56.710 11.758787
56.715 12.314703
56.720 12.500243
56.725 12.483597
56.730 13.0508
56.735 13.398911
56.740 13.605562
56.745 13.105469
56.750 12.555535
56.755 12.339735
56.760 12.458932
56.765 12.555074
56.770 12.392716
56.775 12.283159
56.780 12.349651
56.785 12.615645
56.790 12.968912
56.795 13.126414
56.800 12.94428
56.805 13.112521
56.810 13.092736
56.815 12.947591
56.820 12.988928
56.825 12.83622
56.830 12.281299
56.835 12.655698
56.840 12.486993
56.845 12.607245
56.850 12.872242
56.855 12.515136
56.860 12.054784
56.865 12.154121
56.870 12.083963
56.875 11.98243
56.880 12.220608
56.885 12.292801
56.890 12.659254
56.895 12.974621
56.900 12.63664
56.905 12.24302
56.910 12.460232
56.915 12.200256
56.920 12.258451
56.925 11.893579
56.930 12.182139
56.935 12.811145
56.940 13.08159
56.945 12.922449
56.950 13.517203
56.955 13.625319
56.960 13.567549
56.965 13.284215
56.970 13.028774
56.975 13.253028
56.980 13.234604
56.985 12.976346
56.990 12.89895
56.995 13.12024
57.000 12.773649
57.005 13.014659
57.010 13.250201
57.015 13.542319
57.020 13.143248
57.025 12.921648
57.030 12.887157
57.035 13.136468
57.040 12.769693
57.045 12.367476
57.050 12.202025
57.055 12.141238
57.060 12.152748
57.065 12.201787
57.070 12.362467
57.075 12.489736
57.080 12.610952
57.085 12.509148
57.090 12.646557
57.095 13.13033
57.100 13.590063
57.105 13.434155
57.110 13.557311
57.115 13.366855
57.120 13.236817
57.125 13.206889
57.130 12.716519
57.135 12.341959
57.140 11.638926
57.145 11.254745
57.150 11.037935
57.155 11.274146
57.160 11.498031
57.165 11.310034
57.170 11.222083
57.175 11.555412
57.180 11.733522
57.185 12.019829
57.190 12.342026
57.195 12.823433
57.200 13.569613
57.205 13.96013
57.210 14.004399
57.215 13.88036
57.220 13.470808
57.225 12.712247
57.230 11.981859
57.235 11.565527
57.240 11.740369
57.245 12.94371
57.250 13.021613
57.255 13.430638
57.260 13.75303
57.265 13.957405
57.270 14.156472
57.275 13.30829
57.280 11.772697
57.285 12.137417
57.290 12.301141
57.295 12.229467
57.300 12.135715
57.305 11.897492
57.310 12.247341
57.315 13.123202
57.320 12.846501
57.325 12.823823
57.330 13.016398
57.335 13.219939
57.340 13.095115
57.345 12.788267
57.350 11.985022
57.355 11.959217
57.360 12.3798
57.365 12.117987
57.370 11.471483
57.375 11.807837
57.380 12.431502
57.385 12.963451
57.390 13.023174
57.395 12.962505
57.400 13.121451
57.405 13.566689
57.410 13.857096
57.415 14.013438
57.420 14.045529
57.425 14.142254
57.430 13.995052
57.435 14.092025
57.440 13.731196
57.445 13.177559
57.450 13.221312
57.455 13.417438
57.460 13.534431
57.465 13.786915
57.470 13.96723
57.475 14.098366
57.480 14.357186
57.485 14.012299
57.490 13.452868
57.495 12.837518
57.500 12.124145
57.505 12.075839
57.510 12.379334
57.515 12.482656
57.520 12.932727
57.525 12.77122
57.530 12.553573
57.535 12.505373
57.540 12.542463
57.545 12.410417
57.550 12.141412
57.555 12.255637
57.560 13.111926
57.565 13.706163
57.570 13.826753
57.575 14.070804
57.580 14.685071
57.585 14.733373
57.590 14.725545
57.595 14.349657
57.600 14.1812
57.605 14.609241
57.610 14.660898
57.615 13.878484
57.620 13.826959
57.625 13.632909
57.630 13.694901
57.635 13.731886
57.640 13.475817
57.645 13.01894
57.650 13.245686
57.655 13.435537
57.660 13.334247
57.665 13.267286
57.670 13.267745
57.675 13.381021
57.680 13.840057
57.685 14.254136
57.690 14.277349
57.695 14.425642
57.700 14.405806
57.705 14.319564
57.710 13.918224
57.715 13.14421
57.720 12.635
57.725 12.595641
57.730 12.956031
57.735 13.004134
57.740 13.346275
57.745 13.796887
57.750 14.339767
57.755 14.398023
57.760 14.019788
57.765 14.102069
57.770 13.837588
57.775 13.493994
57.780 13.558496
57.785 13.496835
57.790 13.742183
57.795 14.109455
57.800 13.969163
57.805 14.275617
57.810 14.919199
57.815 14.912459
57.820 14.543848
57.825 14.091915
57.830 13.378594
57.835 13.596755
57.840 13.52147
57.845 13.67828
57.850 13.693439
57.855 14.243357
57.860 14.800415
57.865 14.971522
57.870 14.707311
57.875 14.354512
57.880 13.647931
57.885 13.829314
57.890 13.76911
57.895 13.505742
57.900 13.852733
57.905 13.853819
57.910 14.134441
57.915 14.472482
57.920 14.412164
57.925 14.168863
57.930 14.568974
57.935 14.787101
57.940 14.605682
57.945 14.559122
57.950 14.431108
57.955 14.785275
57.960 14.92442
57.965 14.643426
57.970 14.016578
57.975 13.815701
57.980 13.783468
57.985 13.594023
57.990 13.180343
57.995 13.106744
58.000 13.278371
58.005 13.563482
58.010 13.67804
58.015 13.80455
58.020 13.522776
58.025 13.533835
58.030 13.341657
58.035 13.155731
58.040 13.439484
58.045 13.170165
58.050 12.63256
58.055 12.708689
58.060 12.679924
58.065 12.795942
58.070 12.865189
58.075 12.674629
58.080 13.110109
58.085 13.413431
58.090 13.579115
58.095 13.9164
58.100 14.30722
58.105 14.434178
58.110 14.565015
58.115 14.622993
58.120 14.710052
58.125 14.556206
58.130 14.027908
58.135 13.571671
58.140 13.417776
58.145 12.980692
58.150 12.678087
58.155 12.66698
58.160 13.221018
58.165 13.583944
58.170 13.580018
58.175 13.603263
58.180 13.48131
58.185 13.433459
58.190 13.137297
58.195 12.765663
58.200 12.589739
58.205 12.666175
58.210 13.056254
58.215 13.745173
58.220 14.414687
58.225 14.796308
58.230 14.966722
58.235 15.273058
58.240 15.235891
58.245 15.812087
58.250 15.609596
58.255 15.335208
58.260 15.044761
58.265 14.709216
58.270 14.377855
58.275 14.141773
58.280 13.537052
58.285 13.96376
58.290 14.018619
58.295 14.289918
58.300 14.908062
58.305 15.325375
58.310 15.361549
58.315 15.296535
58.320 14.907508
58.325 14.809716
58.330 15.013153
58.335 15.013203
58.340 14.895259
58.345 14.683057
58.350 14.405219
58.355 14.39852
58.360 14.315474
58.365 14.105971
58.370 13.842952
58.375 13.701155
58.380 14.018429
58.385 14.454347
58.390 14.16908
58.395 13.720219
58.400 13.810514
58.405 13.762535
58.410 13.84707
58.415 13.852522
58.420 13.92117
58.425 14.57506
58.430 15.696766
58.435 15.71565
58.440 16.124136
58.445 16.322763
58.450 15.938231
58.455 15.600841
58.460 15.214061
58.465 14.339892
58.470 14.488521
58.475 14.145916
58.480 14.581661
58.485 14.844847
58.490 15.317408
58.495 15.736367
58.500 15.609715
58.505 15.754747
58.510 15.487576
58.515 15.010518
58.520 15.152413
58.525 15.059488
58.530 15.280667
58.535 15.357721
