!@!!GADDS PLOTSO FILE: Chi integration type
!@!!Title/SampleName: map-3
!@!!Comment: ?
!@!!User: Bruker Instrument Administrator
!@!!Site: University of Illinois Chicago
!@!!Frame: map-3_01_000.gfrm
!@!!Wavelengths    1.54184   1.54056   1.54439
!@!!Frame angles: 2Theta: 63.000 Omega: 50.000 Phi: 0.000 Chi: 90.000
!@!!Integration range: 2Theta: 53.000 to 73.000  Gamma: -105.000 to -75.000
!@!!Integration method: bin normalized
!@!N
!@!SS
!@!M
!@!L 0.0 0.0 0.0 0.0
!@!XDegrees
!@!YCounts
53.000 7.464116
53.005 7.686832
53.010 8.050605
53.015 8.236921
53.020 8.482284
53.025 8.86735
53.030 8.981298
53.035 8.640292
53.040 8.611484
53.045 8.748255
53.050 9.301515
53.055 9.129874
53.060 8.608448
53.065 8.312075
53.070 8.201114
53.075 8.026062
53.080 7.46998
53.085 7.389801
53.090 8.155118
53.095 8.12125
53.100 8.192932
53.105 8.541343
53.110 8.621134
53.115 8.738066
53.120 8.425997
53.125 7.785621
53.130 7.53813
53.135 7.120159
53.140 6.802809
53.145 7.13681
53.150 7.122229
53.155 7.151805
53.160 7.482108
53.165 7.619547
53.170 7.794882
53.175 7.902981
53.180 7.773978
53.185 7.625803
53.190 7.687199
53.195 8.074522
53.200 8.756024
53.205 9.038073
53.210 9.110266
53.215 9.516927
53.220 9.841055
53.225 9.834723
53.230 9.510387
53.235 9.230185
53.240 9.044706
53.245 8.895548
53.250 8.638258
53.255 8.868139
53.260 8.963033
53.265 9.082246
53.270 9.189578
53.275 9.234684
53.280 9.107355
53.285 8.512103
53.290 8.013819
53.295 7.802738
53.300 7.62974
53.305 7.898898
53.310 7.853758
53.315 8.180074
53.320 8.358591
53.325 9.230972
53.330 9.573315
53.335 9.375191
53.340 9.043418
53.345 8.829272
53.350 9.027364
53.355 9.113554
53.360 8.529074
53.365 8.239712
53.370 8.20512
53.375 8.252966
53.380 8.110536
53.385 8.022223
53.390 8.356707
53.395 8.894045
53.400 9.126593
53.405 9.138564
53.410 9.198525
53.415 9.163062
53.420 8.89182
53.425 8.475362
53.430 8.23928
53.435 8.109095
53.440 8.390552
53.445 8.236569
53.450 8.453096
53.455 8.634325
53.460 8.864005
53.465 9.044041
53.470 9.304232
53.475 9.460247
53.480 9.714631
53.485 9.701924
53.490 9.06967
53.495 8.691467
53.500 8.240416
53.505 7.98018
53.510 8.167994
53.515 8.254126
53.520 8.474793
53.525 8.887493
53.530 9.166151
53.535 8.981557
53.540 9.176711
53.545 9.060522
53.550 8.864366
53.555 8.680499
53.560 8.160268
53.565 7.996147
53.570 8.184579
53.575 8.002299
53.580 7.744083
53.585 7.95889
53.590 8.366609
53.595 8.478102
53.600 8.420303
53.605 8.402528
53.610 8.565242
53.615 8.45246
53.620 7.978781
53.625 7.918548
53.630 8.246923
53.635 8.539941
53.640 8.41176
53.645 8.362996
53.650 8.927444
53.655 9.262579
53.660 9.164454
53.665 8.772873
53.670 8.684458
53.675 8.902389
53.680 8.973804
53.685 8.890166
53.690 8.823724
53.695 8.787476
53.700 9.177043
53.705 9.073859
53.710 8.877828
53.715 8.674925
53.720 8.592532
53.725 8.017235
53.730 7.520566
53.735 7.311358
53.740 7.385443
53.745 7.37987
53.750 7.396578
53.755 7.382061
53.760 7.986363
53.765 8.234357
53.770 8.298995
53.775 8.362902
53.780 8.926263
53.785 8.849083
53.790 8.855233
53.795 8.502369
53.800 8.558431
53.805 8.582223
53.810 8.467839
53.815 8.224737
53.820 8.600404
53.825 9.050946
53.830 9.44606
53.835 10.074939
53.840 9.855783
53.845 9.846629
53.850 9.68071
53.855 9.890138
53.860 9.604975
53.865 9.504704
53.870 9.892323
53.875 9.914824
53.880 10.099226
53.885 10.126048
53.890 9.76411
53.895 9.654379
53.900 9.018417
53.905 8.636951
53.910 8.772433
53.915 8.297548
53.920 8.274499
53.925 8.442113
53.930 8.799067
53.935 8.573455
53.940 8.384659
53.945 8.243565
53.950 8.247993
53.955 8.146031
53.960 8.275386
53.965 8.00401
53.970 8.244932
53.975 8.373639
53.980 8.752007
53.985 8.951948
53.990 9.143489
53.995 9.374011
54.000 9.685241
54.005 9.640339
54.010 9.696424
54.015 9.584973
54.020 9.558228
54.025 9.392003
54.030 9.453502
54.035 9.430331
54.040 9.741688
54.045 9.775557
54.050 9.810216
54.055 10.246186
54.060 9.980451
54.065 9.815336
54.070 9.523838
54.075 9.083802
54.080 8.765052
54.085 8.683515
54.090 8.474468
54.095 8.059586
54.100 7.932191
54.105 8.105007
54.110 8.399364
54.115 8.530224
54.120 8.391308
54.125 8.489059
54.130 9.035549
54.135 9.42353
54.140 9.699979
54.145 9.374381
54.150 9.428149
54.155 9.385448
54.160 9.462062
54.165 9.47105
54.170 9.380859
54.175 9.385894
54.180 9.437002
54.185 9.279301
54.190 9.214617
54.195 8.861765
54.200 8.790959
54.205 8.66242
54.210 9.084144
54.215 8.883406
54.220 8.835926
54.225 8.756386
54.230 8.897145
54.235 8.415084
54.240 7.874008
54.245 7.749648
54.250 8.292527
54.255 8.518855
54.260 8.87247
54.265 9.478564
54.270 9.914382
54.275 10.198368
54.280 10.505491
54.285 10.586885
54.290 11.14724
54.295 10.850468
54.300 10.535582
54.305 10.70617
54.310 10.664615
54.315 10.398538
54.320 10.310443
54.325 9.792475
54.330 9.889105
54.335 10.347378
54.340 10.431458
54.345 10.526694
54.350 10.316239
54.355 10.20228
54.360 10.364618
54.365 9.993919
54.370 9.756308
54.375 9.534525
54.380 9.185329
54.385 9.220114
54.390 9.443106
54.395 9.781943
54.400 10.035078
54.405 9.446301
54.410 9.650646
54.415 9.506033
54.420 9.382834
54.425 9.006137
54.430 8.863672
54.435 8.90954
54.440 9.154692
54.445 9.292457
54.450 9.788841
54.455 9.773939
54.460 9.623974
54.465 9.445996
54.470 9.399909
54.475 9.790052
54.480 9.543574
54.485 9.560144
54.490 9.636867
54.495 9.691153
54.500 9.700444
54.505 9.512571
54.510 9.369326
54.515 9.395052
54.520 9.319736
54.525 9.654784
54.530 9.675406
54.535 9.635117
54.540 9.760106
54.545 9.652575
54.550 9.958428
54.555 10.155801
54.560 9.701412
54.565 9.684778
54.570 9.674727
54.575 9.613239
54.580 9.394063
54.585 9.137301
54.590 9.119422
54.595 9.802375
54.600 10.19523
54.605 10.275649
54.610 10.124542
54.615 9.940398
54.620 9.789853
54.625 9.500459
54.630 9.545834
54.635 9.55829
54.640 10.079725
54.645 10.153378
54.650 10.436485
54.655 11.118491
54.660 11.206221
54.665 11.071356
54.670 11.218038
54.675 11.109816
54.680 11.72049
54.685 11.229839
54.690 10.404824
54.695 9.846322
54.700 9.335669
54.705 9.139199
54.710 8.905755
54.715 8.546738
54.720 9.094515
54.725 9.574178
54.730 10.07583
54.735 10.37329
54.740 10.56901
54.745 10.671107
54.750 10.46312
54.755 10.027108
54.760 10.099437
54.765 9.81791
54.770 9.779593
54.775 9.283035
54.780 9.28096
54.785 9.782968
54.790 9.824984
54.795 10.125151
54.800 10.533936
54.805 10.700571
54.810 10.787421
54.815 10.443154
54.820 10.216834
54.825 10.383443
54.830 10.108043
54.835 10.135773
54.840 10.225674
54.845 10.938827
54.850 11.416998
54.855 11.737585
54.860 11.516804
54.865 11.230546
54.870 11.043802
54.875 10.984943
54.880 11.054479
54.885 11.143496
54.890 10.733007
54.895 10.759497
54.900 10.77489
54.905 10.429008
54.910 10.25322
54.915 10.247018
54.920 10.419782
54.925 10.942861
54.930 11.031983
54.935 11.281578
54.940 11.557511
54.945 11.331731
54.950 10.800914
54.955 10.577122
54.960 10.236185
54.965 10.361547
54.970 10.361982
54.975 10.565998
54.980 10.987435
54.985 11.25546
54.990 11.016098
54.995 10.957084
55.000 10.489719
55.005 10.16899
55.010 10.036011
55.015 9.666898
55.020 9.592456
55.025 9.625541
55.030 9.379284
55.035 9.710589
55.040 9.927781
55.045 9.735065
55.050 9.852523
55.055 10.061011
55.060 10.24509
55.065 10.385792
55.070 10.355887
55.075 9.835587
55.080 10.017962
55.085 10.09943
55.090 10.493426
55.095 10.45188
55.100 10.599938
55.105 10.972551
55.110 11.98112
55.115 12.310275
55.120 12.353183
55.125 11.716982
55.130 11.224286
55.135 11.006239
55.140 10.581967
55.145 10.273218
55.150 9.961592
55.155 9.541658
55.160 9.780975
55.165 10.321232
55.170 10.583883
55.175 10.949088
55.180 10.843234
55.185 10.781551
55.190 11.083264
55.195 11.187261
55.200 11.290555
55.205 11.176227
55.210 10.916838
55.215 10.930618
55.220 11.085448
55.225 11.266654
55.230 11.567354
55.235 11.647964
55.240 11.695141
55.245 11.66138
55.250 12.100239
55.255 11.825114
55.260 11.121579
55.265 11.108832
55.270 10.615138
55.275 10.594046
55.280 10.809501
55.285 10.494982
55.290 10.451738
55.295 10.430892
55.300 10.596334
55.305 10.594662
55.310 10.381099
55.315 10.289239
55.320 10.002703
55.325 10.152943
55.330 10.384349
55.335 10.434742
55.340 10.810669
55.345 10.748466
55.350 10.543509
55.355 10.691711
55.360 11.405028
55.365 11.413088
55.370 11.26226
55.375 10.986011
55.380 11.076885
55.385 11.032471
55.390 11.269287
55.395 10.949275
55.400 10.312318
55.405 9.9729
55.410 10.433143
55.415 10.626028
55.420 10.707339
55.425 10.184815
55.430 10.140167
55.435 10.701445
55.440 11.228344
55.445 10.603764
55.450 10.636747
55.455 11.205405
55.460 11.423978
55.465 11.224095
55.470 11.085851
55.475 11.017586
55.480 11.370526
55.485 11.406328
55.490 11.032986
55.495 11.234158
55.500 11.974709
55.505 12.320977
55.510 12.301135
55.515 11.98046
55.520 11.965079
55.525 12.11327
55.530 11.201388
55.535 10.655595
55.540 10.336498
55.545 10.002167
55.550 9.95739
55.555 9.555736
55.560 9.464769
55.565 10.250937
55.570 10.53105
55.575 10.559697
55.580 10.84326
55.585 10.882958
55.590 11.156426
55.595 11.537509
55.600 11.267244
55.605 11.194825
55.610 11.38648
55.615 11.399485
55.620 11.587341
55.625 11.06712
55.630 10.709444
55.635 10.994893
55.640 10.672153
55.645 10.510061
55.650 10.262695
55.655 10.145518
55.660 10.195736
55.665 10.010618
55.670 9.528426
55.675 9.428439
55.680 9.460471
55.685 9.700554
55.690 10.167534
55.695 10.161788
55.700 10.0474
55.705 10.446487
55.710 10.862435
55.715 11.021131
55.720 10.70065
55.725 10.469576
55.730 10.550687
55.735 10.559477
55.740 10.073045
55.745 10.017898
55.750 10.066276
55.755 10.417745
55.760 10.314736
55.765 10.514627
55.770 10.929991
55.775 11.184269
55.780 10.865456
55.785 10.924907
55.790 11.058333
55.795 11.385099
55.800 11.682959
55.805 11.586617
55.810 11.881591
55.815 11.646305
55.820 11.17884
55.825 11.035202
55.830 11.061053
55.835 11.173859
55.840 11.064427
55.845 10.873237
55.850 11.374222
55.855 11.357525
55.860 11.443178
55.865 11.335252
55.870 11.204767
55.875 11.300047
55.880 11.447264
55.885 11.833601
55.890 11.991534
55.895 11.696759
55.900 11.058348
55.905 10.786036
55.910 10.981882
55.915 10.714006
55.920 10.375668
55.925 10.779864
55.930 10.958208
55.935 11.465386
55.940 11.386702
55.945 11.328259
55.950 11.836595
55.955 11.91986
55.960 11.447582
55.965 11.390864
55.970 11.485624
55.975 12.039073
55.980 12.590752
55.985 12.270793
55.990 11.916385
55.995 12.099431
56.000 12.479678
56.005 11.742873
56.010 10.977922
56.015 10.337943
56.020 10.802178
56.025 11.367846
56.030 11.161186
56.035 10.811402
56.040 11.105554
56.045 11.432371
56.050 11.389391
56.055 10.834031
56.060 10.797818
56.065 10.894457
56.070 11.031036
56.075 10.998176
56.080 10.933392
56.085 11.012774
56.090 11.31026
56.095 10.810673
56.100 10.501542
56.105 10.594039
56.110 10.654734
56.115 10.485608
56.120 10.483108
56.125 10.388127
56.130 10.771939
56.135 11.161097
56.140 11.479552
56.145 12.056927
56.150 12.182943
56.155 12.602585
56.160 12.640909
56.165 13.298587
56.170 13.433318
56.175 12.9883
56.180 12.749845
56.185 13.058174
56.190 13.033953
56.195 12.849821
56.200 11.819335
56.205 11.399673
56.210 11.182373
56.215 10.627368
56.220 10.593472
56.225 10.235693
56.230 10.521103
56.235 11.149804
56.240 11.303533
56.245 11.6112
56.250 11.342413
56.255 10.920864
56.260 11.005267
56.265 11.010493
56.270 10.8887
56.275 11.259862
56.280 11.135804
56.285 11.515656
56.290 11.69737
56.295 11.699885
56.300 11.580405
56.305 11.662524
56.310 12.117434
56.315 12.830599
56.320 13.182854
56.325 13.097059
56.330 13.555547
56.335 13.533717
56.340 13.329516
56.345 12.826608
56.350 12.169168
56.355 12.251887
56.360 11.964144
56.365 11.558717
56.370 11.44698
56.375 11.935713
56.380 12.063135
56.385 12.150126
56.390 12.275208
56.395 12.607811
56.400 12.968256
56.405 13.047648
56.410 12.372552
56.415 11.932567
56.420 11.70663
56.425 10.868775
56.430 10.68493
56.435 10.578776
56.440 10.439543
56.445 10.791908
56.450 11.131125
56.455 11.218843
56.460 11.676936
56.465 11.519814
56.470 11.506547
56.475 11.396977
56.480 11.007809
56.485 10.751944
56.490 11.338546
56.495 11.34063
56.500 11.171049
56.505 11.006328
56.510 11.328901
56.515 11.377728
56.520 11.661562
56.525 12.092031
56.530 12.671165
56.535 13.2019
56.540 13.498577
56.545 13.946369
56.550 14.567037
56.555 14.019892
56.560 12.900339
56.565 12.6797
56.570 12.295108
56.575 12.67735
56.580 12.136766
56.585 11.456822
56.590 11.498297
56.595 11.841923
56.600 12.021165
56.605 12.191863
56.610 11.645584
56.615 11.779258
56.620 12.360013
56.625 12.488978
56.630 12.196687
56.635 12.255713
56.640 12.521523
56.645 12.761613
56.650 12.74034
56.655 12.626482
56.660 13.081178
56.665 13.030421
56.670 12.669868
56.675 12.292669
56.680 11.972266
56.685 12.13218
56.690 12.285511
56.695 12.418317
56.700 12.780365
56.705 13.033421
56.710 13.279623
56.715 13.282644
56.720 13.445945
56.725 13.502459
56.730 13.699393
56.735 13.625813
56.740 13.3624
56.745 13.326771
56.750 13.154414
56.755 13.035257
56.760 13.1839
56.765 12.43873
56.770 12.645457
56.775 12.932212
56.780 13.337284
56.785 13.630359
56.790 13.344384
56.795 12.894688
56.800 13.248434
56.805 12.717794
56.810 12.536654
56.815 12.473789
56.820 12.740777
56.825 13.098822
56.830 12.954096
56.835 12.717817
56.840 13.097027
56.845 13.045993
56.850 12.988628
56.855 12.428274
56.860 11.952482
56.865 12.27329
56.870 12.208764
56.875 12.1939
56.880 12.315422
56.885 12.004633
56.890 11.842812
56.895 12.240846
56.900 12.338493
56.905 12.188937
56.910 11.973119
56.915 12.378142
56.920 12.83592
56.925 13.191114
56.930 12.989194
56.935 12.780162
56.940 13.225702
56.945 12.993061
56.950 12.620536
56.955 12.626126
56.960 12.562119
56.965 12.479642
56.970 12.380062
56.975 12.80893
56.980 12.900447
56.985 12.663598
56.990 12.621979
56.995 12.774832
57.000 13.053819
57.005 13.652164
57.010 13.449401
57.015 13.447277
57.020 13.973943
57.025 14.200316
57.030 14.389575
57.035 14.007805
57.040 13.539431
57.045 13.554146
57.050 13.634795
57.055 13.392247
57.060 12.99007
57.065 12.911537
57.070 12.977517
57.075 12.961418
57.080 12.549327
57.085 12.050702
57.090 12.057686
57.095 12.019301
57.100 11.729712
57.105 11.419392
57.110 11.038352
57.115 11.270546
57.120 11.231318
57.125 11.114654
57.130 10.760296
57.135 10.75165
57.140 11.245633
57.145 11.849228
57.150 12.116307
57.155 12.062298
57.160 11.838746
57.165 12.329341
57.170 12.375751
57.175 12.607943
57.180 12.382861
57.185 12.351506
57.190 12.655646
57.195 13.478658
57.200 13.768297
57.205 14.166127
57.210 14.408718
57.215 14.8397
57.220 15.087536
57.225 15.288319
57.230 15.066472
57.235 15.080541
57.240 14.888672
57.245 14.595674
57.250 14.366493
57.255 13.861549
57.260 13.268496
57.265 12.547604
57.270 12.379772
57.275 12.071595
57.280 11.974984
57.285 12.464845
57.290 12.973516
57.295 13.522743
57.300 13.939306
57.305 13.915642
57.310 14.063908
57.315 13.926126
57.320 13.412274
57.325 13.34551
57.330 13.592773
57.335 13.286517
57.340 13.513534
57.345 13.844579
57.350 13.857237
57.355 14.071867
57.360 13.674223
57.365 13.314733
57.370 13.86774
57.375 13.987823
57.380 13.830835
57.385 13.961208
57.390 14.093593
57.395 14.364624
57.400 14.371583
57.405 14.085654
57.410 14.101418
57.415 14.000964
57.420 13.756703
57.425 13.874642
57.430 13.391711
57.435 13.450381
57.440 13.484246
57.445 13.30198
57.450 13.305872
57.455 13.210696
57.460 12.594138
57.465 13.298663
57.470 13.57611
57.475 13.419909
57.480 13.065167
57.485 13.453321
57.490 13.940543
57.495 14.446451
57.500 14.13726
57.505 13.798063
57.510 13.491996
57.515 13.688808
57.520 12.957092
57.525 12.771469
57.530 12.476322
57.535 12.174006
57.540 11.994145
57.545 12.529869
57.550 12.531641
57.555 12.54403
57.560 11.919368
57.565 11.892369
57.570 11.750837
57.575 11.516762
57.580 10.858507
57.585 11.049023
57.590 11.87924
57.595 12.652698
57.600 13.138998
57.605 13.587319
57.610 14.216993
57.615 14.853372
57.620 15.218341
57.625 14.954632
57.630 14.874284
57.635 14.581619
57.640 14.373384
57.645 14.068463
57.650 13.445423
57.655 13.167095
57.660 12.779288
57.665 12.712113
57.670 12.896867
57.675 13.021169
57.680 13.101823
57.685 13.087919
57.690 13.113428
57.695 13.358388
57.700 12.806983
57.705 12.405531
57.710 12.591158
57.715 12.732448
57.720 13.098596
57.725 13.166267
57.730 13.281501
57.735 13.654254
57.740 13.87165
57.745 13.710073
57.750 13.757598
57.755 13.588125
57.760 13.689465
57.765 14.111406
57.770 14.15765
57.775 14.304851
57.780 14.062896
57.785 13.907449
57.790 13.972749
57.795 13.598332
57.800 13.075157
57.805 13.427975
57.810 13.311293
57.815 13.66155
57.820 13.906872
57.825 13.90952
57.830 13.925111
57.835 14.392852
57.840 14.841683
57.845 15.072604
57.850 14.90758
57.855 14.659945
57.860 14.661816
57.865 14.360555
57.870 13.359325
57.875 12.837384
57.880 12.511369
57.885 12.691606
57.890 12.584786
57.895 12.694561
57.900 12.961689
57.905 13.504513
57.910 13.210092
57.915 13.784972
57.920 13.61942
57.925 13.597292
57.930 13.708113
57.935 14.273341
57.940 14.431021
57.945 14.392757
57.950 14.242173
57.955 14.009932
57.960 13.852557
57.965 13.526059
57.970 13.10283
57.975 12.946163
57.980 13.016461
57.985 13.078516
57.990 13.042711
57.995 12.613705
58.000 12.754474
58.005 12.900503
58.010 12.861336
58.015 12.747088
58.020 12.600673
58.025 13.025289
58.030 13.656673
58.035 13.788076
58.040 14.058332
58.045 13.968515
58.050 14.052597
58.055 14.527471
58.060 14.68284
58.065 14.566169
58.070 14.154685
58.075 14.002564
58.080 14.552071
58.085 14.500947
58.090 14.124796
58.095 13.966209
58.100 13.830835
58.105 14.251373
58.110 14.090372
58.115 13.659929
58.120 13.752784
58.125 13.331452
58.130 13.654671
58.135 13.637648
58.140 13.592593
58.145 13.687651
58.150 14.04422
58.155 14.384079
58.160 14.76513
58.165 14.445794
58.170 14.678773
58.175 14.92653
58.180 14.864879
58.185 14.772211
58.190 14.548152
58.195 14.83214
58.200 14.663257
58.205 14.602356
58.210 14.479548
58.215 14.382281
58.220 14.20924
58.225 13.796978
58.230 13.841208
58.235 14.252346
58.240 14.058261
58.245 13.665175
58.250 13.890749
58.255 14.110135
58.260 14.119364
58.265 14.149553
58.270 13.83041
58.275 14.184625
58.280 14.615872
58.285 14.767995
58.290 14.895855
58.295 14.841804
58.300 14.648304
58.305 14.956047
58.310 14.799949
58.315 14.388634
58.320 14.096663
58.325 13.696501
58.330 13.617748
58.335 13.658566
58.340 13.607906
58.345 13.642432
58.350 13.364031
58.355 13.354174
58.360 13.466305
58.365 13.482326
58.370 13.269319
58.375 13.192593
58.380 13.362306
58.385 13.062275
58.390 12.915658
58.395 12.874712
58.400 13.110643
58.405 13.095055
58.410 12.695107
58.415 12.427602
58.420 13.158583
58.425 13.246813
58.430 13.342459
58.435 13.409381
58.440 13.518082
58.445 13.832514
58.450 14.284404
58.455 14.529544
58.460 15.112325
58.465 15.470327
58.470 15.921712
58.475 16.462919
58.480 16.472029
58.485 16.21567
58.490 15.983808
58.495 15.434029
58.500 14.861118
58.505 14.645033
58.510 14.268054
58.515 14.063694
58.520 14.028287
58.525 13.942806
58.530 14.080557
58.535 13.931808
