!@!!GADDS PLOTSO FILE: Chi integration type
!@!!Title/SampleName: map-e4
!@!!Comment: ?
!@!!User: Bruker Instrument Administrator
!@!!Site: University of Illinois Chicago
!@!!Frame: map-e4_01_000.gfrm
!@!!Wavelengths    1.54184   1.54056   1.54439
!@!!Frame angles: 2Theta: 63.000 Omega: 50.000 Phi: 0.000 Chi: 90.000
!@!!Integration range: 2Theta: 53.000 to 73.000  Gamma: -105.000 to -75.000
!@!!Integration method: bin normalized
!@!N
!@!SS
!@!M
!@!L 0.0 0.0 0.0 0.0
!@!XDegrees
!@!YCounts
53.000 7.977559
53.005 8.312633
53.010 8.459736
53.015 8.48
53.020 8.128103
53.025 7.668524
53.030 7.538148
53.035 7.580217
53.040 7.528764
53.045 7.309071
53.050 7.235909
53.055 7.573081
53.060 7.673498
53.065 7.66879
53.070 7.364292
53.075 7.243163
53.080 7.07323
53.085 6.683325
53.090 6.277442
53.095 6.231093
53.100 6.899138
53.105 7.262484
53.110 7.308187
53.115 7.541982
53.120 8.021497
53.125 8.515221
53.130 8.290452
53.135 7.551785
53.140 7.421418
53.145 7.408549
53.150 7.305896
53.155 7.274813
53.160 7.680121
53.165 7.878647
53.170 7.95366
53.175 8.138739
53.180 8.267587
53.185 7.910115
53.190 7.255977
53.195 6.860163
53.200 7.071432
53.205 7.275405
53.210 7.160066
53.215 7.545083
53.220 8.060648
53.225 8.714033
53.230 8.833497
53.235 8.686905
53.240 8.832364
53.245 8.797767
53.250 8.719145
53.255 8.575197
53.260 8.324881
53.265 8.191123
53.270 8.081887
53.275 7.832937
53.280 7.872749
53.285 7.763157
53.290 8.052864
53.295 8.40143
53.300 8.483794
53.305 8.425189
53.310 8.220788
53.315 8.445677
53.320 8.875509
53.325 8.634883
53.330 8.803024
53.335 9.089466
53.340 9.561108
53.345 9.695776
53.350 9.393597
53.355 8.955177
53.360 8.884881
53.365 8.712276
53.370 8.396041
53.375 8.096319
53.380 8.145597
53.385 7.924504
53.390 8.121714
53.395 8.525183
53.400 8.447342
53.405 8.440555
53.410 8.765074
53.415 9.285067
53.420 9.820339
53.425 9.400681
53.430 8.927555
53.435 8.914902
53.440 9.169192
53.445 9.113596
53.450 9.037462
53.455 9.474511
53.460 9.620239
53.465 9.646465
53.470 9.22737
53.475 9.066491
53.480 8.833097
53.485 7.902042
53.490 7.452296
53.495 7.32305
53.500 7.705905
53.505 8.159501
53.510 8.180114
53.515 8.28921
53.520 8.710948
53.525 8.995036
53.530 9.300938
53.535 9.111561
53.540 8.931855
53.545 8.767859
53.550 8.818157
53.555 8.877023
53.560 8.554426
53.565 8.449543
53.570 8.413336
53.575 8.72208
53.580 9.267473
53.585 9.456433
53.590 9.774905
53.595 9.970863
53.600 9.750961
53.605 9.738244
53.610 9.38793
53.615 9.494765
53.620 9.527728
53.625 9.458433
53.630 9.805169
53.635 9.913108
53.640 10.107777
53.645 10.131574
53.650 9.834724
53.655 9.651484
53.660 9.073053
53.665 8.866364
53.670 9.020686
53.675 8.952179
53.680 8.289204
53.685 7.842995
53.690 8.644773
53.695 9.14924
53.700 9.21688
53.705 9.267839
53.710 9.74952
53.715 10.354604
53.720 10.176347
53.725 9.853945
53.730 9.276992
53.735 8.717618
53.740 8.66696
53.745 8.412955
53.750 8.302195
53.755 8.400294
53.760 8.270427
53.765 8.812531
53.770 9.614895
53.775 9.71977
53.780 9.783254
53.785 9.936684
53.790 9.781617
53.795 9.657504
53.800 9.252721
53.805 8.627362
53.810 8.700814
53.815 9.009598
53.820 9.180036
53.825 9.257242
53.830 9.633387
53.835 9.582487
53.840 9.631595
53.845 9.454534
53.850 9.245589
53.855 8.919471
53.860 8.52548
53.865 8.465546
53.870 8.871411
53.875 8.750041
53.880 8.798811
53.885 8.958694
53.890 9.427521
53.895 10.188485
53.900 10.644154
53.905 10.502938
53.910 10.39572
53.915 10.242406
53.920 10.190516
53.925 9.594259
53.930 8.98075
53.935 8.690728
53.940 8.811562
53.945 8.951272
53.950 8.730084
53.955 8.852988
53.960 9.593356
53.965 9.929408
53.970 9.393583
53.975 9.365808
53.980 9.688305
53.985 9.856713
53.990 9.874448
53.995 9.23262
54.000 9.045981
54.005 9.692911
54.010 9.886686
54.015 9.623885
54.020 9.650944
54.025 9.643528
54.030 9.783443
54.035 10.07268
54.040 9.926062
54.045 9.554344
54.050 9.47683
54.055 9.366902
54.060 9.36752
54.065 9.591651
54.070 9.483535
54.075 9.556767
54.080 9.945078
54.085 9.900391
54.090 10.116686
54.095 9.993281
54.100 9.528039
54.105 9.438481
54.110 9.342425
54.115 9.131429
54.120 9.071734
54.125 8.891233
54.130 8.990684
54.135 9.241573
54.140 8.9702
54.145 9.124957
54.150 9.10415
54.155 9.222817
54.160 9.254079
54.165 9.299931
54.170 9.255161
54.175 9.262932
54.180 9.307431
54.185 9.607755
54.190 9.713539
54.195 9.920914
54.200 9.588386
54.205 9.837476
54.210 9.849314
54.215 9.863504
54.220 9.607783
54.225 9.681127
54.230 9.384939
54.235 9.924414
54.240 10.205598
54.245 9.997544
54.250 10.124229
54.255 10.027907
54.260 9.682353
54.265 10.055236
54.270 9.671244
54.275 9.352395
54.280 9.442571
54.285 9.447846
54.290 10.08847
54.295 10.299974
54.300 10.086653
54.305 10.252649
54.310 10.195651
54.315 9.863774
54.320 9.537177
54.325 9.617961
54.330 9.800233
54.335 10.06863
54.340 10.395638
54.345 10.958747
54.350 11.262013
54.355 11.314925
54.360 10.997505
54.365 10.439484
54.370 10.125678
54.375 10.116756
54.380 10.082685
54.385 10.229732
54.390 9.85984
54.395 9.885906
54.400 9.809903
54.405 9.636031
54.410 9.136163
54.415 8.921585
54.420 9.231667
54.425 9.864073
54.430 10.168327
54.435 10.29666
54.440 10.575294
54.445 10.932941
54.450 11.226068
54.455 10.890073
54.460 10.836761
54.465 10.805702
54.470 10.879435
54.475 10.748244
54.480 10.768606
54.485 10.187613
54.490 10.122147
54.495 9.523963
54.500 9.273978
54.505 9.281849
54.510 9.11981
54.515 9.205466
54.520 9.246418
54.525 9.5626
54.530 9.991715
54.535 9.912498
54.540 9.771243
54.545 10.254307
54.550 9.795325
54.555 10.217859
54.560 10.087591
54.565 10.156549
54.570 10.509863
54.575 10.500191
54.580 9.994016
54.585 10.181746
54.590 9.727979
54.595 9.506589
54.600 9.761761
54.605 9.740982
54.610 9.169248
54.615 9.272454
54.620 9.653879
54.625 9.979025
54.630 10.629134
54.635 10.884536
54.640 11.68183
54.645 12.167998
54.650 12.106503
54.655 11.694107
54.660 11.391557
54.665 11.173741
54.670 10.580871
54.675 9.887697
54.680 9.90996
54.685 10.145226
54.690 10.612478
54.695 10.844695
54.700 10.82442
54.705 11.14403
54.710 10.982964
54.715 10.915462
54.720 10.77533
54.725 10.005442
54.730 9.314785
54.735 8.912128
54.740 8.750461
54.745 8.954448
54.750 8.724347
54.755 8.913783
54.760 9.353481
54.765 9.608511
54.770 9.61713
54.775 9.678627
54.780 9.945261
54.785 10.646729
54.790 10.641844
54.795 10.587476
54.800 10.760517
54.805 10.782473
54.810 10.633808
54.815 10.222753
54.820 10.015233
54.825 10.186821
54.830 9.882529
54.835 10.335479
54.840 10.302578
54.845 10.374884
54.850 10.681983
54.855 9.985572
54.860 9.737815
54.865 9.649111
54.870 9.184362
54.875 9.560395
54.880 10.378955
54.885 11.172332
54.890 12.036738
54.895 12.468546
54.900 12.725705
54.905 12.879375
54.910 12.783894
54.915 12.38879
54.920 11.715755
54.925 11.251644
54.930 11.052786
54.935 11.099299
54.940 11.15211
54.945 10.860262
54.950 10.737455
54.955 10.704501
54.960 10.411293
54.965 10.298387
54.970 10.555777
54.975 10.678799
54.980 10.811396
54.985 10.598351
54.990 10.654815
54.995 11.071849
55.000 11.099658
55.005 10.933018
55.010 10.754898
55.015 10.049835
55.020 10.106604
55.025 10.312968
55.030 10.24174
55.035 10.768411
55.040 10.893016
55.045 11.234127
55.050 11.491338
55.055 11.818768
55.060 11.838446
55.065 11.655592
55.070 11.46803
55.075 11.494888
55.080 11.317723
55.085 11.273469
55.090 10.847739
55.095 11.168277
55.100 11.387601
55.105 10.930098
55.110 10.701255
55.115 10.990453
55.120 11.526646
55.125 11.63425
55.130 11.113499
55.135 11.07435
55.140 11.473001
55.145 11.849248
55.150 11.568275
55.155 11.080533
55.160 11.169162
55.165 11.227896
55.170 10.868828
55.175 10.547911
55.180 10.36914
55.185 10.2373
55.190 10.139156
55.195 10.298081
55.200 10.293447
55.205 10.320243
55.210 10.468148
55.215 10.549507
55.220 10.372456
55.225 10.421415
55.230 10.125951
55.235 10.355812
55.240 10.142776
55.245 10.131438
55.250 10.360599
55.255 11.048949
55.260 10.549299
55.265 10.593364
55.270 10.87635
55.275 11.01466
55.280 11.295625
55.285 11.145795
55.290 11.320276
55.295 12.156381
55.300 11.596645
55.305 10.916117
55.310 10.934138
55.315 10.713789
55.320 10.433644
55.325 9.995034
55.330 9.543372
55.335 10.163059
55.340 10.248869
55.345 9.954575
55.350 9.836387
55.355 10.217204
55.360 10.738012
55.365 11.471818
55.370 11.992818
55.375 11.999036
55.380 11.98105
55.385 12.051988
55.390 12.10953
55.395 11.746734
55.400 11.088827
55.405 11.180322
55.410 11.370934
55.415 11.364947
55.420 11.076218
55.425 11.25216
55.430 11.218332
55.435 11.077333
55.440 10.507071
55.445 10.479531
55.450 10.462543
55.455 10.767689
55.460 11.045223
55.465 11.86423
55.470 12.174996
55.475 12.686347
55.480 13.127151
55.485 12.835832
55.490 12.659494
55.495 12.249778
55.500 11.627578
55.505 11.719852
55.510 11.465772
55.515 11.422151
55.520 11.786377
55.525 11.922343
55.530 11.486809
55.535 11.730271
55.540 11.418054
55.545 11.188326
55.550 11.319801
55.555 11.049594
55.560 10.626359
55.565 10.542901
55.570 10.517187
55.575 10.649682
55.580 10.822504
55.585 10.728845
55.590 11.149513
55.595 11.57921
55.600 11.516072
55.605 11.433203
55.610 11.525522
55.615 11.624275
55.620 11.976358
55.625 12.126632
55.630 11.897036
55.635 12.388591
55.640 12.491576
55.645 12.586493
55.650 12.400756
55.655 11.707001
55.660 11.497926
55.665 11.232714
55.670 11.117849
55.675 10.88856
55.680 10.613036
55.685 11.240965
55.690 11.867929
55.695 12.038719
55.700 12.442602
55.705 12.512116
55.710 12.783719
55.715 12.979601
55.720 12.909805
55.725 12.526563
55.730 12.760893
55.735 12.69846
55.740 12.219776
55.745 11.810381
55.750 11.911706
55.755 11.491418
55.760 11.532084
55.765 11.533013
55.770 11.394916
55.775 11.716332
55.780 11.963247
55.785 11.70741
55.790 11.599854
55.795 11.713808
55.800 11.74881
55.805 12.009122
55.810 12.042881
55.815 11.940269
55.820 11.730443
55.825 11.78819
55.830 11.898435
55.835 12.342053
55.840 12.221021
55.845 12.763119
55.850 12.981622
55.855 13.15877
55.860 13.143534
55.865 13.010024
55.870 12.934649
55.875 12.940664
55.880 12.696066
55.885 13.57771
55.890 14.222159
55.895 14.313319
55.900 13.702725
55.905 13.143691
55.910 13.040311
55.915 12.836312
55.920 11.833369
55.925 11.381145
55.930 11.163508
55.935 11.4341
55.940 11.795081
55.945 12.174067
55.950 12.361019
55.955 12.666481
55.960 12.391374
55.965 12.336514
55.970 12.267185
55.975 11.672037
55.980 10.757633
55.985 10.652058
55.990 10.527847
55.995 10.558463
56.000 10.503835
56.005 11.004152
56.010 11.789124
56.015 12.203698
56.020 11.760149
56.025 11.707081
56.030 12.356243
56.035 12.292393
56.040 11.9315
56.045 11.849566
56.050 11.743404
56.055 12.148996
56.060 12.235958
56.065 12.034301
56.070 11.895288
56.075 11.980918
56.080 11.85493
56.085 12.049278
56.090 11.944851
56.095 11.770261
56.100 11.828587
56.105 12.043607
56.110 11.970037
56.115 12.42763
56.120 12.544826
56.125 12.637892
56.130 12.917586
56.135 12.7236
56.140 12.783173
56.145 12.983607
56.150 13.248598
56.155 13.635947
56.160 13.246908
56.165 13.256006
56.170 13.582938
56.175 13.608878
56.180 13.426023
56.185 12.822295
56.190 12.316934
56.195 12.570387
56.200 12.467705
56.205 12.354253
56.210 12.566644
56.215 12.402781
56.220 12.233992
56.225 12.83233
56.230 13.291721
56.235 13.607625
56.240 13.172556
56.245 12.624324
56.250 12.628469
56.255 12.692967
56.260 12.727753
56.265 12.820665
56.270 13.021312
56.275 13.558379
56.280 13.9738
56.285 14.014611
56.290 14.576195
56.295 14.246202
56.300 13.586918
56.305 13.026875
56.310 12.079498
56.315 11.508712
56.320 11.077385
56.325 10.211649
56.330 10.034179
56.335 10.378581
56.340 10.798872
56.345 11.524611
56.350 12.342071
56.355 12.722942
56.360 13.357808
56.365 13.380021
56.370 13.117368
56.375 13.084173
56.380 12.977767
56.385 12.914145
56.390 13.015553
56.395 13.159368
56.400 13.524622
56.405 13.540303
56.410 13.093891
56.415 12.603366
56.420 12.412832
56.425 12.254195
56.430 11.998158
56.435 11.845301
56.440 11.57081
56.445 12.062199
56.450 11.839713
56.455 11.654791
56.460 11.61591
56.465 11.578901
56.470 11.454774
56.475 11.954655
56.480 12.162802
56.485 13.061608
56.490 13.096085
56.495 12.819007
56.500 13.213603
56.505 13.509562
56.510 13.36049
56.515 12.840582
56.520 12.689884
56.525 12.664466
56.530 12.67296
56.535 12.612796
56.540 12.836852
56.545 12.820061
56.550 13.359605
56.555 13.804143
56.560 14.255144
56.565 14.247302
56.570 14.183147
56.575 13.938023
56.580 13.595431
56.585 13.217707
56.590 12.771236
56.595 13.008602
56.600 12.956721
56.605 12.704766
56.610 12.805261
56.615 13.219064
56.620 12.95908
56.625 12.785049
56.630 12.550904
56.635 12.622062
56.640 12.831047
56.645 12.849581
56.650 12.668662
56.655 13.016337
56.660 13.44326
56.665 13.746524
56.670 13.533186
56.675 13.224141
56.680 13.721092
56.685 14.114524
56.690 14.219275
56.695 13.776368
56.700 13.498034
56.705 14.097946
56.710 14.14273
56.715 13.85609
56.720 14.007057
56.725 13.996347
56.730 13.975457
56.735 13.879745
56.740 13.80878
56.745 13.714841
56.750 13.837507
56.755 13.573095
56.760 13.184145
56.765 12.550689
56.770 12.170851
56.775 11.70865
56.780 11.575056
56.785 11.22939
56.790 11.293564
56.795 11.83231
56.800 12.584426
56.805 13.335294
56.810 13.748966
56.815 14.063831
56.820 13.984437
56.825 13.619203
56.830 13.27456
56.835 13.162381
56.840 13.468618
56.845 13.473272
56.850 13.29559
56.855 13.61433
56.860 13.969125
56.865 14.514544
56.870 14.474013
56.875 14.167309
56.880 14.111086
56.885 14.185598
56.890 13.848905
56.895 13.788795
56.900 13.555771
56.905 13.228586
56.910 12.673005
56.915 12.627419
56.920 12.702202
56.925 12.941423
56.930 12.693675
56.935 12.603781
56.940 13.144269
56.945 13.447476
56.950 13.094775
56.955 13.14938
56.960 13.271889
56.965 13.268694
56.970 13.739471
56.975 13.407747
56.980 13.299086
56.985 13.575951
56.990 13.389883
56.995 13.287069
57.000 13.228995
57.005 12.087888
57.010 12.310953
57.015 12.192191
57.020 12.351474
57.025 12.279499
57.030 12.44393
57.035 12.85963
57.040 13.672254
57.045 13.696293
57.050 14.176027
57.055 14.109596
57.060 13.637669
57.065 13.375407
57.070 13.31106
57.075 12.761375
57.080 12.393859
57.085 12.03911
57.090 12.13256
57.095 12.846271
57.100 12.771648
57.105 12.852003
57.110 13.085203
57.115 12.960014
57.120 12.548511
57.125 12.430642
57.130 12.151609
57.135 12.338211
57.140 12.394711
57.145 12.922396
57.150 13.165778
57.155 13.70003
57.160 14.039063
57.165 14.028312
57.170 13.953357
57.175 13.972074
57.180 14.291922
57.185 14.890456
57.190 14.646287
57.195 14.305959
57.200 14.922443
57.205 15.285707
57.210 15.860459
57.215 15.276103
57.220 14.921559
57.225 15.308898
57.230 15.325542
57.235 14.977252
57.240 14.778411
57.245 14.743157
57.250 15.497454
57.255 16.102592
57.260 15.823721
57.265 16.13674
57.270 15.847508
57.275 15.082104
57.280 14.452257
57.285 14.169847
57.290 13.808203
57.295 14.045984
57.300 14.263498
57.305 14.611403
57.310 14.977958
57.315 14.75245
57.320 14.688275
57.325 14.53615
57.330 14.599536
57.335 14.587487
57.340 15.041265
57.345 15.40828
57.350 15.075079
57.355 14.90991
57.360 14.745258
57.365 14.05438
57.370 13.751745
57.375 13.5786
57.380 13.933025
57.385 14.076922
57.390 13.920416
57.395 14.623941
57.400 15.285408
57.405 15.019786
57.410 14.156904
57.415 13.45107
57.420 13.395772
57.425 13.390022
57.430 12.557917
57.435 12.385462
57.440 12.734224
57.445 13.324182
57.450 13.983287
57.455 14.099058
57.460 14.367259
57.465 15.032282
57.470 14.716078
57.475 14.531241
57.480 14.446498
57.485 14.652604
57.490 14.772193
57.495 14.697001
57.500 14.76427
57.505 15.110749
57.510 15.200995
57.515 15.028565
57.520 14.617237
57.525 14.476166
57.530 13.853887
57.535 14.154282
57.540 13.889649
57.545 14.007929
57.550 13.90357
57.555 13.8264
57.560 14.153832
57.565 14.499887
57.570 14.172009
57.575 14.071159
57.580 13.78182
57.585 14.2981
57.590 14.58015
57.595 14.431087
57.600 14.895781
57.605 15.647148
57.610 15.931345
57.615 16.471209
57.620 16.40011
57.625 16.575909
57.630 16.705837
57.635 16.059532
57.640 15.293143
57.645 15.364728
57.650 15.241836
57.655 15.650414
57.660 15.504717
57.665 15.750526
57.670 15.498365
57.675 15.434631
57.680 15.479104
57.685 15.25563
57.690 15.276602
57.695 15.10017
57.700 15.204041
57.705 15.516496
57.710 15.271165
57.715 14.789744
57.720 14.575801
57.725 14.217871
57.730 14.811394
57.735 14.690943
57.740 14.441007
57.745 14.83382
57.750 14.880059
57.755 14.79408
57.760 14.654997
57.765 13.926826
57.770 13.594754
57.775 13.937321
57.780 14.219228
57.785 15.004976
57.790 15.310377
57.795 15.582994
57.800 15.70136
57.805 16.099388
57.810 16.812119
57.815 16.754372
57.820 16.135778
57.825 15.766665
57.830 15.324699
57.835 15.11573
57.840 14.928404
57.845 15.053335
57.850 14.844983
57.855 14.83926
57.860 15.239167
57.865 15.723194
57.870 16.275354
57.875 16.688375
57.880 16.090687
57.885 16.037868
57.890 15.809765
57.895 15.164773
57.900 14.961791
57.905 14.627522
57.910 14.388676
57.915 14.700329
57.920 15.249892
57.925 15.785709
57.930 15.819981
57.935 16.063969
57.940 16.044086
57.945 15.806688
57.950 15.392775
57.955 14.967546
57.960 14.5596
57.965 14.720111
57.970 14.79212
57.975 14.44695
57.980 14.360698
57.985 14.545237
57.990 14.567825
57.995 14.701823
58.000 14.629498
58.005 15.059205
58.010 15.712533
58.015 15.494031
58.020 15.599579
58.025 16.005932
58.030 16.412073
58.035 16.503103
58.040 16.71434
58.045 17.077204
58.050 17.300112
58.055 17.178873
58.060 17.300585
58.065 17.552324
58.070 17.811628
58.075 17.743874
58.080 17.459114
58.085 17.921955
58.090 18.305002
58.095 18.142332
58.100 17.85301
58.105 17.661032
58.110 16.80307
58.115 16.682087
58.120 16.487202
58.125 16.46806
58.130 16.101788
58.135 16.281061
58.140 16.61924
58.145 17.491995
58.150 17.351213
58.155 17.402849
58.160 17.121536
58.165 17.574831
58.170 17.338261
58.175 17.047613
58.180 16.848253
58.185 17.177309
58.190 17.106686
58.195 17.643986
58.200 17.799511
58.205 18.30784
58.210 18.849806
58.215 19.40621
58.220 19.576033
58.225 19.58391
58.230 19.291126
58.235 19.447681
58.240 19.26491
58.245 19.114252
58.250 19.196857
58.255 19.820055
58.260 20.403572
58.265 20.777147
58.270 20.532789
58.275 20.652107
58.280 20.567492
58.285 20.493362
58.290 20.161627
58.295 20.245422
58.300 20.32778
58.305 20.624626
58.310 20.659851
58.315 20.229628
58.320 20.441647
58.325 20.769459
58.330 20.711094
58.335 21.135057
58.340 21.494501
58.345 22.312124
58.350 22.948904
58.355 22.903986
58.360 22.630945
58.365 22.298168
58.370 22.422001
58.375 22.499651
58.380 22.353514
58.385 22.878084
58.390 23.654934
58.395 24.78146
58.400 25.608622
58.405 25.684652
58.410 25.584705
58.415 26.067713
58.420 26.140293
58.425 25.668133
58.430 25.699734
58.435 25.825428
58.440 25.754496
58.445 25.842545
58.450 26.14513
58.455 26.319061
58.460 26.967281
58.465 26.129431
58.470 25.742401
58.475 26.010546
58.480 25.819489
58.485 26.113012
58.490 25.943895
58.495 25.921791
58.500 26.386225
58.505 26.626364
58.510 26.497768
58.515 26.782663
58.520 26.512127
58.525 27.078747
58.530 27.33379
