!@!!GADDS PLOTSO FILE: Chi integration type
!@!!Title/SampleName: map-f3
!@!!Comment: ?
!@!!User: Bruker Instrument Administrator
!@!!Site: University of Illinois Chicago
!@!!Frame: map-f3_01_000.gfrm
!@!!Wavelengths    1.54184   1.54056   1.54439
!@!!Frame angles: 2Theta: 63.000 Omega: 50.000 Phi: 0.000 Chi: 90.000
!@!!Integration range: 2Theta: 53.000 to 73.000  Gamma: -105.000 to -75.000
!@!!Integration method: bin normalized
!@!N
!@!SS
!@!M
!@!L 0.0 0.0 0.0 0.0
!@!XDegrees
!@!YCounts
53.000 2.385237
53.005 2.641511
53.010 3.061917
53.015 3.204736
53.020 3.167194
53.025 3.671474
53.030 3.856566
53.035 3.876149
53.040 3.770744
53.045 3.668066
53.050 4.088749
53.055 4.126107
53.060 4.179651
53.065 4.264796
53.070 4.206429
53.075 4.503238
53.080 4.744426
53.085 4.751457
53.090 5.019038
53.095 4.978531
53.100 4.821502
53.105 4.805554
53.110 4.58306
53.115 4.336713
53.120 3.834693
53.125 3.690766
53.130 3.82716
53.135 3.819725
53.140 3.738259
53.145 3.515081
53.150 3.560412
53.155 3.773657
53.160 3.838563
53.165 4.050516
53.170 4.222866
53.175 4.289237
53.180 4.603859
53.185 4.565681
53.190 4.27335
53.195 4.109356
53.200 3.995543
53.205 4.127458
53.210 4.268731
53.215 3.941388
53.220 3.892498
53.225 3.69332
53.230 3.568944
53.235 3.720711
53.240 3.446664
53.245 3.194202
53.250 3.347568
53.255 3.520401
53.260 3.817883
53.265 3.606801
53.270 3.455695
53.275 3.615052
53.280 4.111581
53.285 4.189268
53.290 4.060823
53.295 3.965238
53.300 4.016909
53.305 3.795011
53.310 3.681774
53.315 3.5198
53.320 3.744312
53.325 4.156829
53.330 4.463307
53.335 4.483705
53.340 4.570462
53.345 4.464477
53.350 4.390726
53.355 4.137414
53.360 3.664528
53.365 3.300093
53.370 3.375434
53.375 3.74497
53.380 3.696698
53.385 3.378489
53.390 3.438023
53.395 3.749423
53.400 4.02772
53.405 3.768486
53.410 3.506026
53.415 3.472831
53.420 3.56496
53.425 3.751827
53.430 3.70666
53.435 4.069566
53.440 4.129044
53.445 4.11581
53.450 4.090106
53.455 4.163056
53.460 3.937528
53.465 3.593594
53.470 3.379533
53.475 3.529008
53.480 3.657848
53.485 3.942403
53.490 4.054834
53.495 4.094777
53.500 4.140378
53.505 4.011853
53.510 4.147808
53.515 3.938118
53.520 3.77081
53.525 3.845257
53.530 4.001485
53.535 4.116591
53.540 4.198801
53.545 4.170725
53.550 4.231619
53.555 4.041004
53.560 3.985363
53.565 3.892189
53.570 3.963871
53.575 3.942739
53.580 3.961331
53.585 3.982425
53.590 3.717063
53.595 3.573856
53.600 3.376885
53.605 3.482454
53.610 3.505452
53.615 3.653541
53.620 3.916877
53.625 4.267848
53.630 4.265085
53.635 4.248953
53.640 3.946955
53.645 3.86137
53.650 3.543523
53.655 3.366593
53.660 3.138033
53.665 3.150552
53.670 3.208458
53.675 3.220853
53.680 3.265398
53.685 3.423715
53.690 3.545505
53.695 3.837786
53.700 4.081379
53.705 4.071101
53.710 4.07012
53.715 4.055589
53.720 3.960019
53.725 3.658985
53.730 3.233243
53.735 3.276505
53.740 3.508903
53.745 3.626
53.750 3.644381
53.755 3.718725
53.760 4.064146
53.765 4.27005
53.770 4.143668
53.775 3.945051
53.780 3.872814
53.785 3.798825
53.790 3.801874
53.795 3.768904
53.800 3.721444
53.805 3.559593
53.810 3.85988
53.815 4.238767
53.820 4.480898
53.825 4.634985
53.830 4.469714
53.835 4.436689
53.840 4.523406
53.845 4.244348
53.850 3.948336
53.855 3.75956
53.860 3.792512
53.865 3.945809
53.870 3.941391
53.875 3.835195
53.880 3.907115
53.885 3.958327
53.890 3.923797
53.895 3.773113
53.900 3.836178
53.905 4.053442
53.910 3.995468
53.915 4.029249
53.920 4.197295
53.925 4.289862
53.930 4.157038
53.935 4.051048
53.940 4.127554
53.945 4.293124
53.950 4.231895
53.955 4.334363
53.960 4.24993
53.965 4.496735
53.970 4.372056
53.975 4.221799
53.980 4.06891
53.985 4.003045
53.990 3.773076
53.995 3.632993
54.000 3.416047
54.005 3.270856
54.010 3.351307
54.015 3.46824
54.020 3.398137
54.025 3.267852
54.030 3.234306
54.035 3.270606
54.040 3.409204
54.045 3.617436
54.050 3.477684
54.055 3.549237
54.060 3.851558
54.065 4.061991
54.070 4.235484
54.075 4.808424
54.080 4.492377
54.085 4.765224
54.090 4.751423
54.095 4.873174
54.100 5.114931
54.105 4.770145
54.110 4.003476
54.115 3.824034
54.120 3.540674
54.125 3.615545
54.130 3.239635
54.135 3.013943
54.140 3.334719
54.145 3.817235
54.150 3.955351
54.155 4.179048
54.160 4.349418
54.165 4.45636
54.170 4.228633
54.175 3.91747
54.180 3.85206
54.185 3.826249
54.190 3.731213
54.195 3.713052
54.200 3.974954
54.205 4.226772
54.210 4.292017
54.215 4.400398
54.220 4.463623
54.225 4.67873
54.230 4.785877
54.235 4.733852
54.240 4.787867
54.245 4.964544
54.250 5.010275
54.255 4.63558
54.260 4.343648
54.265 4.314905
54.270 4.30228
54.275 4.256743
54.280 3.963388
54.285 4.186903
54.290 4.576263
54.295 4.458069
54.300 4.70454
54.305 4.820129
54.310 4.716046
54.315 4.909682
54.320 4.664073
54.325 4.430008
54.330 4.552781
54.335 4.190633
54.340 4.030043
54.345 4.198838
54.350 4.249716
54.355 4.485675
54.360 4.629899
54.365 4.733285
54.370 5.018034
54.375 5.27967
54.380 5.309653
54.385 5.228387
54.390 5.344358
54.395 5.546215
54.400 5.235384
54.405 5.228805
54.410 5.098582
54.415 4.833454
54.420 4.547878
54.425 4.059579
54.430 3.703945
54.435 3.504151
54.440 3.240124
54.445 3.083824
54.450 3.060756
54.455 3.048467
54.460 3.173581
54.465 3.252451
54.470 3.231097
54.475 3.242486
54.480 3.226361
54.485 3.143634
54.490 3.340021
54.495 3.390289
54.500 3.277354
54.505 3.404752
54.510 3.59009
54.515 3.871164
54.520 4.087173
54.525 4.072837
54.530 3.98878
54.535 4.175705
54.540 4.45604
54.545 4.002448
54.550 4.000571
54.555 3.839035
54.560 3.742374
54.565 3.56296
54.570 3.277374
54.575 3.008141
54.580 3.219131
54.585 3.158204
54.590 3.117736
54.595 3.470939
54.600 3.757141
54.605 3.848175
54.610 4.060823
54.615 4.060597
54.620 4.18993
54.625 4.100831
54.630 3.714239
54.635 3.498488
54.640 3.656321
54.645 3.393649
54.650 3.4304
54.655 3.401896
54.660 3.527848
54.665 3.737324
54.670 4.007538
54.675 3.954307
54.680 4.081603
54.685 4.212388
54.690 4.288357
54.695 4.189051
54.700 4.389968
54.705 4.479052
54.710 4.575414
54.715 4.805746
54.720 4.797529
54.725 4.854329
54.730 5.042347
54.735 4.866165
54.740 4.758306
54.745 4.671884
54.750 4.40728
54.755 4.280732
54.760 4.27112
54.765 4.103367
54.770 4.063986
54.775 4.167588
54.780 4.401959
54.785 4.280428
54.790 4.19567
54.795 4.088338
54.800 3.957759
54.805 3.996077
54.810 3.869992
54.815 3.856727
54.820 4.040965
54.825 4.153606
54.830 4.307158
54.835 4.220101
54.840 3.876826
54.845 3.85142
54.850 3.995127
54.855 3.982519
54.860 4.103142
54.865 4.039043
54.870 4.092892
54.875 4.410118
54.880 4.244761
54.885 4.273533
54.890 4.35701
54.895 4.116103
54.900 4.286359
54.905 4.347637
54.910 4.083455
54.915 4.056906
54.920 3.840956
54.925 3.911215
54.930 3.93602
54.935 4.210512
54.940 4.36393
54.945 4.563102
54.950 4.676167
54.955 4.712225
54.960 4.693489
54.965 4.610105
54.970 4.585595
54.975 4.718831
54.980 4.676858
54.985 4.570639
54.990 4.623018
54.995 4.673251
55.000 4.464384
55.005 4.090315
55.010 4.099934
55.015 4.322448
55.020 4.710363
55.025 4.595869
55.030 4.521955
55.035 4.610389
55.040 4.652763
55.045 4.464093
55.050 4.28563
55.055 4.016871
55.060 4.046872
55.065 4.11127
55.070 4.192282
55.075 4.095068
55.080 4.111
55.085 3.979952
55.090 3.862867
55.095 3.816608
55.100 3.720439
55.105 3.754546
55.110 3.691639
55.115 3.590688
55.120 3.53007
55.125 3.498211
55.130 3.47763
55.135 3.48305
55.140 3.531688
55.145 3.522303
55.150 3.661276
55.155 3.516494
55.160 3.26381
55.165 3.118053
55.170 3.449084
55.175 3.520954
55.180 3.660492
55.185 3.679154
55.190 4.024203
55.195 4.441936
55.200 4.512631
55.205 4.13616
55.210 4.179855
55.215 4.264087
55.220 4.106528
55.225 3.981056
55.230 3.949103
55.235 4.07488
55.240 4.146621
55.245 4.079519
55.250 4.190536
55.255 4.486487
55.260 4.504076
55.265 4.416331
55.270 4.44108
55.275 4.535941
55.280 4.719164
55.285 4.425014
55.290 4.496953
55.295 4.739533
55.300 4.827048
55.305 4.618324
55.310 4.315924
55.315 4.306548
55.320 4.459844
55.325 4.364372
55.330 3.979682
55.335 3.954729
55.340 4.189219
55.345 4.270496
55.350 4.466147
55.355 4.760248
55.360 4.999531
55.365 5.146833
55.370 4.973121
55.375 4.945709
55.380 4.850693
55.385 4.489505
55.390 4.014882
55.395 3.832509
55.400 3.677314
55.405 3.968898
55.410 4.150508
55.415 4.182744
55.420 4.262995
55.425 4.474112
55.430 4.629305
55.435 4.928254
55.440 4.600161
55.445 4.427307
55.450 4.468074
55.455 4.425415
55.460 4.360758
55.465 4.307178
55.470 4.270455
55.475 4.402109
55.480 4.369514
55.485 4.338048
55.490 4.342309
55.495 4.327636
55.500 4.516487
55.505 4.562681
55.510 4.838185
55.515 4.851563
55.520 4.994135
55.525 5.236454
55.530 5.016308
55.535 4.937829
55.540 4.828785
55.545 4.447802
55.550 4.635557
55.555 4.468474
55.560 4.457183
55.565 4.701554
55.570 4.658211
55.575 4.615627
55.580 4.987877
55.585 4.963123
55.590 5.052616
55.595 5.215547
55.600 5.015515
55.605 5.259189
55.610 5.329703
55.615 5.000474
55.620 4.713832
55.625 4.599847
55.630 4.127662
55.635 4.208763
55.640 3.936191
55.645 3.969687
55.650 4.026922
55.655 4.047133
55.660 4.022788
55.665 4.590281
55.670 4.593123
55.675 4.699296
55.680 4.708778
55.685 4.996215
55.690 5.027694
55.695 5.326588
55.700 5.166327
55.705 5.369401
55.710 5.304638
55.715 5.214951
55.720 5.15073
55.725 5.209176
55.730 4.82435
55.735 4.658597
55.740 4.265024
55.745 4.261307
55.750 4.101155
55.755 4.218907
55.760 4.46219
55.765 4.552544
55.770 4.716114
55.775 4.935578
55.780 4.861117
55.785 4.933177
55.790 4.800909
55.795 4.841969
55.800 4.800297
55.805 4.492408
55.810 4.435885
55.815 4.473193
55.820 4.802706
55.825 4.60543
55.830 4.450808
55.835 5.077463
55.840 5.412856
55.845 5.430471
55.850 5.369025
55.855 5.282791
55.860 5.238591
55.865 5.051037
55.870 4.654325
55.875 4.696781
55.880 4.796414
55.885 4.795833
55.890 4.698545
55.895 4.829656
55.900 4.856688
55.905 4.56605
55.910 4.495306
55.915 4.899254
55.920 4.853807
55.925 4.979813
55.930 5.317165
55.935 5.414647
55.940 5.371026
55.945 5.180681
55.950 4.625143
55.955 4.572388
55.960 4.486978
55.965 4.166863
55.970 4.057668
55.975 4.228551
55.980 4.513626
55.985 4.657715
55.990 4.487873
55.995 4.513176
56.000 4.57112
56.005 4.809885
56.010 4.680991
56.015 4.70533
56.020 4.7991
56.025 4.703546
56.030 4.273469
56.035 4.187103
56.040 4.006628
56.045 4.023791
56.050 3.647041
56.055 3.449633
56.060 3.72204
56.065 4.193686
56.070 4.223501
56.075 4.402082
56.080 4.376176
56.085 4.718858
56.090 4.850145
56.095 4.720347
56.100 4.776751
56.105 4.919372
56.110 4.973808
56.115 5.167589
56.120 5.283887
56.125 5.411063
56.130 5.38623
56.135 5.110455
56.140 4.786032
56.145 4.759659
56.150 4.672342
56.155 4.34244
56.160 4.294156
56.165 4.213203
56.170 4.369675
56.175 4.635289
56.180 4.453792
56.185 4.167063
56.190 4.419252
56.195 4.287715
56.200 4.152643
56.205 4.207979
56.210 4.529664
56.215 4.65562
56.220 4.812807
56.225 4.689928
56.230 4.776166
56.235 4.978335
56.240 4.779897
56.245 4.41429
56.250 4.342885
56.255 4.588481
56.260 4.985349
56.265 5.314273
56.270 5.219675
56.275 5.119739
56.280 5.01769
56.285 4.999146
56.290 4.716132
56.295 4.253782
56.300 4.313179
56.305 4.291556
56.310 4.512255
56.315 4.725298
56.320 4.851423
56.325 5.100824
56.330 5.046259
56.335 4.784592
56.340 4.710971
56.345 4.609962
56.350 4.556785
56.355 4.692088
56.360 4.7655
56.365 4.910703
56.370 4.758633
56.375 4.836869
56.380 4.725095
56.385 4.701667
56.390 4.671819
56.395 4.577757
56.400 4.497552
56.405 4.845633
56.410 4.947547
56.415 5.061836
56.420 4.625701
56.425 4.65321
56.430 4.551332
56.435 4.450664
56.440 4.407201
56.445 4.37997
56.450 4.20498
56.455 4.424894
56.460 4.093554
56.465 4.059785
56.470 4.034682
56.475 3.882013
56.480 3.86407
56.485 4.16867
56.490 4.194201
56.495 4.619436
56.500 4.952557
56.505 5.308161
56.510 5.311899
56.515 5.360905
56.520 5.314721
56.525 5.367264
56.530 5.105444
56.535 5.281233
56.540 5.238609
56.545 5.37663
56.550 5.487483
56.555 5.565792
56.560 5.539411
56.565 5.242006
56.570 4.649655
56.575 4.4909
56.580 4.455737
56.585 4.299937
56.590 4.028655
56.595 3.944228
56.600 4.064667
56.605 4.518283
56.610 4.382335
56.615 4.194497
56.620 4.124907
56.625 4.237175
56.630 4.472431
56.635 4.405539
56.640 4.205136
56.645 4.239744
56.650 4.314675
56.655 4.522488
56.660 4.627845
56.665 4.78029
56.670 5.234931
56.675 5.501806
56.680 5.572386
56.685 5.53842
56.690 5.531777
56.695 5.671004
56.700 5.165717
56.705 4.941108
56.710 4.874254
56.715 4.931763
56.720 5.112519
56.725 4.991646
56.730 4.839337
56.735 4.975967
56.740 4.942706
56.745 4.646351
56.750 4.58918
56.755 4.498581
56.760 4.471944
56.765 4.651639
56.770 5.010354
56.775 5.325596
56.780 5.230766
56.785 5.543976
56.790 5.608201
56.795 5.667025
56.800 5.249024
56.805 4.900817
56.810 5.026946
56.815 5.322264
56.820 5.325635
56.825 5.688973
56.830 5.95565
56.835 6.083726
56.840 5.967045
56.845 5.723205
56.850 5.531302
56.855 5.31993
56.860 4.852469
56.865 4.849355
56.870 5.176048
56.875 5.069899
56.880 4.972293
56.885 4.905984
56.890 4.558447
56.895 4.421841
56.900 4.294337
56.905 4.215914
56.910 4.16118
56.915 4.20033
56.920 4.359873
56.925 4.525509
56.930 4.472348
56.935 4.349318
56.940 4.390273
56.945 4.583694
56.950 4.749749
56.955 4.817604
56.960 4.837276
56.965 5.067129
56.970 5.216563
56.975 5.063944
56.980 4.977612
56.985 4.943425
56.990 5.150707
56.995 5.234022
57.000 5.134715
57.005 4.992665
57.010 5.192737
57.015 5.198446
57.020 5.270549
57.025 5.037964
57.030 4.905461
57.035 5.166775
57.040 5.266328
57.045 5.212949
57.050 5.189416
57.055 4.974596
57.060 4.970517
57.065 4.852757
57.070 4.570762
57.075 4.677037
57.080 4.61413
57.085 4.751816
57.090 4.934723
57.095 5.272953
57.100 5.347407
57.105 5.592455
57.110 5.48479
57.115 5.602112
57.120 5.605257
57.125 5.402867
57.130 5.113523
57.135 5.21005
57.140 5.184826
57.145 5.278789
57.150 4.915598
57.155 5.016103
57.160 5.09996
57.165 5.458745
57.170 5.502355
57.175 5.251777
57.180 5.240211
57.185 5.282464
57.190 4.971895
57.195 5.036671
57.200 4.78633
57.205 4.687758
57.210 4.833003
57.215 4.95961
57.220 5.301363
57.225 5.388397
57.230 5.048372
57.235 5.186632
57.240 5.461139
57.245 5.530194
57.250 5.589699
57.255 5.181616
57.260 5.236196
57.265 5.482817
57.270 5.393776
57.275 5.386362
57.280 5.000858
57.285 4.907537
57.290 5.083834
57.295 5.184278
57.300 5.147743
57.305 4.865793
57.310 4.613826
57.315 4.80231
57.320 4.635191
57.325 4.401831
57.330 4.28089
57.335 4.093791
57.340 4.13833
57.345 4.166368
57.350 4.356153
57.355 4.908483
57.360 5.327499
57.365 5.436742
57.370 5.442327
57.375 5.603348
57.380 5.677551
57.385 5.717954
57.390 5.57484
57.395 5.495055
57.400 5.631253
57.405 5.755016
57.410 6.042852
57.415 6.066896
57.420 5.743869
57.425 5.804991
57.430 5.725114
57.435 5.610235
57.440 5.402741
57.445 5.131329
57.450 5.102863
57.455 5.504414
57.460 5.357578
57.465 5.391109
57.470 5.142013
57.475 5.330549
57.480 5.316697
57.485 5.343406
57.490 5.211089
57.495 5.281017
57.500 5.245933
57.505 5.366304
57.510 5.275341
57.515 5.291377
57.520 5.162404
57.525 4.951795
57.530 4.849647
57.535 4.866537
57.540 4.984964
57.545 5.231567
57.550 5.137411
57.555 5.003562
57.560 4.919783
57.565 5.023122
57.570 5.029119
57.575 4.762689
57.580 4.633756
57.585 4.514256
57.590 4.597961
57.595 4.688226
57.600 4.588015
57.605 4.788222
57.610 4.770387
57.615 4.576888
57.620 4.918539
57.625 5.176033
57.630 5.165864
57.635 5.04378
57.640 4.788187
57.645 5.004692
57.650 5.430786
57.655 5.839501
57.660 5.837786
57.665 6.040767
57.670 6.14795
57.675 6.286205
57.680 6.308374
57.685 6.231423
57.690 5.917294
57.695 5.843129
57.700 5.710029
57.705 5.512729
57.710 5.502324
57.715 5.238833
57.720 4.956229
57.725 4.648607
57.730 4.351574
57.735 4.451757
57.740 4.406876
57.745 4.216692
57.750 4.034237
57.755 4.123903
57.760 4.114718
57.765 4.094924
57.770 4.141386
57.775 4.3955
57.780 4.496441
57.785 4.719884
57.790 4.760262
57.795 4.857052
57.800 5.284103
57.805 5.306633
57.810 5.205184
57.815 5.282557
57.820 5.401282
57.825 5.636081
57.830 5.788548
57.835 5.570116
57.840 6.010464
57.845 6.398135
57.850 6.166912
57.855 5.962192
57.860 5.709812
57.865 5.373617
57.870 5.134077
57.875 4.73202
57.880 4.625093
57.885 4.745014
57.890 4.649011
57.895 4.784812
57.900 5.023061
57.905 5.140676
57.910 4.855049
57.915 4.744484
57.920 4.824729
57.925 4.853849
57.930 4.988766
57.935 5.006508
57.940 4.944415
57.945 5.277872
57.950 5.533364
57.955 5.374393
57.960 5.269194
57.965 5.203867
57.970 5.263929
57.975 5.237739
57.980 5.06671
57.985 4.858558
57.990 5.262427
57.995 5.408906
58.000 5.507421
58.005 5.931268
58.010 6.005761
58.015 6.008981
58.020 6.198268
58.025 6.425154
58.030 6.426839
58.035 6.533197
58.040 6.537693
58.045 6.678068
58.050 6.868414
58.055 6.965705
58.060 6.723997
58.065 6.769381
58.070 6.665061
58.075 6.261465
58.080 6.008669
58.085 5.991391
58.090 5.698081
58.095 5.531653
58.100 5.618592
58.105 5.942297
58.110 6.024581
58.115 6.017966
58.120 5.740142
58.125 5.730411
58.130 5.63117
58.135 5.471179
58.140 5.286273
58.145 5.736848
58.150 5.957408
58.155 6.089326
58.160 6.085471
58.165 6.10217
58.170 6.200721
58.175 6.092916
58.180 6.028658
58.185 6.054415
58.190 6.03456
58.195 6.386196
58.200 6.767217
58.205 6.589808
58.210 6.862538
58.215 6.697639
58.220 6.561675
58.225 6.871114
58.230 6.70062
58.235 6.410452
58.240 6.444044
58.245 6.153235
58.250 5.805348
58.255 5.632299
58.260 5.527845
58.265 5.635143
58.270 5.67078
58.275 5.287665
58.280 5.261533
58.285 5.746125
58.290 5.861013
58.295 5.70083
58.300 5.442066
58.305 5.360056
58.310 5.645619
58.315 5.993325
58.320 5.997728
58.325 6.090626
58.330 6.190747
58.335 6.168009
58.340 6.098828
58.345 5.963231
58.350 5.624403
58.355 5.591704
58.360 5.281259
58.365 5.044247
58.370 5.12626
58.375 5.315622
58.380 5.252892
58.385 5.357975
58.390 5.205302
58.395 5.624692
58.400 5.913361
58.405 6.220126
58.410 5.986776
58.415 5.88529
58.420 5.829157
58.425 6.02141
58.430 5.8817
58.435 5.772429
58.440 5.609848
58.445 5.958941
58.450 6.187414
58.455 5.897405
58.460 6.34356
58.465 6.495167
58.470 6.623371
58.475 6.894844
58.480 6.765774
58.485 6.710793
58.490 7.065829
58.495 6.885947
58.500 7.140955
58.505 7.416391
58.510 7.424177
58.515 7.412086
58.520 7.744702
58.525 7.690169
58.530 7.210202
58.535 7.058342
58.540 7.100422
58.545 7.166573
58.550 7.532403
58.555 7.291486
58.560 7.548428
58.565 7.945336
58.570 7.936968
58.575 7.845794
58.580 8.241849
58.585 8.512544
58.590 8.784119
58.595 9.137495
58.600 9.018261
58.605 8.989713
58.610 9.235297
58.615 9.074574
58.620 9.009456
58.625 8.961257
58.630 9.164791
58.635 9.375714
58.640 9.590109
58.645 9.310012
58.650 9.059528
58.655 8.820049
58.660 9.119881
58.665 9.341103
58.670 9.384311
58.675 9.256631
58.680 9.508724
58.685 9.775399
58.690 10.117889
58.695 10.360443
58.700 10.255333
58.705 10.005044
58.710 10.247429
58.715 9.898842
58.720 9.997956
58.725 9.886843
58.730 9.252543
58.735 9.382029
58.740 9.633162
58.745 9.2828
58.750 9.370586
58.755 9.337134
58.760 9.40565
