!@!!GADDS PLOTSO FILE: Chi integration type
!@!!Title/SampleName: map-111
!@!!Comment: ?
!@!!User: Bruker Instrument Administrator
!@!!Site: University of Illinois Chicago
!@!!Frame: map-111_01_000.gfrm
!@!!Wavelengths    1.54184   1.54056   1.54439
!@!!Frame angles: 2Theta: 63.000 Omega: 50.000 Phi: 0.000 Chi: 90.000
!@!!Integration range: 2Theta: 53.000 to 73.000  Gamma: -105.000 to -75.000
!@!!Integration method: bin normalized
!@!N
!@!SS
!@!M
!@!L 0.0 0.0 0.0 0.0
!@!XDegrees
!@!YCounts
53.000 8.919485
53.005 8.382226
53.010 8.086291
53.015 7.683189
53.020 7.503525
53.025 7.460146
53.030 7.194242
53.035 7.048082
53.040 7.649609
53.045 8.219756
53.050 8.187058
53.055 8.027102
53.060 8.157973
53.065 8.095896
53.070 7.766361
53.075 7.455254
53.080 7.124016
53.085 7.162105
53.090 7.166113
53.095 7.135039
53.100 7.535437
53.105 8.013346
53.110 8.278886
53.115 8.555349
53.120 8.926616
53.125 8.790781
53.130 8.510347
53.135 8.214536
53.140 7.975405
53.145 8.025382
53.150 7.784819
53.155 7.571688
53.160 7.88452
53.165 8.214854
53.170 7.90717
53.175 7.777003
53.180 7.51217
53.185 7.442597
53.190 7.984423
53.195 8.052436
53.200 8.131629
53.205 8.362708
53.210 8.22254
53.215 8.335526
53.220 8.29955
53.225 7.904996
53.230 7.746859
53.235 7.221089
53.240 7.163852
53.245 7.619857
53.250 7.649688
53.255 7.633584
53.260 8.175435
53.265 8.854405
53.270 9.324668
53.275 9.30844
53.280 9.122507
53.285 8.987335
53.290 9.355355
53.295 8.889196
53.300 8.336795
53.305 8.304551
53.310 8.424339
53.315 8.603092
53.320 8.42703
53.325 7.71428
53.330 7.206355
53.335 7.573366
53.340 7.589311
53.345 7.296157
53.350 7.43513
53.355 7.854865
53.360 8.112154
53.365 8.224758
53.370 8.635911
53.375 8.705915
53.380 8.894154
53.385 8.725131
53.390 8.438548
53.395 8.569049
53.400 8.584532
53.405 8.224916
53.410 8.495895
53.415 8.548642
53.420 8.352958
53.425 8.474857
53.430 8.478437
53.435 8.562807
53.440 8.643819
53.445 8.539243
53.450 8.734794
53.455 8.78375
53.460 9.098251
53.465 9.320683
53.470 9.001565
53.475 8.690195
53.480 8.547967
53.485 8.407984
53.490 8.18371
53.495 7.941209
53.500 7.999111
53.505 8.265002
53.510 8.274107
53.515 8.628904
53.520 8.863452
53.525 8.969873
53.530 9.203934
53.535 8.998505
53.540 9.09522
53.545 8.778695
53.550 8.377592
53.555 8.322805
53.560 8.537359
53.565 8.360412
53.570 8.40883
53.575 8.511186
53.580 9.038104
53.585 8.885966
53.590 8.867867
53.595 8.504701
53.600 8.607973
53.605 8.923902
53.610 8.825671
53.615 8.574539
53.620 8.828923
53.625 8.943048
53.630 8.797108
53.635 8.852188
53.640 8.615801
53.645 8.690886
53.650 9.104114
53.655 9.555653
53.660 10.194789
53.665 10.083385
53.670 9.817419
53.675 9.586124
53.680 9.592484
53.685 9.552235
53.690 9.05806
53.695 8.495843
53.700 8.755359
53.705 9.001929
53.710 9.136349
53.715 9.206718
53.720 9.017145
53.725 9.10737
53.730 9.408004
53.735 9.10666
53.740 9.001892
53.745 9.253845
53.750 9.241494
53.755 9.196241
53.760 9.194429
53.765 9.239988
53.770 9.37968
53.775 9.724641
53.780 9.285017
53.785 9.097001
53.790 9.418337
53.795 9.238769
53.800 8.99852
53.805 8.852678
53.810 8.567412
53.815 9.152296
53.820 9.326578
53.825 8.4837
53.830 8.279708
53.835 8.668478
53.840 8.880347
53.845 8.869223
53.850 8.608702
53.855 8.987213
53.860 9.796733
53.865 9.994944
53.870 9.810393
53.875 9.382845
53.880 9.162631
53.885 9.163693
53.890 9.234483
53.895 9.675089
53.900 9.78634
53.905 10.375503
53.910 11.055157
53.915 11.130978
53.920 11.069268
53.925 10.225472
53.930 9.743602
53.935 9.292977
53.940 9.01771
53.945 8.931849
53.950 9.012033
53.955 8.734857
53.960 8.683946
53.965 9.011514
53.970 9.502899
53.975 9.652013
53.980 9.650809
53.985 9.16189
53.990 9.421855
53.995 9.391649
54.000 8.820531
54.005 8.432375
54.010 8.153789
54.015 7.797746
54.020 7.749525
54.025 7.925505
54.030 8.261368
54.035 8.265397
54.040 8.348527
54.045 8.064351
54.050 8.816147
54.055 8.86902
54.060 8.784616
54.065 8.783277
54.070 8.496124
54.075 8.683842
54.080 8.89418
54.085 8.689628
54.090 8.656311
54.095 8.494691
54.100 8.645327
54.105 9.504355
54.110 9.554002
54.115 9.457645
54.120 9.251409
54.125 9.741349
54.130 9.733438
54.135 9.507522
54.140 9.120857
54.145 8.899269
54.150 8.994646
54.155 9.07248
54.160 8.900397
54.165 9.099874
54.170 9.29065
54.175 9.579897
54.180 9.648412
54.185 9.894339
54.190 9.879483
54.195 9.965896
54.200 10.196183
54.205 10.07497
54.210 10.098903
54.215 10.264538
54.220 10.272753
54.225 10.177117
54.230 9.932976
54.235 9.448028
54.240 9.044921
54.245 9.233027
54.250 9.133183
54.255 9.302333
54.260 9.286298
54.265 9.281577
54.270 9.80461
54.275 9.676866
54.280 9.558382
54.285 9.699407
54.290 9.655385
54.295 9.939281
54.300 10.644569
54.305 11.103416
54.310 11.20841
54.315 11.039386
54.320 10.86152
54.325 10.745072
54.330 10.595919
54.335 10.142626
54.340 9.92531
54.345 9.528062
54.350 9.180699
54.355 8.965838
54.360 8.884888
54.365 8.659095
54.370 8.284983
54.375 8.186543
54.380 8.49327
54.385 8.73652
54.390 8.973384
54.395 9.190394
54.400 9.262548
54.405 9.040133
54.410 9.125399
54.415 9.34026
54.420 9.38801
54.425 9.474561
54.430 9.434547
54.435 9.49002
54.440 10.033538
54.445 9.736972
54.450 9.470005
54.455 9.295004
54.460 9.234381
54.465 9.483097
54.470 9.365778
54.475 8.664937
54.480 8.85693
54.485 9.480239
54.490 9.400573
54.495 9.348609
54.500 8.965687
54.505 8.946846
54.510 9.423664
54.515 9.276608
54.520 9.416041
54.525 9.753272
54.530 9.678464
54.535 10.199966
54.540 10.338413
54.545 9.80468
54.550 9.51068
54.555 9.027126
54.560 8.888819
54.565 8.859071
54.570 8.6361
54.575 8.56059
54.580 8.563489
54.585 8.714371
54.590 8.924618
54.595 9.028126
54.600 9.017311
54.605 8.914322
54.610 9.080434
54.615 9.139898
54.620 9.153167
54.625 8.923818
54.630 8.791563
54.635 8.9201
54.640 9.258794
54.645 9.411567
54.650 9.445865
54.655 9.78022
54.660 9.749447
54.665 9.86962
54.670 9.819606
54.675 9.121617
54.680 8.673768
54.685 8.20305
54.690 7.689713
54.695 7.822512
54.700 7.936041
54.705 7.866858
54.710 8.198362
54.715 8.728209
54.720 9.234233
54.725 9.402665
54.730 9.253232
54.735 9.30899
54.740 9.865163
54.745 9.872032
54.750 9.68222
54.755 9.670462
54.760 10.139726
54.765 10.662064
54.770 10.799628
54.775 10.720195
54.780 10.792664
54.785 10.79331
54.790 10.672623
54.795 10.860269
54.800 10.563622
54.805 10.185263
54.810 10.516494
54.815 10.200312
54.820 10.627228
54.825 10.733117
54.830 10.348446
54.835 10.351282
54.840 10.615973
54.845 10.466331
54.850 10.736304
54.855 10.694733
54.860 10.94422
54.865 10.830629
54.870 10.674349
54.875 10.733368
54.880 10.704355
54.885 10.542172
54.890 10.141508
54.895 10.278513
54.900 10.65694
54.905 10.35724
54.910 9.968678
54.915 10.053743
54.920 10.468885
54.925 10.297528
54.930 9.422677
54.935 9.036083
54.940 9.210598
54.945 9.618747
54.950 9.647858
54.955 9.262739
54.960 9.234059
54.965 9.490706
54.970 9.886802
54.975 10.197811
54.980 9.896102
54.985 9.342428
54.990 9.679248
54.995 10.219652
55.000 10.451119
55.005 10.293597
55.010 10.090776
55.015 10.194567
55.020 10.815825
55.025 10.730646
55.030 10.495127
55.035 10.245673
55.040 10.119588
55.045 9.979989
55.050 9.822328
55.055 9.532092
55.060 9.440889
55.065 9.250556
55.070 9.135894
55.075 9.232613
55.080 9.442759
55.085 9.694588
55.090 9.66538
55.095 9.501312
55.100 9.357632
55.105 10.106339
55.110 10.247787
55.115 10.426332
55.120 10.630039
55.125 11.084068
55.130 11.734245
55.135 11.862822
55.140 11.43364
55.145 11.595092
55.150 11.971726
55.155 12.013345
55.160 11.683435
55.165 10.93556
55.170 10.970243
55.175 10.32492
55.180 9.80607
55.185 9.136725
55.190 8.543929
55.195 8.65718
55.200 8.390892
55.205 8.409527
55.210 8.9096
55.215 9.327327
55.220 9.655463
55.225 9.70856
55.230 9.687304
55.235 10.262246
55.240 10.554038
55.245 10.586226
55.250 10.506342
55.255 10.190267
55.260 10.056404
55.265 10.293301
55.270 9.941773
55.275 9.55825
55.280 9.521004
55.285 9.475097
55.290 9.84521
55.295 9.997928
55.300 10.04803
55.305 9.704696
55.310 9.747592
55.315 9.840444
55.320 10.102565
55.325 10.071771
55.330 10.413263
55.335 10.493929
55.340 11.194848
55.345 11.184152
55.350 10.786582
55.355 10.697186
55.360 10.565167
55.365 10.396856
55.370 10.194837
55.375 9.674382
55.380 9.990637
55.385 10.378587
55.390 10.477162
55.395 10.663436
55.400 10.588655
55.405 10.663856
55.410 10.673191
55.415 10.396349
55.420 10.14874
55.425 10.173831
55.430 9.886606
55.435 10.171082
55.440 10.495208
55.445 10.526972
55.450 10.621222
55.455 10.363106
55.460 10.01872
55.465 10.536765
55.470 10.215156
55.475 9.917465
55.480 9.917348
55.485 10.057945
55.490 10.599542
55.495 10.893397
55.500 10.695636
55.505 11.085674
55.510 10.739868
55.515 10.413343
55.520 10.094916
55.525 9.778962
55.530 9.452601
55.535 9.195475
55.540 9.203825
55.545 9.668837
55.550 9.869164
55.555 10.154619
55.560 9.890375
55.565 9.634592
55.570 9.451754
55.575 9.360335
55.580 9.847665
55.585 10.184853
55.590 9.969292
55.595 10.037475
55.600 10.336514
55.605 10.533922
55.610 10.46674
55.615 10.400084
55.620 10.802619
55.625 11.207427
55.630 11.267832
55.635 11.395968
55.640 11.051583
55.645 10.222709
55.650 9.290591
55.655 8.69366
55.660 8.998374
55.665 9.176373
55.670 9.275279
55.675 9.747136
55.680 10.287252
55.685 10.577565
55.690 10.547986
55.695 10.330663
55.700 10.637927
55.705 10.505492
55.710 10.354361
55.715 10.593389
55.720 11.304953
55.725 11.101503
55.730 11.011713
55.735 10.672114
55.740 10.987339
55.745 11.007221
55.750 11.084441
55.755 10.562878
55.760 10.597631
55.765 10.482897
55.770 9.812436
55.775 9.867179
55.780 10.304903
55.785 10.304681
55.790 10.355913
55.795 10.246862
55.800 10.609487
55.805 11.433523
55.810 11.10749
55.815 10.450309
55.820 10.077677
55.825 10.232873
55.830 10.380073
55.835 10.724601
55.840 10.542538
55.845 10.616338
55.850 10.670321
55.855 10.894808
55.860 10.754513
55.865 10.47611
55.870 10.011763
55.875 9.705598
55.880 9.562282
55.885 9.744167
55.890 10.010348
55.895 10.223592
55.900 10.589656
55.905 11.072282
55.910 11.672236
55.915 11.840672
55.920 11.818155
55.925 11.679829
55.930 11.85281
55.935 11.736239
55.940 11.085899
55.945 11.319654
55.950 12.069434
55.955 12.012779
55.960 11.88443
55.965 12.010982
55.970 12.648629
55.975 12.660455
55.980 12.539945
55.985 12.579623
55.990 12.436332
55.995 12.578913
56.000 12.318447
56.005 12.140167
56.010 12.326689
56.015 11.874462
56.020 11.28758
56.025 11.279388
56.030 11.393492
56.035 11.14035
56.040 10.90975
56.045 10.539917
56.050 10.620314
56.055 10.734905
56.060 10.713485
56.065 10.440079
56.070 10.567578
56.075 10.966276
56.080 11.086237
56.085 10.861332
56.090 10.883585
56.095 10.499715
56.100 10.620502
56.105 10.507099
56.110 10.351754
56.115 10.450459
56.120 10.250764
56.125 10.37342
56.130 10.469662
56.135 10.27933
56.140 9.78511
56.145 9.603852
56.150 9.827938
56.155 10.487309
56.160 11.125562
56.165 11.703852
56.170 12.349783
56.175 12.917108
56.180 13.419303
56.185 13.522577
56.190 13.395843
56.195 12.930412
56.200 12.826064
56.205 12.899047
56.210 12.626788
56.215 12.436779
56.220 11.991577
56.225 11.697458
56.230 11.675261
56.235 11.648787
56.240 11.648031
56.245 11.88326
56.250 11.761349
56.255 11.349524
56.260 11.455977
56.265 11.219852
56.270 10.796
56.275 10.405861
56.280 10.023315
56.285 9.946495
56.290 10.277395
56.295 10.21699
56.300 10.257453
56.305 10.622156
56.310 10.839014
56.315 11.189103
56.320 11.532072
56.325 11.816378
56.330 12.28871
56.335 12.345781
56.340 12.26667
56.345 12.106437
56.350 11.644405
56.355 12.102818
56.360 11.809626
56.365 11.401722
56.370 11.17092
56.375 11.202979
56.380 11.183855
56.385 11.177842
56.390 10.673758
56.395 10.678825
56.400 10.720669
56.405 10.494902
56.410 10.371928
56.415 10.613676
56.420 10.533075
56.425 10.716031
56.430 10.663218
56.435 10.560413
56.440 11.26947
56.445 11.254338
56.450 11.016379
56.455 10.820267
56.460 10.791576
56.465 10.864212
56.470 10.954965
56.475 10.529222
56.480 10.573208
56.485 10.624708
56.490 11.046298
56.495 11.385664
56.500 11.172817
56.505 11.347955
56.510 11.727417
56.515 12.103885
56.520 12.53643
56.525 12.501179
56.530 11.994155
56.535 11.872274
56.540 11.948659
56.545 12.070318
56.550 12.183636
56.555 12.447806
56.560 12.617082
56.565 13.239195
56.570 13.832082
56.575 14.119957
56.580 14.061318
56.585 13.564939
56.590 13.07231
56.595 12.742153
56.600 12.226351
56.605 11.304019
56.610 10.421042
56.615 10.115328
56.620 10.56321
56.625 10.81774
56.630 11.016582
56.635 11.509124
56.640 12.079486
56.645 11.890644
56.650 11.564797
56.655 11.247239
56.660 10.96209
56.665 10.706866
56.670 10.588305
56.675 10.699825
56.680 10.872363
56.685 10.846772
56.690 10.892044
56.695 10.793422
56.700 10.514212
56.705 10.531545
56.710 10.565216
56.715 11.105716
56.720 11.497151
56.725 11.813887
56.730 12.815578
56.735 13.343304
56.740 13.17532
56.745 13.485335
56.750 13.324613
56.755 13.129094
56.760 13.159808
56.765 12.685583
56.770 12.132921
56.775 12.337998
56.780 11.953166
56.785 11.730374
56.790 11.675482
56.795 11.509792
56.800 11.785625
56.805 12.043886
56.810 11.522736
56.815 11.330868
56.820 11.479966
56.825 11.325312
56.830 11.183158
56.835 11.237259
56.840 11.36429
56.845 11.350393
56.850 11.497497
56.855 11.388408
56.860 11.391948
56.865 11.980628
56.870 11.984062
56.875 11.864733
56.880 12.244103
56.885 12.29364
56.890 12.424864
56.895 12.479137
56.900 11.851265
56.905 11.526409
56.910 11.317499
56.915 11.180362
56.920 11.183176
56.925 11.277177
56.930 11.320285
56.935 11.568194
56.940 12.09101
56.945 12.565716
56.950 12.676228
56.955 12.703331
56.960 12.488184
56.965 12.27606
56.970 11.911605
56.975 11.937576
56.980 11.684503
56.985 11.178445
56.990 11.28063
56.995 11.605742
57.000 11.64087
57.005 11.084064
57.010 10.731422
57.015 11.414157
57.020 11.664188
57.025 11.664337
57.030 11.361865
57.035 11.450968
57.040 12.327408
57.045 12.486482
57.050 12.1106
57.055 12.498734
57.060 12.336069
57.065 12.36517
57.070 12.319242
57.075 11.93415
57.080 12.220334
57.085 11.971389
57.090 11.635331
57.095 12.082891
57.100 12.057971
57.105 12.543468
57.110 13.200771
57.115 13.127804
57.120 13.15973
57.125 12.656927
57.130 12.487681
57.135 12.139703
57.140 11.350274
57.145 10.991846
57.150 11.167719
57.155 11.431483
57.160 11.788003
57.165 11.529197
57.170 11.865101
57.175 12.120627
57.180 11.607109
57.185 11.101329
57.190 11.714243
57.195 12.258794
57.200 13.068834
57.205 13.301376
57.210 13.834168
57.215 14.571016
57.220 14.46134
57.225 13.63287
57.230 13.289033
57.235 13.382159
57.240 13.535
57.245 13.107931
57.250 12.757986
57.255 14.022817
57.260 14.719763
57.265 14.490046
57.270 14.272342
57.275 14.148162
57.280 14.267776
57.285 14.510886
57.290 13.575322
57.295 13.319115
57.300 13.691308
57.305 13.701447
57.310 13.418531
57.315 13.706133
57.320 13.701925
57.325 13.647789
57.330 13.847795
57.335 13.712351
57.340 13.797461
57.345 14.027801
57.350 13.53665
57.355 13.358261
57.360 13.379668
57.365 13.511882
57.370 13.090466
57.375 12.587539
57.380 12.616796
57.385 12.703317
57.390 12.722652
57.395 12.489167
57.400 12.251671
57.405 12.433946
57.410 12.499929
57.415 12.191267
57.420 11.834704
57.425 11.479278
57.430 11.161477
57.435 11.100495
57.440 11.545156
57.445 11.784657
57.450 12.186308
57.455 12.496291
57.460 13.044387
57.465 13.707309
57.470 13.513772
57.475 13.105454
57.480 13.106896
57.485 12.842564
57.490 13.304471
57.495 13.110731
57.500 12.557186
57.505 12.472075
57.510 13.044316
57.515 13.032762
57.520 12.898138
57.525 12.216967
57.530 12.129382
57.535 12.210917
57.540 12.019866
57.545 11.965889
57.550 12.242481
57.555 11.914751
57.560 12.162772
57.565 12.339455
57.570 12.684294
57.575 12.499619
57.580 11.952125
57.585 11.572248
57.590 12.058147
57.595 12.117697
57.600 12.213962
57.605 12.197047
57.610 12.684597
57.615 12.806531
57.620 12.994484
57.625 12.73431
57.630 12.775867
57.635 12.379582
57.640 12.397581
57.645 12.198283
57.650 12.409213
57.655 12.434726
57.660 12.390393
57.665 12.2162
57.670 12.19639
57.675 11.970325
57.680 11.986737
57.685 11.623796
57.690 11.743061
57.695 11.983935
57.700 11.848041
57.705 11.997412
57.710 12.260564
57.715 12.367891
57.720 13.006111
57.725 13.427753
57.730 13.871979
57.735 14.114926
57.740 14.510656
57.745 14.408628
57.750 14.215548
57.755 13.782848
57.760 13.324505
57.765 12.908518
57.770 12.656365
57.775 12.332096
57.780 12.393153
57.785 12.527864
57.790 12.244189
57.795 11.94389
57.800 11.539685
57.805 11.910248
57.810 11.755859
57.815 11.61394
57.820 11.659293
57.825 12.09177
57.830 12.566424
57.835 13.033191
57.840 13.167798
57.845 13.631963
57.850 13.787588
57.855 13.971866
57.860 14.217821
57.865 14.451782
57.870 14.828101
57.875 14.234015
57.880 13.690401
57.885 13.657292
57.890 13.237789
57.895 12.763661
57.900 12.61492
57.905 12.477228
57.910 12.824921
57.915 13.166627
57.920 12.964564
57.925 12.612904
57.930 12.661907
57.935 12.427042
57.940 12.47815
57.945 12.301255
57.950 12.307742
57.955 12.290865
57.960 12.854982
57.965 13.044775
57.970 13.409693
57.975 13.457739
57.980 13.046396
57.985 12.653584
57.990 12.650841
57.995 12.631612
58.000 12.36145
58.005 11.854625
58.010 11.713683
58.015 12.142659
58.020 12.367896
58.025 12.775479
58.030 13.177554
58.035 13.429129
58.040 13.94396
58.045 14.185339
58.050 14.290845
58.055 14.477082
58.060 14.205824
58.065 13.890132
58.070 13.91961
58.075 13.919938
58.080 13.64395
58.085 13.56531
58.090 13.611213
58.095 13.356909
58.100 13.094148
58.105 13.079602
58.110 12.96112
58.115 13.016304
58.120 12.930517
58.125 12.701573
58.130 13.062325
58.135 13.724822
58.140 13.918887
58.145 13.606511
58.150 13.515808
58.155 14.053826
58.160 13.592127
58.165 12.833807
58.170 12.28631
58.175 11.896505
58.180 12.148743
58.185 12.428867
58.190 11.829755
58.195 11.864241
58.200 12.005464
58.205 12.198962
58.210 12.716548
58.215 13.178309
58.220 13.196406
58.225 13.979378
58.230 14.534579
58.235 14.734226
58.240 14.723212
58.245 14.496346
58.250 13.928968
58.255 13.566792
58.260 12.887234
58.265 12.764755
58.270 12.62113
58.275 12.41424
58.280 12.434773
58.285 12.741348
58.290 12.98347
58.295 13.536095
58.300 13.928034
58.305 14.352508
58.310 14.602802
58.315 14.799419
58.320 14.752678
58.325 14.785792
58.330 15.247673
58.335 15.312352
58.340 14.71363
58.345 14.222957
58.350 13.641039
58.355 14.002037
58.360 13.527461
58.365 13.060668
58.370 12.840556
58.375 13.410764
58.380 13.23727
58.385 13.351225
58.390 13.023833
58.395 13.43
58.400 13.738787
58.405 13.397431
58.410 13.293013
58.415 13.707511
58.420 13.468607
58.425 14.031117
58.430 13.77713
58.435 13.553749
58.440 13.984005
58.445 14.025759
58.450 14.444584
58.455 14.56448
58.460 14.385142
58.465 14.55767
58.470 14.418664
58.475 14.107655
58.480 14.343603
58.485 14.138856
58.490 14.177129
58.495 14.57558
58.500 14.554093
58.505 14.815911
58.510 14.863187
58.515 14.634297
58.520 14.781201
58.525 15.047574
58.530 14.770373
58.535 14.610247
58.540 14.711625
58.545 14.881713
58.550 14.750916
58.555 14.531468
58.560 14.350008
