!@!!GADDS PLOTSO FILE: Chi integration type
!@!!Title/SampleName: map-bf
!@!!Comment: ?
!@!!User: Bruker Instrument Administrator
!@!!Site: University of Illinois Chicago
!@!!Frame: map-bf_01_000.gfrm
!@!!Wavelengths    1.54184   1.54056   1.54439
!@!!Frame angles: 2Theta: 63.000 Omega: 50.000 Phi: 0.000 Chi: 90.000
!@!!Integration range: 2Theta: 53.000 to 73.000  Gamma: -105.000 to -75.000
!@!!Integration method: bin normalized
!@!N
!@!SS
!@!M
!@!L 0.0 0.0 0.0 0.0
!@!XDegrees
!@!YCounts
53.000 7.999331
53.005 8.007523
53.010 7.831833
53.015 7.8315
53.020 7.919029
53.025 7.819271
53.030 8.148401
53.035 8.138982
53.040 8.361839
53.045 8.301135
53.050 8.275862
53.055 7.981114
53.060 8.198367
53.065 7.651652
53.070 7.297365
53.075 6.874976
53.080 7.033233
53.085 7.189303
53.090 7.780604
53.095 7.825958
53.100 8.075466
53.105 8.19118
53.110 8.410674
53.115 8.467871
53.120 8.214359
53.125 7.975565
53.130 7.608589
53.135 7.791966
53.140 7.959
53.145 7.996639
53.150 7.617789
53.155 7.621817
53.160 8.155471
53.165 8.122738
53.170 7.539856
53.175 7.457306
53.180 7.008789
53.185 7.257216
53.190 7.093771
53.195 7.095695
53.200 7.474422
53.205 7.645981
53.210 7.729577
53.215 8.160269
53.220 7.777053
53.225 7.66796
53.230 7.532377
53.235 7.725422
53.240 7.734911
53.245 7.564561
53.250 7.678315
53.255 7.948892
53.260 8.168076
53.265 7.859396
53.270 7.403143
53.275 7.440494
53.280 7.51574
53.285 7.885305
53.290 7.772329
53.295 7.280473
53.300 7.499955
53.305 7.738516
53.310 7.789242
53.315 7.580333
53.320 7.22789
53.325 7.511301
53.330 7.718986
53.335 7.723361
53.340 8.022335
53.345 8.147469
53.350 8.070097
53.355 8.27687
53.360 8.165426
53.365 8.103498
53.370 8.008499
53.375 7.922459
53.380 7.690751
53.385 7.717184
53.390 7.248807
53.395 7.617101
53.400 7.765544
53.405 7.752596
53.410 7.924793
53.415 8.082188
53.420 8.650028
53.425 8.820766
53.430 8.644702
53.435 8.588409
53.440 8.64341
53.445 9.208749
53.450 9.280606
53.455 8.567247
53.460 8.345797
53.465 8.160156
53.470 7.951914
53.475 7.385993
53.480 6.569655
53.485 6.481422
53.490 6.526302
53.495 6.518833
53.500 6.762645
53.505 7.278322
53.510 7.752337
53.515 8.015851
53.520 7.974935
53.525 8.498548
53.530 9.055816
53.535 9.027726
53.540 8.431828
53.545 8.208494
53.550 8.37811
53.555 8.506818
53.560 8.235394
53.565 7.905535
53.570 7.746762
53.575 8.08897
53.580 8.4444
53.585 8.608011
53.590 8.238068
53.595 8.800166
53.600 8.718514
53.605 9.070889
53.610 8.768237
53.615 8.176937
53.620 8.03138
53.625 8.154256
53.630 8.259731
53.635 8.554607
53.640 8.482168
53.645 8.583324
53.650 8.649287
53.655 9.059443
53.660 8.931036
53.665 8.238837
53.670 8.095678
53.675 8.210903
53.680 8.582957
53.685 8.580622
53.690 7.99233
53.695 8.268907
53.700 8.584091
53.705 8.596808
53.710 8.53238
53.715 8.297976
53.720 8.65309
53.725 8.937429
53.730 8.442897
53.735 8.337658
53.740 7.875654
53.745 7.735363
53.750 7.726839
53.755 7.681202
53.760 7.809825
53.765 8.516326
53.770 9.074837
53.775 9.675452
53.780 9.950266
53.785 9.845115
53.790 9.822794
53.795 9.509752
53.800 8.793853
53.805 8.264269
53.810 7.992629
53.815 8.240096
53.820 8.27091
53.825 8.46265
53.830 8.601772
53.835 8.882986
53.840 8.668033
53.845 8.465207
53.850 8.229051
53.855 8.520606
53.860 8.323947
53.865 8.181803
53.870 7.980721
53.875 8.526608
53.880 8.284859
53.885 7.979924
53.890 7.628654
53.895 7.633323
53.900 7.830314
53.905 8.426263
53.910 8.00218
53.915 8.345306
53.920 8.60503
53.925 8.841836
53.930 8.819209
53.935 8.574284
53.940 8.62381
53.945 8.795674
53.950 8.48357
53.955 8.254896
53.960 8.104116
53.965 8.231438
53.970 8.376922
53.975 8.305472
53.980 8.276999
53.985 8.310439
53.990 8.535238
53.995 8.791978
54.000 9.036768
54.005 9.180887
54.010 9.181466
54.015 9.609984
54.020 9.834476
54.025 9.637938
54.030 9.666552
54.035 9.087559
54.040 8.705812
54.045 8.276685
54.050 8.381019
54.055 8.337499
54.060 8.71137
54.065 8.733446
54.070 9.016281
54.075 9.441586
54.080 9.471787
54.085 9.462394
54.090 9.767394
54.095 9.73733
54.100 9.899631
54.105 9.889215
54.110 9.69287
54.115 9.953171
54.120 9.850642
54.125 9.544737
54.130 9.545031
54.135 9.741467
54.140 10.078601
54.145 10.122937
54.150 9.517431
54.155 9.366409
54.160 9.294954
54.165 8.888306
54.170 8.721788
54.175 8.778315
54.180 9.106661
54.185 9.348333
54.190 9.338662
54.195 9.537026
54.200 9.876468
54.205 9.995201
54.210 9.471856
54.215 9.214784
54.220 9.234773
54.225 9.587891
54.230 9.369094
54.235 8.874421
54.240 9.017288
54.245 9.20284
54.250 8.922078
54.255 8.753038
54.260 8.738285
54.265 8.740868
54.270 8.252595
54.275 8.242146
54.280 8.664781
54.285 9.237424
54.290 8.999518
54.295 8.661262
54.300 8.956803
54.305 9.226089
54.310 9.169854
54.315 9.020489
54.320 8.97153
54.325 9.48383
54.330 9.600682
54.335 10.03118
54.340 10.062972
54.345 10.001184
54.350 10.325696
54.355 10.28686
54.360 10.596295
54.365 10.466306
54.370 10.049352
54.375 9.880618
54.380 9.358117
54.385 9.115693
54.390 8.988875
54.395 8.164372
54.400 8.39989
54.405 8.430757
54.410 8.68397
54.415 8.785593
54.420 9.115359
54.425 9.116357
54.430 9.565689
54.435 9.095821
54.440 8.962708
54.445 9.21683
54.450 9.454698
54.455 9.415497
54.460 9.696944
54.465 9.772375
54.470 10.33693
54.475 10.222451
54.480 9.871105
54.485 9.685779
54.490 9.349708
54.495 8.900054
54.500 8.444156
54.505 8.026872
54.510 8.494142
54.515 8.602962
54.520 8.349737
54.525 8.25646
54.530 8.419155
54.535 8.689116
54.540 8.829473
54.545 8.620291
54.550 8.986513
54.555 9.364431
54.560 9.663359
54.565 9.803247
54.570 10.275706
54.575 10.535647
54.580 10.297087
54.585 10.064572
54.590 10.099143
54.595 9.911242
54.600 9.791099
54.605 9.430714
54.610 9.027815
54.615 9.125729
54.620 9.7198
54.625 9.808522
54.630 9.695684
54.635 9.664025
54.640 9.955136
54.645 10.403632
54.650 9.9426
54.655 9.76798
54.660 9.950233
54.665 10.428074
54.670 10.269934
54.675 10.163285
54.680 10.092406
54.685 9.957929
54.690 9.525115
54.695 9.430427
54.700 9.492313
54.705 9.494433
54.710 9.406787
54.715 9.415243
54.720 9.768075
54.725 9.972793
54.730 9.848303
54.735 9.64117
54.740 9.870678
54.745 9.587892
54.750 9.507498
54.755 9.188485
54.760 8.819043
54.765 8.991508
54.770 9.161933
54.775 8.881672
54.780 9.197969
54.785 9.5036
54.790 9.628487
54.795 9.996993
54.800 9.688875
54.805 9.329272
54.810 9.230682
54.815 8.90758
54.820 8.747722
54.825 9.040766
54.830 8.946901
54.835 9.156032
54.840 9.543802
54.845 9.658399
54.850 10.001087
54.855 10.302875
54.860 9.686827
54.865 9.51644
54.870 9.646305
54.875 9.375994
54.880 9.634803
54.885 9.845861
54.890 9.587528
54.895 9.948253
54.900 9.634785
54.905 9.408263
54.910 9.713909
54.915 9.801046
54.920 9.773638
54.925 10.346221
54.930 10.383156
54.935 10.524558
54.940 10.371505
54.945 10.018769
54.950 9.701277
54.955 9.373441
54.960 9.142831
54.965 9.530499
54.970 9.949341
54.975 10.388279
54.980 10.373487
54.985 10.239259
54.990 10.091372
54.995 9.885018
55.000 9.357093
55.005 8.9651
55.010 9.030597
55.015 9.676126
55.020 9.967735
55.025 10.257672
55.030 10.139166
55.035 10.642421
55.040 10.88842
55.045 10.323478
55.050 10.287507
55.055 10.228732
55.060 10.25269
55.065 10.666801
55.070 11.058082
55.075 11.347466
55.080 11.547423
55.085 11.273955
55.090 11.204784
55.095 10.895611
55.100 10.644343
55.105 10.327022
55.110 10.193835
55.115 10.189096
55.120 10.375867
55.125 10.927055
55.130 11.019749
55.135 10.776995
55.140 10.352155
55.145 10.775693
55.150 10.419601
55.155 9.978576
55.160 9.625861
55.165 9.640652
55.170 9.212193
55.175 9.002689
55.180 8.83008
55.185 9.212194
55.190 9.700412
55.195 9.902884
55.200 10.475883
55.205 11.006452
55.210 11.164866
55.215 10.973214
55.220 10.708391
55.225 10.183592
55.230 9.930581
55.235 9.653008
55.240 9.753812
55.245 10.0861
55.250 10.513412
55.255 10.697123
55.260 10.761744
55.265 10.744024
55.270 10.679841
55.275 10.256108
55.280 9.83884
55.285 9.663275
55.290 9.374303
55.295 9.382161
55.300 9.480085
55.305 9.615049
55.310 9.924459
55.315 9.981862
55.320 10.092632
55.325 10.525608
55.330 10.597808
55.335 10.357259
55.340 10.370607
55.345 10.458525
55.350 10.715319
55.355 10.855565
55.360 11.066942
55.365 11.496005
55.370 11.37956
55.375 11.084218
55.380 11.094664
55.385 10.995686
55.390 11.174932
55.395 11.126776
55.400 10.707203
55.405 11.45063
55.410 11.848782
55.415 11.713593
55.420 11.627236
55.425 10.891106
55.430 10.829256
55.435 11.497328
55.440 10.981893
55.445 10.316511
55.450 10.448681
55.455 10.338573
55.460 10.791338
55.465 10.463228
55.470 9.812287
55.475 9.956812
55.480 10.002616
55.485 9.503863
55.490 9.376005
55.495 9.571794
55.500 9.932511
55.505 10.300054
55.510 10.306666
55.515 10.334345
55.520 10.469571
55.525 9.987524
55.530 9.501419
55.535 9.570272
55.540 9.269239
55.545 9.548438
55.550 10.159777
55.555 10.703786
55.560 11.117045
55.565 10.955046
55.570 10.626122
55.575 10.676758
55.580 10.164298
55.585 9.550809
55.590 9.288295
55.595 9.786174
55.600 10.235381
55.605 10.432198
55.610 10.880377
55.615 10.947371
55.620 10.901074
55.625 10.866831
55.630 10.601004
55.635 10.526055
55.640 10.366319
55.645 10.074097
55.650 10.511688
55.655 10.710942
55.660 10.645998
55.665 10.728268
55.670 10.988996
55.675 11.152555
55.680 11.573503
55.685 11.787475
55.690 12.255715
55.695 12.119046
55.700 11.624769
55.705 11.517727
55.710 10.825094
55.715 10.593877
55.720 10.184935
55.725 10.036423
55.730 10.26352
55.735 10.307126
55.740 10.408094
55.745 10.725007
55.750 10.737136
55.755 10.77521
55.760 10.7453
55.765 10.734839
55.770 10.698784
55.775 10.315428
55.780 10.239454
55.785 10.100697
55.790 9.69597
55.795 9.733767
55.800 9.820553
55.805 9.812081
55.810 9.999295
55.815 10.706411
55.820 10.99121
55.825 11.087902
55.830 11.109818
55.835 11.358161
55.840 11.954521
55.845 12.464149
55.850 12.393579
55.855 12.870984
55.860 13.029174
55.865 12.995984
55.870 12.696648
55.875 12.370436
55.880 11.973061
55.885 11.522596
55.890 11.345698
55.895 11.559665
55.900 11.333028
55.905 11.388886
55.910 11.538917
55.915 11.72875
55.920 11.870939
55.925 11.489704
55.930 11.218407
55.935 11.556745
55.940 11.554913
55.945 11.431632
55.950 11.450878
55.955 11.670899
55.960 11.940155
55.965 12.03126
55.970 11.913291
55.975 11.728355
55.980 11.837059
55.985 11.202271
55.990 10.328921
55.995 10.126874
56.000 9.969357
56.005 10.12195
56.010 10.429598
56.015 10.111962
56.020 11.023486
56.025 11.304413
56.030 11.517232
56.035 11.585424
56.040 10.994362
56.045 10.532709
56.050 9.882957
56.055 9.454367
56.060 9.654096
56.065 9.713302
56.070 10.230729
56.075 10.965149
56.080 11.135339
56.085 11.518126
56.090 11.259581
56.095 11.315453
56.100 11.331389
56.105 11.188639
56.110 10.766353
56.115 11.292975
56.120 11.85749
56.125 12.425024
56.130 12.280748
56.135 12.656579
56.140 12.755409
56.145 13.008664
56.150 12.487933
56.155 12.093288
56.160 12.184472
56.165 12.002776
56.170 11.196371
56.175 10.953438
56.180 10.454073
56.185 10.120527
56.190 10.505467
56.195 10.193295
56.200 10.402077
56.205 10.644336
56.210 10.994581
56.215 11.912624
56.220 12.36201
56.225 12.171605
56.230 12.009617
56.235 12.373008
56.240 13.009167
56.245 13.211877
56.250 13.411332
56.255 13.399289
56.260 13.346994
56.265 13.508427
56.270 12.934881
56.275 12.156824
56.280 11.339333
56.285 10.526491
56.290 10.325305
56.295 10.030256
56.300 9.849833
56.305 9.930214
56.310 10.428691
56.315 10.958095
56.320 11.147161
56.325 11.247419
56.330 11.728879
56.335 12.204975
56.340 12.186305
56.345 12.219602
56.350 12.349453
56.355 12.583364
56.360 12.820873
56.365 12.182077
56.370 12.438783
56.375 12.169278
56.380 11.485424
56.385 10.908325
56.390 10.877228
56.395 10.832431
56.400 11.188786
56.405 11.019443
56.410 11.380183
56.415 11.674611
56.420 12.062793
56.425 12.494307
56.430 12.878709
56.435 12.783404
56.440 12.471412
56.445 12.112566
56.450 11.589594
56.455 11.219053
56.460 10.682129
56.465 10.243059
56.470 9.99756
56.475 9.863846
56.480 10.421204
56.485 10.974939
56.490 11.257796
56.495 11.374838
56.500 11.631516
56.505 12.243156
56.510 12.444725
56.515 12.347164
56.520 12.113775
56.525 11.875213
56.530 11.558542
56.535 11.474466
56.540 10.981063
56.545 10.984106
56.550 11.542495
56.555 11.135865
56.560 10.920511
56.565 11.129629
56.570 11.179277
56.575 11.49081
56.580 11.248481
56.585 11.179464
56.590 11.774544
56.595 11.883312
56.600 11.552321
56.605 10.991304
56.610 10.681979
56.615 10.385016
56.620 10.444402
56.625 10.103923
56.630 10.298717
56.635 10.682863
56.640 11.118713
56.645 11.646323
56.650 11.573869
56.655 11.925304
56.660 12.669484
56.665 12.641912
56.670 12.796379
56.675 12.80096
56.680 12.808042
56.685 13.058511
56.690 12.762701
56.695 12.425672
56.700 12.609483
56.705 12.314069
56.710 12.234881
56.715 12.568242
56.720 12.493672
56.725 12.740707
56.730 12.986769
56.735 13.16181
56.740 13.912755
56.745 14.494088
56.750 14.795163
56.755 14.768188
56.760 14.608636
56.765 14.62181
56.770 14.166185
56.775 13.089097
56.780 11.932688
56.785 11.455831
56.790 10.973042
56.795 10.952433
56.800 10.804654
56.805 11.505961
56.810 12.230606
56.815 12.336504
56.820 12.283626
56.825 12.345944
56.830 12.075594
56.835 12.225617
56.840 11.896979
56.845 11.803555
56.850 12.104563
56.855 12.635653
56.860 12.84222
56.865 12.840525
56.870 12.687546
56.875 12.568734
56.880 12.7193
56.885 12.38545
56.890 11.800536
56.895 11.953989
56.900 11.96941
56.905 11.838285
56.910 11.635619
56.915 11.584728
56.920 11.746349
56.925 12.260674
56.930 12.455162
56.935 12.051646
56.940 11.611049
56.945 11.524253
56.950 11.019555
56.955 11.056587
56.960 11.047001
56.965 10.909907
56.970 11.317038
56.975 11.557225
56.980 11.622107
56.985 11.661538
56.990 11.399023
56.995 11.293537
57.000 11.644928
57.005 11.847528
57.010 12.292316
57.015 13.167069
57.020 13.429034
57.025 13.340986
57.030 12.983879
57.035 12.917504
57.040 12.702658
57.045 12.368747
57.050 11.860389
57.055 11.763959
57.060 11.768712
57.065 11.676265
57.070 11.345787
57.075 11.805138
57.080 11.967342
57.085 11.799503
57.090 11.435119
57.095 11.929642
57.100 12.368625
57.105 12.103333
57.110 11.609369
57.115 11.594605
57.120 12.247404
57.125 12.841326
57.130 12.444798
57.135 12.128711
57.140 12.580167
57.145 12.537011
57.150 12.57105
57.155 12.451367
57.160 12.422762
57.165 12.738935
57.170 12.680025
57.175 13.186563
57.180 13.665879
57.185 13.346987
57.190 12.981228
57.195 12.446465
57.200 12.155282
57.205 12.115005
57.210 11.184593
57.215 11.078812
57.220 11.133267
57.225 11.217516
57.230 11.389769
57.235 11.106022
57.240 10.849016
57.245 11.087522
57.250 11.039014
57.255 11.463741
57.260 11.579436
57.265 11.498229
57.270 11.989799
57.275 12.258635
57.280 12.331549
57.285 12.248707
57.290 12.144897
57.295 12.657049
57.300 13.143651
57.305 13.090787
57.310 13.062531
57.315 12.831771
57.320 13.038764
57.325 13.075463
57.330 12.944637
57.335 12.700742
57.340 12.479287
57.345 12.823581
57.350 12.983135
57.355 13.021222
57.360 12.588563
57.365 12.142203
57.370 12.113581
57.375 12.134946
57.380 12.026891
57.385 12.228745
57.390 12.0582
57.395 12.172443
57.400 12.544725
57.405 12.361135
57.410 12.617329
57.415 12.747591
57.420 12.390974
57.425 12.451717
57.430 12.968964
57.435 13.056612
57.440 13.623113
57.445 13.617484
57.450 14.122768
57.455 14.699215
57.460 14.982846
57.465 14.782063
57.470 14.679614
57.475 14.704348
57.480 14.163068
57.485 13.804396
57.490 13.399398
57.495 13.083091
57.500 13.447495
57.505 13.45532
57.510 12.804727
57.515 12.973818
57.520 12.849088
57.525 12.655157
57.530 12.412112
57.535 12.014814
57.540 11.533247
57.545 11.847729
57.550 12.007457
57.555 12.044407
57.560 12.111052
57.565 12.143101
57.570 12.374617
57.575 12.652763
57.580 12.700049
57.585 12.776551
57.590 12.890767
57.595 13.164255
57.600 13.511761
57.605 13.527997
57.610 13.960294
57.615 14.052986
57.620 13.974536
57.625 13.70566
57.630 13.94577
57.635 13.726872
57.640 13.15159
57.645 12.72555
57.650 12.725136
57.655 12.437972
57.660 11.926974
57.665 11.179118
57.670 11.039494
57.675 11.345688
57.680 11.306462
57.685 11.018274
57.690 11.317684
57.695 11.923108
57.700 12.138979
57.705 12.728415
57.710 13.095671
57.715 13.075141
57.720 13.296411
57.725 13.514228
57.730 13.700113
57.735 13.796433
57.740 13.791565
57.745 13.910515
57.750 14.316555
57.755 14.524841
57.760 14.178972
57.765 14.13138
57.770 13.699354
57.775 13.172839
57.780 13.069077
57.785 13.12985
57.790 13.381941
57.795 13.786454
57.800 14.048534
57.805 13.969545
57.810 14.050392
57.815 14.084838
57.820 13.968726
57.825 13.625428
57.830 13.746114
57.835 13.290361
57.840 13.130977
57.845 13.390045
57.850 13.787339
57.855 13.844377
57.860 13.516476
57.865 13.320918
57.870 14.001479
57.875 14.686114
57.880 14.423369
57.885 14.07749
57.890 14.116316
57.895 14.338024
57.900 14.922615
57.905 15.210503
57.910 14.995462
57.915 15.343565
57.920 15.268198
57.925 15.334464
57.930 15.694029
57.935 14.995888
57.940 13.993155
57.945 13.712887
57.950 13.558181
57.955 13.822765
57.960 13.777278
57.965 13.743894
57.970 14.217876
57.975 14.594412
57.980 14.857738
57.985 14.619303
57.990 13.985271
57.995 14.030774
58.000 14.109141
58.005 14.181919
58.010 14.51444
58.015 15.0839
58.020 15.586859
58.025 16.012119
58.030 16.299135
58.035 16.350687
58.040 16.334799
58.045 16.662344
58.050 16.515636
58.055 15.979975
58.060 15.976542
58.065 15.649593
58.070 16.095863
58.075 15.949977
58.080 15.20374
58.085 15.069922
58.090 15.097663
58.095 15.087918
58.100 15.270821
58.105 15.060853
58.110 15.233678
58.115 15.864727
58.120 16.231684
58.125 16.750435
58.130 16.752083
58.135 16.414433
58.140 16.342371
58.145 15.974118
58.150 15.577879
58.155 15.212779
58.160 15.031164
58.165 14.801598
58.170 14.619096
58.175 14.672808
58.180 14.901491
58.185 14.673285
58.190 14.860729
58.195 15.047117
58.200 15.407009
58.205 15.289729
58.210 15.464555
58.215 15.917163
58.220 16.05731
58.225 16.425833
58.230 16.22979
58.235 15.974824
58.240 15.953319
58.245 15.282051
58.250 15.335739
58.255 15.146664
58.260 14.984053
58.265 14.931979
58.270 15.154718
58.275 15.748698
58.280 16.314714
58.285 15.91113
58.290 16.061314
58.295 15.865162
58.300 16.386221
58.305 16.529612
58.310 16.642807
58.315 16.774656
58.320 17.602053
58.325 17.743298
58.330 17.582151
58.335 17.414154
58.340 16.88446
58.345 16.843029
58.350 16.94829
58.355 16.555908
58.360 16.613228
58.365 16.681683
58.370 17.145426
58.375 17.474104
58.380 17.511543
58.385 17.601044
58.390 18.321386
58.395 18.575279
58.400 18.65613
58.405 18.547924
58.410 18.964951
58.415 18.855421
58.420 18.865541
58.425 18.956642
58.430 19.31081
58.435 19.645124
58.440 20.448982
58.445 21.043612
58.450 21.863079
58.455 22.683525
58.460 23.209339
58.465 23.320122
58.470 23.565813
58.475 23.1647
58.480 23.11409
58.485 23.06979
58.490 22.496246
58.495 22.569353
58.500 23.152775
58.505 23.586584
58.510 24.41301
58.515 25.101648
58.520 25.203182
58.525 26.373444
58.530 26.376669
58.535 26.153795
58.540 25.838034
58.545 25.14559
58.550 24.776985
58.555 25.245718
