!@!!GADDS PLOTSO FILE: Chi integration type
!@!!Title/SampleName: map-165
!@!!Comment: ?
!@!!User: Bruker Instrument Administrator
!@!!Site: University of Illinois Chicago
!@!!Frame: map-165_01_000.gfrm
!@!!Wavelengths    1.54184   1.54056   1.54439
!@!!Frame angles: 2Theta: 63.000 Omega: 50.000 Phi: 0.000 Chi: 90.000
!@!!Integration range: 2Theta: 53.000 to 73.000  Gamma: -105.000 to -75.000
!@!!Integration method: bin normalized
!@!N
!@!SS
!@!M
!@!L 0.0 0.0 0.0 0.0
!@!XDegrees
!@!YCounts
53.000 4.150187
53.005 4.152137
53.010 4.238822
53.015 4.295504
53.020 4.215308
53.025 4.496857
53.030 4.514376
53.035 4.168213
53.040 4.261008
53.045 3.99869
53.050 3.861838
53.055 4.34839
53.060 4.38853
53.065 4.678608
53.070 4.74658
53.075 4.429075
53.080 4.573843
53.085 4.78129
53.090 4.49238
53.095 4.398346
53.100 4.41011
53.105 4.380958
53.110 4.857575
53.115 4.961344
53.120 4.516843
53.125 4.666873
53.130 4.520082
53.135 4.529697
53.140 4.578232
53.145 4.009666
53.150 4.577901
53.155 4.434644
53.160 4.400777
53.165 4.230494
53.170 3.932057
53.175 3.813741
53.180 3.72007
53.185 3.731704
53.190 3.761795
53.195 3.482247
53.200 3.443509
53.205 3.677653
53.210 3.777368
53.215 3.609404
53.220 3.251626
53.225 3.266693
53.230 3.297727
53.235 3.270164
53.240 2.962502
53.245 3.041676
53.250 2.971343
53.255 3.39162
53.260 3.504322
53.265 3.698815
53.270 3.794994
53.275 3.878717
53.280 4.191555
53.285 4.326489
53.290 4.452896
53.295 4.424311
53.300 4.086555
53.305 4.020175
53.310 3.863113
53.315 3.624831
53.320 3.457347
53.325 3.245574
53.330 3.535527
53.335 3.62648
53.340 3.81838
53.345 4.114489
53.350 4.049478
53.355 3.967318
53.360 3.81354
53.365 3.786785
53.370 4.08448
53.375 3.922993
53.380 3.746793
53.385 3.816589
53.390 3.832162
53.395 4.041849
53.400 4.006334
53.405 3.868881
53.410 3.717741
53.415 3.591484
53.420 3.569494
53.425 3.646569
53.430 3.531083
53.435 3.495198
53.440 3.613271
53.445 3.996897
53.450 4.076336
53.455 4.032043
53.460 4.047866
53.465 4.024513
53.470 4.060972
53.475 3.918853
53.480 3.671983
53.485 3.668245
53.490 3.517192
53.495 3.627328
53.500 3.511627
53.505 3.697159
53.510 3.937728
53.515 4.043534
53.520 4.305707
53.525 4.497268
53.530 4.307062
53.535 4.533242
53.540 4.381453
53.545 4.1392
53.550 3.99174
53.555 3.603472
53.560 3.447194
53.565 3.668955
53.570 3.510096
53.575 3.635166
53.580 3.812465
53.585 3.915807
53.590 4.082157
53.595 4.248141
53.600 4.103233
53.605 4.055537
53.610 3.940144
53.615 3.729012
53.620 3.826282
53.625 3.53904
53.630 3.160322
53.635 3.43505
53.640 3.396287
53.645 3.563507
53.650 3.740109
53.655 3.840826
53.660 4.166782
53.665 4.23505
53.670 4.169028
53.675 4.199642
53.680 4.053271
53.685 4.190787
53.690 4.159184
53.695 4.324528
53.700 4.25596
53.705 4.37623
53.710 4.492638
53.715 4.346845
53.720 3.996536
53.725 3.968906
53.730 3.977883
53.735 3.989818
53.740 3.822534
53.745 4.000446
53.750 4.139687
53.755 4.241791
53.760 4.127326
53.765 4.081369
53.770 4.209779
53.775 3.916968
53.780 3.465704
53.785 3.274269
53.790 3.128141
53.795 3.125788
53.800 3.187131
53.805 3.268209
53.810 3.423887
53.815 4.032218
53.820 4.457572
53.825 4.884958
53.830 4.846527
53.835 4.621608
53.840 4.569251
53.845 4.513065
53.850 4.168126
53.855 3.82239
53.860 3.520566
53.865 3.464164
53.870 3.533407
53.875 3.621476
53.880 3.690762
53.885 3.543231
53.890 3.557177
53.895 3.537845
53.900 3.566605
53.905 3.518538
53.910 3.44824
53.915 3.410125
53.920 3.697567
53.925 3.607625
53.930 3.760678
53.935 3.588157
53.940 3.424519
53.945 3.489363
53.950 3.627589
53.955 3.749769
53.960 3.725404
53.965 4.043586
53.970 4.154444
53.975 4.201264
53.980 4.055874
53.985 3.927784
53.990 4.028016
53.995 3.990303
54.000 3.749285
54.005 3.712659
54.010 3.725653
54.015 3.652107
54.020 3.897152
54.025 3.896369
54.030 4.160553
54.035 4.378739
54.040 4.399269
54.045 4.453544
54.050 4.279448
54.055 4.048529
54.060 3.85247
54.065 3.692601
54.070 3.677975
54.075 3.664611
54.080 4.070083
54.085 4.308961
54.090 4.262718
54.095 4.364058
54.100 4.173783
54.105 4.117552
54.110 4.065859
54.115 3.409689
54.120 3.252163
54.125 3.460258
54.130 3.322517
54.135 3.193095
54.140 3.07212
54.145 2.915931
54.150 3.078599
54.155 2.807545
54.160 2.769437
54.165 2.956758
54.170 3.380652
54.175 3.676201
54.180 3.876491
54.185 3.800677
54.190 3.922563
54.195 3.739691
54.200 3.592432
54.205 3.156417
54.210 2.974843
54.215 2.882184
54.220 3.346296
54.225 3.649479
54.230 3.810265
54.235 3.848014
54.240 4.209771
54.245 4.415573
54.250 4.439427
54.255 4.366415
54.260 4.498081
54.265 4.609451
54.270 4.697874
54.275 4.424909
54.280 4.336198
54.285 4.22346
54.290 4.00901
54.295 3.562823
54.300 3.685733
54.305 3.880861
54.310 3.914515
54.315 3.923964
54.320 4.148061
54.325 4.041462
54.330 4.227918
54.335 3.7887
54.340 3.560352
54.345 3.548931
54.350 3.584583
54.355 3.755929
54.360 3.938662
54.365 3.806354
54.370 4.233561
54.375 4.6297
54.380 4.93306
54.385 4.571716
54.390 4.216048
54.395 4.581432
54.400 4.625335
54.405 4.287197
54.410 3.761068
54.415 3.561084
54.420 3.716276
54.425 3.736602
54.430 3.627905
54.435 3.842234
54.440 3.971084
54.445 4.4188
54.450 4.439526
54.455 4.416617
54.460 4.266953
54.465 4.168557
54.470 4.162164
54.475 4.067534
54.480 3.927717
54.485 3.955164
54.490 3.88272
54.495 4.224343
54.500 4.069813
54.505 4.162577
54.510 4.300264
54.515 4.289725
54.520 4.342162
54.525 4.297564
54.530 4.115841
54.535 4.016912
54.540 4.19324
54.545 4.460387
54.550 4.651039
54.555 4.930789
54.560 5.065392
54.565 5.095715
54.570 4.989038
54.575 4.392681
54.580 4.150829
54.585 3.998705
54.590 3.755582
54.595 3.676839
54.600 3.619732
54.605 3.873874
54.610 3.903495
54.615 3.74573
54.620 4.048116
54.625 4.043625
54.630 3.965873
54.635 4.143791
54.640 4.177159
54.645 4.5876
54.650 4.351177
54.655 4.105288
54.660 4.345908
54.665 4.283032
54.670 3.98647
54.675 3.781611
54.680 3.541856
54.685 3.756435
54.690 3.77785
54.695 3.603141
54.700 3.596914
54.705 3.75279
54.710 3.803028
54.715 4.055865
54.720 4.309393
54.725 4.336113
54.730 4.704079
54.735 4.81111
54.740 4.97648
54.745 5.091393
54.750 4.802968
54.755 4.733671
54.760 4.828823
54.765 5.049893
54.770 5.226137
54.775 5.316218
54.780 5.152397
54.785 5.437928
54.790 5.099091
54.795 4.882414
54.800 4.512813
54.805 4.274702
54.810 3.958791
54.815 4.029426
54.820 3.76759
54.825 3.768421
54.830 3.918036
54.835 4.074247
54.840 4.004961
54.845 4.335824
54.850 4.280241
54.855 4.511764
54.860 4.568643
54.865 4.25876
54.870 4.213185
54.875 4.26125
54.880 3.961918
54.885 3.705927
54.890 3.62518
54.895 3.485688
54.900 3.610367
54.905 3.678463
54.910 3.577668
54.915 3.561559
54.920 3.71826
54.925 3.596848
54.930 3.668422
54.935 3.485379
54.940 3.289986
54.945 3.44261
54.950 3.697743
54.955 3.715083
54.960 3.879545
54.965 4.010549
54.970 4.330032
54.975 4.624544
54.980 4.651566
54.985 4.520767
54.990 4.424312
54.995 4.335082
55.000 4.407216
55.005 4.186625
55.010 4.197858
55.015 4.169137
55.020 4.29434
55.025 4.575373
55.030 4.650105
55.035 4.496664
55.040 4.415998
55.045 4.185361
55.050 4.55321
55.055 4.671553
55.060 4.7372
55.065 4.842809
55.070 4.805314
55.075 4.944167
55.080 4.658924
55.085 4.423636
55.090 4.116049
55.095 3.90051
55.100 3.685333
55.105 3.619682
55.110 3.756323
55.115 3.843462
55.120 3.832304
55.125 4.419347
55.130 4.432686
55.135 4.808421
55.140 4.639215
55.145 4.539577
55.150 4.446618
55.155 3.954152
55.160 3.544645
55.165 3.340778
55.170 3.025795
55.175 3.152899
55.180 3.503545
55.185 3.982694
55.190 3.946876
55.195 3.934046
55.200 4.17893
55.205 4.297225
55.210 4.125422
55.215 3.87158
55.220 3.514373
55.225 3.593184
55.230 3.562906
55.235 3.403312
55.240 3.577579
55.245 3.710659
55.250 3.548699
55.255 3.586635
55.260 3.8343
55.265 3.753729
55.270 3.766815
55.275 3.517034
55.280 3.439023
55.285 3.520803
55.290 3.99721
55.295 4.051737
55.300 4.069996
55.305 4.374776
55.310 4.592398
55.315 4.641896
55.320 4.874396
55.325 4.647329
55.330 4.67294
55.335 4.858912
55.340 4.622333
55.345 4.526879
55.350 4.411576
55.355 4.141072
55.360 4.154716
55.365 4.144433
55.370 3.924198
55.375 3.917671
55.380 3.939279
55.385 4.041432
55.390 3.938555
55.395 3.950338
55.400 3.758895
55.405 3.78003
55.410 3.766773
55.415 3.76081
55.420 3.919121
55.425 3.649671
55.430 3.593415
55.435 3.796006
55.440 4.110663
55.445 4.09768
55.450 3.865946
55.455 3.80602
55.460 4.310747
55.465 4.74391
55.470 4.799951
55.475 4.473639
55.480 4.341295
55.485 4.465117
55.490 4.979692
55.495 4.709201
55.500 4.198748
55.505 3.961992
55.510 3.997978
55.515 3.987946
55.520 3.847876
55.525 3.733702
55.530 4.068115
55.535 4.292857
55.540 4.291468
55.545 4.574002
55.550 5.134205
55.555 5.557796
55.560 5.244761
55.565 4.974331
55.570 4.913752
55.575 4.957229
55.580 4.999109
55.585 4.758962
55.590 4.541293
55.595 4.645367
55.600 4.639561
55.605 4.60597
55.610 4.630321
55.615 4.535777
55.620 4.327826
55.625 4.037741
55.630 4.195937
55.635 4.338944
55.640 4.584199
55.645 4.410566
55.650 4.152071
55.655 4.188661
55.660 4.433665
55.665 4.217025
55.670 4.037342
55.675 3.915166
55.680 4.0572
55.685 4.280565
55.690 4.366596
55.695 4.126296
55.700 3.759235
55.705 3.581333
55.710 3.58674
55.715 3.594759
55.720 3.61499
55.725 3.505913
55.730 3.75269
55.735 4.181467
55.740 4.379694
55.745 4.151651
55.750 4.257616
55.755 4.360388
55.760 4.368259
55.765 4.587426
55.770 4.844091
55.775 4.918739
55.780 5.296176
55.785 5.076565
55.790 4.907218
55.795 4.817118
55.800 4.514384
55.805 3.831453
55.810 3.806744
55.815 3.726475
55.820 4.075228
55.825 4.200334
55.830 4.22148
55.835 4.399007
55.840 4.622842
55.845 4.576941
55.850 4.375673
55.855 4.269754
55.860 4.268914
55.865 4.287169
55.870 4.881793
55.875 5.012579
55.880 4.932657
55.885 5.140577
55.890 5.380078
55.895 5.405883
55.900 5.673122
55.905 5.255265
55.910 5.294875
55.915 5.506804
55.920 5.608752
55.925 5.131309
55.930 5.002765
55.935 4.489019
55.940 4.458499
55.945 4.805905
55.950 4.745179
55.955 4.645957
55.960 4.709256
55.965 4.685409
55.970 4.929633
55.975 4.884667
55.980 4.970186
55.985 4.815467
55.990 4.88806
55.995 4.797422
56.000 4.886992
56.005 4.874433
56.010 4.699383
56.015 4.211248
56.020 4.031193
56.025 4.23142
56.030 4.219922
56.035 4.136543
56.040 4.039148
56.045 4.04359
56.050 4.476521
56.055 4.435804
56.060 4.168939
56.065 4.224404
56.070 4.28792
56.075 4.06685
56.080 4.137635
56.085 4.168065
56.090 4.051746
56.095 4.231314
56.100 4.394628
56.105 4.522483
56.110 4.72091
56.115 4.556402
56.120 4.507892
56.125 4.520239
56.130 4.506957
56.135 4.149921
56.140 4.114502
56.145 4.256484
56.150 4.432982
56.155 4.783478
56.160 4.593115
56.165 4.708987
56.170 4.787224
56.175 4.502343
56.180 4.496212
56.185 4.11604
56.190 3.776825
56.195 3.897756
56.200 3.918636
56.205 4.211519
56.210 4.529368
56.215 4.500624
56.220 4.626242
56.225 5.001268
56.230 5.107598
56.235 5.087036
56.240 5.022135
56.245 5.041145
56.250 4.964805
56.255 4.831077
56.260 4.568028
56.265 4.29692
56.270 4.25727
56.275 4.156621
56.280 4.074215
56.285 4.230335
56.290 4.457969
56.295 4.529268
56.300 4.751852
56.305 5.081886
56.310 5.140885
56.315 4.767985
56.320 4.457985
56.325 4.118309
56.330 4.352921
56.335 4.318481
56.340 4.370532
56.345 4.351902
56.350 4.801054
56.355 5.218861
56.360 5.42345
56.365 5.312916
56.370 4.915781
56.375 4.593061
56.380 4.493684
56.385 4.306482
56.390 4.312854
56.395 4.595922
56.400 4.819224
56.405 5.237743
56.410 5.385879
56.415 5.39144
56.420 5.198668
56.425 4.944528
56.430 4.989003
56.435 4.882322
56.440 4.540602
56.445 4.825966
56.450 5.08188
56.455 5.108082
56.460 4.884742
56.465 4.679989
56.470 4.621258
56.475 4.648663
56.480 4.231387
56.485 4.020789
56.490 4.195705
56.495 4.392776
56.500 4.303785
56.505 4.379599
56.510 4.533994
56.515 4.600778
56.520 4.679055
56.525 4.609362
56.530 4.241996
56.535 4.333559
56.540 4.185056
56.545 3.946577
56.550 4.31282
56.555 4.564487
56.560 4.595739
56.565 5.031574
56.570 5.100696
56.575 5.173434
56.580 5.233926
56.585 4.952926
56.590 4.944072
56.595 5.104369
56.600 4.949459
56.605 4.975335
56.610 4.855425
56.615 4.660082
56.620 4.7079
56.625 4.743813
56.630 4.650694
56.635 4.383877
56.640 4.218357
56.645 4.588818
56.650 4.710797
56.655 4.518495
56.660 4.402859
56.665 4.702378
56.670 5.039646
56.675 5.206805
56.680 5.056494
56.685 5.343749
56.690 5.525307
56.695 5.390706
56.700 5.157622
56.705 5.15334
56.710 4.997163
56.715 4.866711
56.720 4.871082
56.725 4.996775
56.730 5.17318
56.735 5.352128
56.740 5.419816
56.745 5.495265
56.750 5.40449
56.755 5.275277
56.760 4.801098
56.765 4.494267
56.770 4.353433
56.775 4.265511
56.780 4.332524
56.785 4.359109
56.790 4.522528
56.795 4.653378
56.800 4.708241
56.805 4.891064
56.810 4.792869
56.815 4.837687
56.820 4.932286
56.825 4.693596
56.830 5.199286
56.835 5.204743
56.840 5.078061
56.845 5.28145
56.850 5.314372
56.855 5.421896
56.860 5.347123
56.865 5.098632
56.870 5.339025
56.875 5.277447
56.880 5.258066
56.885 5.002502
56.890 4.688931
56.895 4.702168
56.900 4.607069
56.905 4.196253
56.910 4.043712
56.915 4.033695
56.920 3.979721
56.925 4.450704
56.930 4.812249
56.935 4.968313
56.940 5.436195
56.945 5.72085
56.950 5.686825
56.955 5.70386
56.960 5.350542
56.965 5.069865
56.970 5.206013
56.975 4.797963
56.980 4.690614
56.985 4.776574
56.990 5.020474
56.995 5.194553
57.000 5.053418
57.005 4.833112
57.010 4.90873
57.015 5.071433
57.020 5.434649
57.025 5.578625
57.030 5.470946
57.035 5.549321
57.040 5.485297
57.045 5.400181
57.050 5.429994
57.055 4.837208
57.060 4.573487
57.065 4.51879
57.070 4.495035
57.075 4.583424
57.080 4.477185
57.085 4.184012
57.090 4.349684
57.095 4.523777
57.100 4.749647
57.105 5.305494
57.110 5.290655
57.115 5.178783
57.120 5.438101
57.125 5.388764
57.130 5.33257
57.135 5.401465
57.140 5.11178
57.145 5.207479
57.150 5.383917
57.155 5.358131
57.160 5.285266
57.165 5.206697
57.170 4.754879
57.175 4.59681
57.180 4.752483
57.185 4.743357
57.190 4.981604
57.195 5.088689
57.200 5.086843
57.205 5.264823
57.210 5.036999
57.215 4.825204
57.220 4.969774
57.225 4.961875
57.230 5.022068
57.235 5.001233
57.240 5.114251
57.245 5.306054
57.250 5.417312
57.255 5.08752
57.260 4.778863
57.265 4.548468
57.270 4.754249
57.275 4.819315
57.280 5.295346
57.285 5.527854
57.290 5.437531
57.295 5.552398
57.300 5.868684
57.305 5.704216
57.310 5.539687
57.315 5.094368
57.320 5.205148
57.325 5.589101
57.330 5.632659
57.335 5.350068
57.340 5.422268
57.345 5.759832
57.350 5.901096
57.355 5.52552
57.360 5.328622
57.365 5.037425
57.370 5.00667
57.375 4.805503
57.380 4.611415
57.385 4.351423
57.390 4.412043
57.395 4.511342
57.400 4.879897
57.405 5.29559
57.410 5.290429
57.415 5.061494
57.420 4.946405
57.425 4.944163
57.430 4.832869
57.435 4.332498
57.440 4.016919
57.445 4.056472
57.450 4.378006
57.455 4.520466
57.460 4.886385
57.465 4.855089
57.470 5.033004
57.475 4.904182
57.480 4.891096
57.485 4.781826
57.490 4.943466
57.495 4.630997
57.500 4.52735
57.505 4.8212
57.510 4.837903
57.515 4.887308
57.520 4.74403
57.525 4.345516
57.530 4.339635
57.535 4.513461
57.540 4.493218
57.545 4.602276
57.550 4.55423
57.555 4.650386
57.560 4.888656
57.565 5.037483
57.570 5.359122
57.575 5.290938
57.580 5.602297
57.585 5.660051
57.590 5.516819
57.595 5.260654
57.600 5.166137
57.605 4.663421
57.610 4.635316
57.615 4.293781
57.620 4.222816
57.625 4.474006
57.630 4.55945
57.635 4.703744
57.640 5.389852
57.645 5.258402
57.650 5.531393
57.655 5.641295
57.660 5.630999
57.665 5.495873
57.670 5.179282
57.675 4.708685
57.680 4.770614
57.685 4.694515
57.690 4.648115
57.695 4.468345
57.700 4.829861
57.705 5.242991
57.710 5.252829
57.715 5.549541
57.720 5.543071
57.725 5.566281
57.730 5.643763
57.735 5.249468
57.740 4.952262
57.745 5.077075
57.750 4.890773
57.755 4.876191
57.760 4.737937
57.765 4.793392
57.770 4.846612
57.775 5.012862
57.780 4.698139
57.785 4.380279
57.790 4.224916
57.795 4.456652
57.800 4.65386
57.805 4.860379
57.810 4.455098
57.815 4.63751
57.820 5.065047
57.825 5.187262
57.830 5.038001
57.835 4.934913
57.840 4.840858
57.845 4.930192
57.850 4.675889
57.855 4.361526
57.860 4.159688
57.865 4.109577
57.870 3.910719
57.875 3.910351
57.880 4.088483
57.885 4.320511
57.890 4.814394
57.895 5.217682
57.900 5.631745
57.905 5.836646
57.910 6.155301
57.915 6.340585
57.920 6.169415
57.925 5.804904
57.930 5.740587
57.935 5.818142
57.940 5.956059
57.945 5.966119
57.950 6.006763
57.955 6.099536
57.960 6.097724
57.965 6.02378
57.970 5.759337
57.975 5.608989
57.980 5.41993
57.985 5.322517
57.990 5.194042
57.995 5.174675
58.000 5.162031
58.005 4.875366
58.010 4.474353
58.015 4.35363
58.020 4.100299
58.025 3.937624
58.030 3.69675
58.035 3.546887
58.040 3.638052
58.045 4.156384
58.050 4.620533
58.055 4.975034
58.060 5.065174
58.065 5.049818
58.070 4.990776
58.075 4.998709
58.080 4.384058
58.085 3.973319
58.090 3.670885
58.095 3.866748
58.100 4.201886
58.105 4.667043
58.110 4.826121
58.115 5.074769
58.120 5.334287
58.125 5.673677
58.130 5.667703
58.135 5.459614
58.140 5.283652
58.145 5.106732
58.150 5.385701
58.155 5.300086
58.160 5.298328
58.165 5.444591
58.170 5.556347
58.175 5.696354
58.180 5.956541
58.185 5.82787
58.190 5.81469
58.195 5.833375
58.200 5.834309
58.205 5.744805
58.210 5.8011
58.215 5.610768
58.220 5.277681
58.225 4.903172
58.230 4.77431
58.235 4.689782
58.240 4.902257
58.245 4.430724
58.250 4.480624
58.255 4.585622
58.260 5.007145
58.265 5.130209
58.270 5.087317
58.275 5.123064
58.280 5.647791
58.285 5.695508
58.290 5.766285
58.295 5.868788
58.300 5.938324
58.305 6.165107
58.310 6.235659
58.315 6.014719
58.320 6.077962
58.325 6.308545
58.330 6.048843
58.335 6.056235
58.340 5.872875
58.345 5.437078
58.350 5.516048
58.355 5.527868
58.360 5.461105
58.365 5.325595
58.370 4.930251
58.375 4.795243
58.380 4.877444
58.385 5.145708
58.390 5.13666
58.395 5.131125
58.400 5.333034
58.405 5.574934
58.410 5.858077
58.415 6.104611
58.420 6.013326
58.425 5.630442
58.430 5.166646
58.435 5.261564
58.440 5.515577
58.445 5.504636
58.450 5.056363
58.455 4.884637
58.460 4.969778
58.465 5.221685
58.470 5.21943
58.475 4.838976
58.480 4.856755
58.485 4.962729
58.490 5.029906
58.495 5.369596
58.500 5.574699
58.505 5.803476
58.510 6.276791
58.515 6.580773
58.520 6.943384
58.525 7.169188
58.530 7.479733
58.535 7.224685
58.540 6.625956
58.545 6.384305
58.550 6.581756
58.555 6.69653
58.560 6.580312
58.565 6.275974
58.570 6.435102
58.575 6.497634
58.580 6.42363
58.585 6.272188
58.590 6.075088
58.595 6.083138
58.600 6.256525
58.605 6.275927
58.610 6.386709
58.615 6.352164
58.620 6.459843
58.625 7.042002
58.630 7.231617
58.635 6.8614
58.640 6.866847
58.645 6.701708
58.650 6.775617
58.655 6.795449
58.660 6.888909
58.665 6.973832
58.670 7.121582
58.675 7.244586
58.680 7.512617
58.685 7.33003
58.690 7.298574
58.695 6.821796
58.700 6.444215
58.705 6.482372
58.710 6.254539
58.715 6.369592
58.720 6.61224
58.725 6.335775
58.730 6.18117
58.735 6.614123
58.740 6.785221
58.745 7.106707
58.750 6.949615
58.755 6.613499
58.760 6.721548
58.765 7.079929
