!@!!GADDS PLOTSO FILE: Chi integration type
!@!!Title/SampleName: map-18c
!@!!Comment: ?
!@!!User: Bruker Instrument Administrator
!@!!Site: University of Illinois Chicago
!@!!Frame: map-18c_01_000.gfrm
!@!!Wavelengths    1.54184   1.54056   1.54439
!@!!Frame angles: 2Theta: 63.000 Omega: 50.000 Phi: 0.000 Chi: 90.000
!@!!Integration range: 2Theta: 53.000 to 73.000  Gamma: -105.000 to -75.000
!@!!Integration method: bin normalized
!@!N
!@!SS
!@!M
!@!L 0.0 0.0 0.0 0.0
!@!XDegrees
!@!YCounts
53.000 8.328719
53.005 8.368276
53.010 8.741605
53.015 8.902888
53.020 8.782407
53.025 9.001468
53.030 9.270059
53.035 9.152078
53.040 9.248533
53.045 8.897446
53.050 9.19232
53.055 9.312873
53.060 9.190176
53.065 8.87385
53.070 8.874964
53.075 8.89439
53.080 8.703753
53.085 7.730506
53.090 7.526641
53.095 7.678332
53.100 7.75408
53.105 7.723085
53.110 7.958736
53.115 8.616235
53.120 9.1001
53.125 8.932329
53.130 9.017766
53.135 8.93401
53.140 9.126534
53.145 9.016486
53.150 8.73503
53.155 8.791654
53.160 8.9525
53.165 9.211164
53.170 9.416951
53.175 9.069716
53.180 8.718441
53.185 8.505406
53.190 7.766259
53.195 7.579951
53.200 7.060138
53.205 6.833661
53.210 7.127688
53.215 7.278614
53.220 7.971624
53.225 8.662387
53.230 8.835346
53.235 8.965791
53.240 9.018983
53.245 8.824578
53.250 8.963181
53.255 8.736757
53.260 8.45883
53.265 8.499875
53.270 8.894258
53.275 8.915315
53.280 8.47904
53.285 8.150395
53.290 8.187773
53.295 8.297849
53.300 8.435945
53.305 7.946267
53.310 8.010764
53.315 8.344442
53.320 8.168007
53.325 7.946972
53.330 7.459749
53.335 7.385575
53.340 7.900984
53.345 8.115426
53.350 8.909889
53.355 9.072614
53.360 9.296958
53.365 9.651794
53.370 9.809451
53.375 9.46648
53.380 9.155704
53.385 8.152163
53.390 8.028773
53.395 7.913713
53.400 7.672805
53.405 7.565366
53.410 7.657854
53.415 7.88514
53.420 8.385176
53.425 8.277867
53.430 8.296951
53.435 8.309153
53.440 8.225465
53.445 8.284538
53.450 8.46148
53.455 9.007053
53.460 9.46203
53.465 9.35586
53.470 9.524007
53.475 9.622243
53.480 9.70669
53.485 9.035145
53.490 8.220662
53.495 8.236457
53.500 8.643899
53.505 8.741158
53.510 8.331706
53.515 8.434106
53.520 8.889259
53.525 9.035288
53.530 8.745808
53.535 8.784423
53.540 8.960265
53.545 9.164883
53.550 8.727521
53.555 8.855744
53.560 8.869546
53.565 8.850786
53.570 8.430328
53.575 8.115869
53.580 8.183454
53.585 8.66592
53.590 8.660119
53.595 9.013014
53.600 9.139209
53.605 9.250161
53.610 9.731239
53.615 9.669941
53.620 9.47478
53.625 9.237537
53.630 8.883169
53.635 8.68804
53.640 8.406106
53.645 7.880437
53.650 7.90648
53.655 8.057706
53.660 8.166963
53.665 8.342016
53.670 8.299822
53.675 8.345624
53.680 8.356741
53.685 8.215941
53.690 8.218199
53.695 8.445545
53.700 8.387935
53.705 8.886889
53.710 9.402949
53.715 9.579029
53.720 9.741117
53.725 9.627483
53.730 9.879529
53.735 10.157869
53.740 10.287627
53.745 10.277963
53.750 10.425565
53.755 10.58468
53.760 10.416605
53.765 10.214703
53.770 10.085414
53.775 9.961718
53.780 10.071649
53.785 9.667442
53.790 9.779982
53.795 10.001083
53.800 10.243591
53.805 10.088688
53.810 10.047011
53.815 10.485273
53.820 10.504949
53.825 9.826737
53.830 9.774323
53.835 9.650956
53.840 9.646152
53.845 9.629191
53.850 9.268336
53.855 9.811284
53.860 10.515013
53.865 10.257268
53.870 10.26687
53.875 10.421625
53.880 10.387
53.885 10.324365
53.890 9.831911
53.895 9.472165
53.900 9.240311
53.905 9.076763
53.910 9.259892
53.915 9.567188
53.920 9.916024
53.925 9.901571
53.930 9.754481
53.935 9.939999
53.940 9.784483
53.945 9.042195
53.950 8.497832
53.955 8.580065
53.960 8.482042
53.965 8.993477
53.970 8.975714
53.975 9.592049
53.980 9.899747
53.985 9.939954
53.990 9.626521
53.995 9.074584
54.000 8.691718
54.005 8.524462
54.010 7.980949
54.015 7.929864
54.020 8.064349
54.025 8.347027
54.030 8.891748
54.035 9.155427
54.040 9.638526
54.045 9.683152
54.050 9.671589
54.055 9.515393
54.060 9.462081
54.065 9.671933
54.070 9.346133
54.075 8.956716
54.080 8.933495
54.085 9.168205
54.090 9.455189
54.095 9.130469
54.100 9.127482
54.105 8.952543
54.110 8.449042
54.115 8.057935
54.120 7.822252
54.125 7.683386
54.130 8.106527
54.135 7.970934
54.140 8.620805
54.145 9.192627
54.150 9.262444
54.155 9.035377
54.160 9.230612
54.165 8.987459
54.170 8.906269
54.175 8.64622
54.180 8.827116
54.185 9.299954
54.190 9.393025
54.195 9.42262
54.200 9.961105
54.205 10.042482
54.210 10.284692
54.215 9.846396
54.220 9.374915
54.225 9.484408
54.230 9.603274
54.235 9.630464
54.240 9.499563
54.245 9.46583
54.250 9.415931
54.255 9.506455
54.260 9.576157
54.265 9.20209
54.270 8.887486
54.275 8.560533
54.280 8.608664
54.285 9.015995
54.290 9.315495
54.295 9.048313
54.300 8.754491
54.305 9.090314
54.310 9.035764
54.315 9.080093
54.320 9.108111
54.325 9.071397
54.330 9.551024
54.335 9.313763
54.340 8.738422
54.345 8.84425
54.350 8.622248
54.355 8.21492
54.360 7.778664
54.365 7.972507
54.370 8.147104
54.375 8.335893
54.380 8.004634
54.385 8.052324
54.390 8.380572
54.395 8.176151
54.400 8.421014
54.405 8.931828
54.410 9.480516
54.415 9.788835
54.420 10.00956
54.425 10.219987
54.430 10.369238
54.435 9.93183
54.440 9.533381
54.445 9.22556
54.450 9.365844
54.455 9.375766
54.460 9.827317
54.465 9.508101
54.470 9.415613
54.475 9.338437
54.480 9.143369
54.485 9.301176
54.490 9.190392
54.495 8.850375
54.500 8.683892
54.505 8.87869
54.510 8.916596
54.515 8.875635
54.520 8.605612
54.525 8.243206
54.530 8.013649
54.535 7.733372
54.540 7.445849
54.545 7.416673
54.550 7.490584
54.555 7.704124
54.560 7.786949
54.565 7.9297
54.570 8.119477
54.575 8.570888
54.580 9.080991
54.585 9.403104
54.590 9.641751
54.595 9.920227
54.600 10.34454
54.605 10.314344
54.610 10.637949
54.615 10.268447
54.620 9.930475
54.625 9.761478
54.630 9.506286
54.635 9.232333
54.640 8.792579
54.645 8.130723
54.650 8.088715
54.655 8.2205
54.660 8.00926
54.665 8.122601
54.670 8.501068
54.675 9.098425
54.680 8.895494
54.685 9.043038
54.690 9.209589
54.695 9.942047
54.700 9.841145
54.705 9.699874
54.710 10.017305
54.715 10.323857
54.720 10.469197
54.725 10.153043
54.730 9.462378
54.735 9.49504
54.740 9.534912
54.745 8.960905
54.750 9.245049
54.755 8.813997
54.760 8.845966
54.765 9.207349
54.770 9.26913
54.775 9.160042
54.780 8.903796
54.785 8.919237
54.790 8.916202
54.795 8.9449
54.800 8.745007
54.805 8.749406
54.810 9.011792
54.815 9.12661
54.820 9.224788
54.825 9.348623
54.830 9.131111
54.835 9.051816
54.840 9.131784
54.845 9.381695
54.850 9.309319
54.855 9.075906
54.860 9.139181
54.865 9.47394
54.870 10.1165
54.875 10.333474
54.880 10.266535
54.885 10.336058
54.890 10.212037
54.895 10.448189
54.900 10.178312
54.905 9.576411
54.910 9.651264
54.915 9.661578
54.920 9.675408
54.925 9.832077
54.930 9.408684
54.935 9.324283
54.940 9.246076
54.945 9.137369
54.950 9.815017
54.955 10.083047
54.960 10.015862
54.965 9.977931
54.970 10.196586
54.975 10.344195
54.980 10.255951
54.985 9.803872
54.990 9.97325
54.995 10.260057
55.000 10.304233
55.005 10.260205
55.010 10.294712
55.015 10.525042
55.020 10.783204
55.025 11.092443
55.030 11.055333
55.035 11.177775
55.040 11.196016
55.045 10.784141
55.050 10.027383
55.055 9.549987
55.060 9.308081
55.065 9.325179
55.070 9.566467
55.075 9.830363
55.080 10.356585
55.085 10.336746
55.090 10.121172
55.095 9.823593
55.100 9.377604
55.105 9.034737
55.110 8.822412
55.115 8.568464
55.120 7.987112
55.125 7.994476
55.130 8.226177
55.135 8.516937
55.140 8.39994
55.145 8.387897
55.150 8.442919
55.155 9.351723
55.160 9.720957
55.165 9.466154
55.170 9.569483
55.175 9.557564
55.180 9.549885
55.185 9.467713
55.190 9.333434
55.195 9.19783
55.200 9.370821
55.205 9.283269
55.210 9.164613
55.215 9.466347
55.220 9.457408
55.225 9.269423
55.230 8.986811
55.235 8.74869
55.240 8.692499
55.245 8.702652
55.250 8.315016
55.255 8.442178
55.260 8.416824
55.265 8.658268
55.270 9.028571
55.275 9.196979
55.280 9.531733
55.285 9.671166
55.290 9.38005
55.295 9.380909
55.300 9.185641
55.305 8.857473
55.310 8.568576
55.315 8.270335
55.320 8.102337
55.325 8.465344
55.330 8.627459
55.335 8.580939
55.340 8.730128
55.345 8.623264
55.350 8.559536
55.355 9.012658
55.360 9.112984
55.365 8.993591
55.370 9.106879
55.375 8.945374
55.380 8.944633
55.385 9.025267
55.390 8.586014
55.395 8.741645
55.400 9.106519
55.405 9.369558
55.410 9.657318
55.415 9.827148
55.420 9.82211
55.425 9.867317
55.430 9.209661
55.435 9.059743
55.440 9.064968
55.445 8.906696
55.450 9.160439
55.455 9.181013
55.460 9.400621
55.465 9.669779
55.470 9.389896
55.475 9.464807
55.480 9.486984
55.485 9.293045
55.490 9.608376
55.495 9.518374
55.500 9.760869
55.505 9.858298
55.510 9.692715
55.515 9.454427
55.520 9.689178
55.525 8.896448
55.530 8.748432
55.535 8.890118
55.540 8.760842
55.545 8.952528
55.550 9.617695
55.555 9.219962
55.560 9.22743
55.565 9.122955
55.570 9.540921
55.575 9.891385
55.580 9.791253
55.585 9.238505
55.590 9.230111
55.595 9.347221
55.600 9.338026
55.605 8.753975
55.610 8.484707
55.615 8.252995
55.620 8.538495
55.625 8.829704
55.630 9.185439
55.635 9.042255
55.640 8.828013
55.645 8.858858
55.650 9.019539
55.655 9.307977
55.660 9.237238
55.665 9.194569
55.670 9.168522
55.675 9.211196
55.680 9.8211
55.685 9.575596
55.690 9.072061
55.695 8.892831
55.700 8.721578
55.705 8.914064
55.710 9.190231
55.715 8.731929
55.720 9.359761
55.725 10.007342
55.730 10.396889
55.735 9.680841
55.740 9.039012
55.745 8.737747
55.750 8.569997
55.755 8.397346
55.760 7.76421
55.765 7.833747
55.770 8.536843
55.775 8.817562
55.780 9.261673
55.785 9.196859
55.790 8.794336
55.795 9.107243
55.800 9.059664
55.805 9.562286
55.810 9.678596
55.815 9.616297
55.820 9.575438
55.825 9.581137
55.830 10.073401
55.835 10.061461
55.840 9.747137
55.845 9.51573
55.850 9.765795
55.855 10.026629
55.860 9.760559
55.865 8.662079
55.870 8.15136
55.875 8.446909
55.880 8.41182
55.885 8.202327
55.890 8.046498
55.895 8.166449
55.900 8.478972
55.905 8.720063
55.910 8.576947
55.915 8.592981
55.920 8.560951
55.925 8.656041
55.930 8.841482
55.935 9.134212
55.940 9.214519
55.945 9.068984
55.950 9.143942
55.955 9.245053
55.960 9.555632
55.965 9.505066
55.970 9.483317
55.975 9.809605
55.980 9.783278
55.985 9.705276
55.990 9.453316
55.995 9.400704
56.000 9.615638
56.005 9.526835
56.010 9.240436
56.015 9.319571
56.020 9.47391
56.025 9.366105
56.030 9.291736
56.035 9.050227
56.040 8.834063
56.045 8.729104
56.050 8.43161
56.055 8.28984
56.060 8.221633
56.065 8.161691
56.070 8.36371
56.075 8.665876
56.080 8.747361
56.085 9.14712
56.090 9.536725
56.095 9.754692
56.100 9.644595
56.105 9.350037
56.110 8.966296
56.115 8.71738
56.120 8.181349
56.125 7.771267
56.130 7.449944
56.135 7.56651
56.140 7.868986
56.145 8.736946
56.150 8.67827
56.155 8.99499
56.160 9.305133
56.165 9.223816
56.170 8.983487
56.175 8.751134
56.180 8.365583
56.185 8.7458
56.190 9.029779
56.195 9.159878
56.200 9.656192
56.205 9.843212
56.210 9.626016
56.215 9.546082
56.220 9.196891
56.225 9.168122
56.230 9.185479
56.235 9.268052
56.240 9.224937
56.245 9.65729
56.250 9.856484
56.255 9.692187
56.260 9.550171
56.265 9.670211
56.270 9.690019
56.275 10.106963
56.280 9.760509
56.285 9.637032
56.290 9.812523
56.295 10.233555
56.300 9.997513
56.305 9.798703
56.310 10.261662
56.315 10.198771
56.320 10.187485
56.325 10.118791
56.330 9.666248
56.335 10.015527
56.340 9.596821
56.345 8.854527
56.350 9.188266
56.355 9.431119
56.360 9.550982
56.365 9.806356
56.370 9.837136
56.375 10.101149
56.380 10.625
56.385 10.736141
56.390 10.412683
56.395 10.123024
56.400 9.903933
56.405 9.969857
56.410 10.108256
56.415 9.504508
56.420 9.335868
56.425 9.479369
56.430 10.007268
56.435 10.349339
56.440 10.283643
56.445 10.266284
56.450 10.370832
56.455 10.701373
56.460 11.259822
56.465 11.177608
56.470 10.989526
56.475 11.396166
56.480 11.69057
56.485 12.052309
56.490 12.010321
56.495 11.765321
56.500 11.91907
56.505 12.178107
56.510 11.830678
56.515 11.285042
56.520 10.880516
56.525 11.164816
56.530 11.543904
56.535 11.609919
56.540 11.806138
56.545 12.058051
56.550 12.401667
56.555 12.655551
56.560 12.224527
56.565 12.067678
56.570 11.896804
56.575 11.682614
56.580 11.486499
56.585 11.697147
56.590 11.711226
56.595 11.881018
56.600 11.875471
56.605 11.78205
56.610 11.917319
56.615 11.953154
56.620 11.635792
56.625 12.085925
56.630 12.170778
56.635 11.750133
56.640 11.823717
56.645 12.009168
56.650 12.491645
56.655 12.790231
56.660 12.660177
56.665 12.408289
56.670 12.131053
56.675 11.878916
56.680 11.557211
56.685 11.312859
56.690 11.13324
56.695 10.531048
56.700 10.285356
56.705 10.858015
56.710 11.053041
56.715 10.95037
56.720 10.566533
56.725 10.213281
56.730 10.384562
56.735 10.347537
56.740 9.991998
56.745 9.722674
56.750 10.030349
56.755 10.401025
56.760 10.607115
56.765 10.465036
56.770 10.831649
56.775 10.719754
56.780 10.61443
56.785 10.526367
56.790 10.380877
56.795 10.749743
56.800 11.229878
56.805 11.003774
56.810 10.919985
56.815 10.769147
56.820 10.633477
56.825 10.426862
56.830 9.893627
56.835 9.397419
56.840 9.205416
56.845 9.172102
56.850 8.961941
56.855 8.621601
56.860 8.554627
56.865 8.437976
56.870 8.457855
56.875 8.629916
56.880 8.856782
56.885 9.156805
56.890 9.326317
56.895 9.876762
56.900 10.011225
56.905 10.074027
56.910 10.049298
56.915 10.073368
56.920 10.228107
56.925 10.250314
56.930 10.247167
56.935 10.275266
56.940 10.47453
56.945 10.444225
56.950 10.24893
56.955 10.187608
56.960 10.091053
56.965 9.684639
56.970 9.4364
56.975 9.173109
56.980 9.158105
56.985 8.908766
56.990 9.092169
56.995 8.615132
57.000 8.585213
57.005 9.02285
57.010 9.062463
57.015 9.175385
57.020 9.298156
57.025 8.917639
57.030 8.791431
57.035 8.965513
57.040 8.609095
57.045 8.489316
57.050 8.630715
57.055 8.485258
57.060 8.539649
57.065 8.647808
57.070 8.439596
57.075 8.221048
57.080 8.363404
57.085 8.139936
57.090 8.158831
57.095 8.099374
57.100 8.291136
57.105 8.542582
57.110 8.845241
57.115 8.97989
57.120 9.081712
57.125 9.068192
57.130 9.342561
57.135 9.285115
57.140 9.009209
57.145 8.569695
57.150 8.244481
57.155 8.051821
57.160 7.967565
57.165 7.914237
57.170 7.691164
57.175 8.23956
57.180 8.949172
57.185 9.379054
57.190 10.067465
57.195 10.126135
57.200 10.430391
57.205 10.547342
57.210 9.767519
57.215 9.432181
57.220 8.917
57.225 8.514374
57.230 8.617904
57.235 8.351561
57.240 8.524851
57.245 8.859828
57.250 8.522247
57.255 8.471265
57.260 8.392815
57.265 8.619144
57.270 8.624682
57.275 8.411557
57.280 8.272532
57.285 8.548147
57.290 8.620606
57.295 8.847986
57.300 9.242222
57.305 9.589424
57.310 9.73414
57.315 9.92802
57.320 9.997045
57.325 9.880578
57.330 9.854974
57.335 9.572392
57.340 9.536786
57.345 9.759576
57.350 10.191228
57.355 10.135819
57.360 10.47739
57.365 10.279702
57.370 9.907234
57.375 9.859047
57.380 9.735895
57.385 9.579441
57.390 9.685266
57.395 9.806241
57.400 10.010676
57.405 10.353185
57.410 10.504246
57.415 10.423336
57.420 10.280154
57.425 10.1012
57.430 9.330904
57.435 8.891698
57.440 8.755925
57.445 8.719698
57.450 9.011369
57.455 9.27107
57.460 9.590615
57.465 10.033042
57.470 10.18575
57.475 9.961365
57.480 9.779668
57.485 9.485955
57.490 9.192225
57.495 8.947891
57.500 8.952184
57.505 9.352912
57.510 9.47104
57.515 9.331144
57.520 9.21664
57.525 9.168336
57.530 9.462859
57.535 9.630062
57.540 9.491837
57.545 9.715083
57.550 9.755791
57.555 9.869108
57.560 9.68646
57.565 9.433684
57.570 9.299335
57.575 9.237794
57.580 9.063819
57.585 9.23648
57.590 9.041146
57.595 9.383828
57.600 9.334366
57.605 9.4149
57.610 9.302105
57.615 9.431865
57.620 9.483044
57.625 9.775438
57.630 9.542852
57.635 9.488523
57.640 9.317307
57.645 8.92107
57.650 8.866888
57.655 8.438779
57.660 8.118647
57.665 7.9488
57.670 7.685504
57.675 7.730529
57.680 8.102228
57.685 8.037467
57.690 8.714625
57.695 8.837633
57.700 8.923819
57.705 9.003209
57.710 8.890616
57.715 8.719905
57.720 8.684673
57.725 8.407041
57.730 8.424343
57.735 8.586445
57.740 8.754031
57.745 8.997535
57.750 9.082251
57.755 8.950919
57.760 8.986024
57.765 9.322716
57.770 9.09586
57.775 9.201969
57.780 9.394866
57.785 9.752344
57.790 9.735854
57.795 9.16679
57.800 9.170062
57.805 9.356613
57.810 9.035229
57.815 9.015306
57.820 9.157624
57.825 9.393745
57.830 9.773144
57.835 9.383776
57.840 8.987053
57.845 8.676684
57.850 8.0665
57.855 7.734169
57.860 7.80892
57.865 7.686024
57.870 7.690069
57.875 7.787516
57.880 8.274867
57.885 8.595801
57.890 8.750737
57.895 8.757606
57.900 8.636938
57.905 9.017352
57.910 9.029449
57.915 8.866983
57.920 8.639582
57.925 8.491701
57.930 8.503772
57.935 8.99757
57.940 8.520888
57.945 8.389845
57.950 8.591756
57.955 8.92475
57.960 8.885259
57.965 8.919486
57.970 8.862464
57.975 9.07158
57.980 9.563897
57.985 9.320132
57.990 9.264784
57.995 9.396519
58.000 9.484543
58.005 9.287384
58.010 9.930395
58.015 9.929811
58.020 10.126994
58.025 9.883632
58.030 9.512656
58.035 9.491068
58.040 9.477561
58.045 8.88818
58.050 9.016001
58.055 8.908874
58.060 8.515253
58.065 8.423351
58.070 8.470303
58.075 8.814319
58.080 8.775725
58.085 8.121349
58.090 8.189438
58.095 8.491915
58.100 8.715834
58.105 8.732727
58.110 8.707088
58.115 8.800648
58.120 8.875895
58.125 8.602657
58.130 8.376882
58.135 7.97485
58.140 8.056518
58.145 7.894782
58.150 7.853636
58.155 8.077229
58.160 8.220489
58.165 8.463088
58.170 8.894604
58.175 8.716513
58.180 8.856641
58.185 8.919707
58.190 8.747266
58.195 8.868814
58.200 9.049832
58.205 8.714665
58.210 8.411283
58.215 8.51123
58.220 8.674972
58.225 8.810775
58.230 8.975823
58.235 9.097307
58.240 9.189635
58.245 9.230402
58.250 9.141283
58.255 8.816076
58.260 8.88782
58.265 8.917408
58.270 8.557324
58.275 8.358012
58.280 8.445352
58.285 8.505387
58.290 8.815341
58.295 9.037941
58.300 9.187792
58.305 10.154435
58.310 10.736779
58.315 10.536414
58.320 10.237201
58.325 9.877704
58.330 9.607004
58.335 9.17946
58.340 8.439398
58.345 8.146909
58.350 8.455791
58.355 8.692459
58.360 9.117532
58.365 9.347778
58.370 9.476583
58.375 9.245939
58.380 9.338102
58.385 9.359089
58.390 9.149309
58.395 9.016609
58.400 9.039085
58.405 9.535847
58.410 9.76475
58.415 9.90791
58.420 9.930649
58.425 9.933128
58.430 9.264425
58.435 8.656351
58.440 8.544934
58.445 8.705872
58.450 8.269937
58.455 8.176001
58.460 8.496546
58.465 9.041329
58.470 8.91201
58.475 8.541145
58.480 8.339955
58.485 8.84139
58.490 9.221744
58.495 9.572003
58.500 9.697424
58.505 9.630322
58.510 9.740591
58.515 9.435705
58.520 8.945096
58.525 8.486855
58.530 7.983644
58.535 7.849201
58.540 8.417865
58.545 8.943459
58.550 9.336675
58.555 9.41534
58.560 8.957689
58.565 8.955483
58.570 8.993612
58.575 8.724632
58.580 8.139723
58.585 7.591462
58.590 7.417016
58.595 7.538905
58.600 7.755138
58.605 7.632078
58.610 7.559953
58.615 7.871549
58.620 8.481919
58.625 9.015108
58.630 9.729114
58.635 10.006543
58.640 10.436768
58.645 10.32721
58.650 10.026183
58.655 9.519919
58.660 8.974871
58.665 8.352757
58.670 7.952449
58.675 7.753624
58.680 7.762234
58.685 8.195791
58.690 8.849793
58.695 9.463169
58.700 9.899249
58.705 9.774388
