!@!!GADDS PLOTSO FILE: Chi integration type
!@!!Title/SampleName: map-41
!@!!Comment: ?
!@!!User: Bruker Instrument Administrator
!@!!Site: University of Illinois Chicago
!@!!Frame: map-41_01_000.gfrm
!@!!Wavelengths    1.54184   1.54056   1.54439
!@!!Frame angles: 2Theta: 63.000 Omega: 50.000 Phi: 0.000 Chi: 90.000
!@!!Integration range: 2Theta: 53.000 to 73.000  Gamma: -105.000 to -75.000
!@!!Integration method: bin normalized
!@!N
!@!SS
!@!M
!@!L 0.0 0.0 0.0 0.0
!@!XDegrees
!@!YCounts
53.000 8.09339
53.005 8.29134
53.010 8.046247
53.015 7.29915
53.020 7.112334
53.025 7.342861
53.030 6.968684
53.035 7.071571
53.040 7.180508
53.045 7.546386
53.050 7.807692
53.055 7.784225
53.060 7.724504
53.065 7.597144
53.070 7.354803
53.075 7.337353
53.080 7.406261
53.085 7.557143
53.090 7.74205
53.095 7.934803
53.100 8.503155
53.105 8.601974
53.110 8.624976
53.115 8.519547
53.120 8.292326
53.125 8.429646
53.130 8.368162
53.135 7.650936
53.140 7.391435
53.145 7.201951
53.150 7.366747
53.155 7.109929
53.160 6.940981
53.165 7.067724
53.170 7.29644
53.175 7.422535
53.180 7.276317
53.185 7.234166
53.190 7.544611
53.195 7.040151
53.200 7.147963
53.205 7.010521
53.210 7.325589
53.215 7.273478
53.220 7.648555
53.225 8.111759
53.230 8.64895
53.235 8.555952
53.240 8.695877
53.245 8.256946
53.250 8.131174
53.255 8.114369
53.260 8.329473
53.265 8.41707
53.270 8.603779
53.275 8.700371
53.280 8.804621
53.285 9.045483
53.290 8.828091
53.295 8.261053
53.300 8.230758
53.305 8.083918
53.310 7.936719
53.315 8.360478
53.320 8.399382
53.325 8.434953
53.330 8.515002
53.335 8.205393
53.340 8.336001
53.345 8.526106
53.350 8.018196
53.355 7.587571
53.360 7.379499
53.365 7.518183
53.370 7.805175
53.375 7.698129
53.380 7.569364
53.385 7.286933
53.390 7.73779
53.395 7.979639
53.400 7.883909
53.405 7.830458
53.410 8.129692
53.415 8.302121
53.420 8.371132
53.425 8.003741
53.430 7.740841
53.435 7.437484
53.440 7.228729
53.445 6.97311
53.450 6.991114
53.455 7.08937
53.460 7.007371
53.465 7.194889
53.470 7.305109
53.475 7.42933
53.480 7.379673
53.485 7.441732
53.490 7.476029
53.495 7.101654
53.500 7.45401
53.505 7.966286
53.510 8.217469
53.515 8.509724
53.520 8.464837
53.525 8.734648
53.530 8.912919
53.535 8.537106
53.540 7.698972
53.545 7.514544
53.550 7.885561
53.555 8.221797
53.560 8.250045
53.565 8.273845
53.570 8.574202
53.575 8.826507
53.580 8.547968
53.585 7.836674
53.590 7.484414
53.595 7.561007
53.600 7.782287
53.605 7.766979
53.610 8.197668
53.615 8.466259
53.620 8.703638
53.625 8.973253
53.630 9.486666
53.635 9.096028
53.640 9.123002
53.645 9.014492
53.650 8.729309
53.655 8.567802
53.660 8.051294
53.665 7.711339
53.670 7.843132
53.675 7.695842
53.680 7.931072
53.685 8.269392
53.690 8.502438
53.695 8.691836
53.700 8.799965
53.705 8.704129
53.710 8.455973
53.715 8.126494
53.720 8.146486
53.725 8.122086
53.730 7.637141
53.735 7.389958
53.740 7.690629
53.745 8.088907
53.750 8.20022
53.755 8.310684
53.760 8.368865
53.765 8.670284
53.770 8.798552
53.775 8.335151
53.780 8.138371
53.785 8.264274
53.790 8.308273
53.795 8.230364
53.800 8.00255
53.805 8.234334
53.810 8.643947
53.815 8.768995
53.820 8.324005
53.825 8.417793
53.830 8.703455
53.835 8.54732
53.840 8.271917
53.845 8.273267
53.850 8.652685
53.855 9.120031
53.860 9.312045
53.865 9.291355
53.870 9.81764
53.875 10.269467
53.880 10.061388
53.885 10.072948
53.890 9.596498
53.895 9.021995
53.900 8.739455
53.905 8.222637
53.910 7.835666
53.915 7.505195
53.920 7.495656
53.925 7.634324
53.930 7.583817
53.935 7.924358
53.940 8.037007
53.945 8.115203
53.950 8.550682
53.955 8.790183
53.960 8.878335
53.965 8.970439
53.970 8.864179
53.975 9.046992
53.980 9.275119
53.985 8.814562
53.990 8.809634
53.995 9.5554
54.000 9.552308
54.005 9.662282
54.010 9.908207
54.015 10.212628
54.020 10.433422
54.025 10.246504
54.030 9.796266
54.035 9.984725
54.040 9.97504
54.045 9.812534
54.050 9.415062
54.055 8.998957
54.060 8.949239
54.065 9.100796
54.070 8.951005
54.075 8.761264
54.080 8.741515
54.085 8.776505
54.090 8.78574
54.095 8.949451
54.100 8.785828
54.105 8.378859
54.110 8.216271
54.115 8.160604
54.120 8.614671
54.125 9.377086
54.130 9.199702
54.135 9.408527
54.140 9.845044
54.145 9.87743
54.150 9.898376
54.155 9.765916
54.160 9.299351
54.165 9.422698
54.170 9.280561
54.175 9.114559
54.180 8.992412
54.185 8.742134
54.190 8.572143
54.195 8.695708
54.200 9.066529
54.205 9.583918
54.210 9.585715
54.215 9.767833
54.220 10.093336
54.225 9.824365
54.230 9.593307
54.235 9.434362
54.240 9.311417
54.245 9.471809
54.250 9.430662
54.255 9.071234
54.260 9.184106
54.265 9.14107
54.270 9.065578
54.275 8.692163
54.280 8.322168
54.285 8.362387
54.290 8.844982
54.295 9.016438
54.300 9.1057
54.305 9.100528
54.310 9.272734
54.315 9.627425
54.320 8.992099
54.325 8.920077
54.330 8.797526
54.335 8.380531
54.340 8.500276
54.345 8.295738
54.350 8.316051
54.355 8.528848
54.360 8.199044
54.365 8.60943
54.370 9.001195
54.375 9.181561
54.380 9.572138
54.385 9.642223
54.390 10.150957
54.395 10.731161
54.400 10.574219
54.405 10.730003
54.410 10.486166
54.415 10.290878
54.420 9.864622
54.425 9.118356
54.430 8.496224
54.435 8.482553
54.440 8.497617
54.445 9.114449
54.450 9.291142
54.455 9.897692
54.460 10.22956
54.465 10.494766
54.470 10.563761
54.475 10.141937
54.480 9.811072
54.485 9.597311
54.490 9.657763
54.495 9.439368
54.500 9.131636
54.505 9.122652
54.510 8.969801
54.515 8.718038
54.520 8.91648
54.525 8.867669
54.530 9.278663
54.535 9.211118
54.540 8.7132
54.545 8.819026
54.550 8.77871
54.555 8.317511
54.560 8.400788
54.565 8.33909
54.570 8.660096
54.575 9.112676
54.580 9.287231
54.585 9.540971
54.590 9.910295
54.595 9.724005
54.600 9.822043
54.605 9.912983
54.610 9.775288
54.615 9.492513
54.620 9.082095
54.625 9.001291
54.630 9.093056
54.635 8.878083
54.640 9.09964
54.645 9.410501
54.650 9.719341
54.655 10.170208
54.660 9.845075
54.665 9.641141
54.670 9.583949
54.675 9.696038
54.680 9.710339
54.685 9.625653
54.690 9.453474
54.695 9.662055
54.700 9.636293
54.705 9.522351
54.710 9.399799
54.715 9.132892
54.720 9.012528
54.725 8.770496
54.730 8.83949
54.735 9.175124
54.740 9.050914
54.745 9.284335
54.750 9.581641
54.755 9.604548
54.760 9.739801
54.765 9.815133
54.770 9.993238
54.775 9.695195
54.780 9.398308
54.785 9.282344
54.790 9.566148
54.795 9.918568
54.800 10.270135
54.805 10.040936
54.810 10.563976
54.815 10.845246
54.820 11.12729
54.825 10.604235
54.830 10.540275
54.835 10.497228
54.840 10.33217
54.845 9.977943
54.850 10.447294
54.855 10.329172
54.860 10.716193
54.865 10.153032
54.870 10.235178
54.875 10.432069
54.880 10.557996
54.885 10.207651
54.890 10.769151
54.895 10.911975
54.900 11.077356
54.905 10.925423
54.910 11.39434
54.915 11.186944
54.920 11.180573
54.925 10.589148
54.930 10.298948
54.935 10.434515
54.940 10.410876
54.945 10.347287
54.950 10.359116
54.955 9.98654
54.960 9.870034
54.965 9.752058
54.970 9.830134
54.975 10.049823
54.980 10.146533
54.985 10.237314
54.990 10.281754
54.995 10.280772
55.000 10.420892
55.005 9.947164
55.010 9.786975
55.015 9.328325
55.020 9.475342
55.025 9.763194
55.030 10.164909
55.035 10.140002
55.040 10.128428
55.045 9.83747
55.050 10.034054
55.055 9.583568
55.060 9.668192
55.065 9.337271
55.070 9.505102
55.075 9.749698
55.080 9.522706
55.085 8.874867
55.090 9.02127
55.095 9.424597
55.100 9.67939
55.105 9.441436
55.110 9.06567
55.115 9.016593
55.120 9.525043
55.125 9.223991
55.130 8.858719
55.135 9.030326
55.140 9.231743
55.145 9.658605
55.150 10.181671
55.155 10.149866
55.160 10.101064
55.165 10.047211
55.170 9.674815
55.175 10.01146
55.180 10.360577
55.185 10.612641
55.190 11.033167
55.195 10.975789
55.200 11.248803
55.205 11.851441
55.210 11.790061
55.215 11.442711
55.220 11.285872
55.225 11.07795
55.230 11.047
55.235 10.201342
55.240 9.104079
55.245 8.637385
55.250 8.357255
55.255 8.396472
55.260 8.512425
55.265 8.818171
55.270 9.581185
55.275 9.894552
55.280 9.833623
55.285 9.879608
55.290 9.913844
55.295 9.854866
55.300 10.03783
55.305 9.774883
55.310 9.852835
55.315 9.945561
55.320 9.835594
55.325 9.628743
55.330 9.263165
55.335 8.626698
55.340 8.524282
55.345 9.05628
55.350 9.266014
55.355 9.322672
55.360 9.659192
55.365 10.300324
55.370 10.705081
55.375 10.975229
55.380 11.36421
55.385 11.479715
55.390 11.35164
55.395 11.809751
55.400 11.392064
55.405 11.776604
55.410 11.371388
55.415 10.857213
55.420 11.006517
55.425 11.280038
55.430 11.25527
55.435 11.554345
55.440 10.985676
55.445 11.229332
55.450 11.133522
55.455 10.857306
55.460 10.129513
55.465 9.713048
55.470 9.763695
55.475 9.973869
55.480 9.902266
55.485 9.979364
55.490 9.805382
55.495 10.53308
55.500 10.873311
55.505 11.23715
55.510 11.370824
55.515 11.079463
55.520 11.591666
55.525 12.067335
55.530 11.530355
55.535 11.223229
55.540 10.695034
55.545 10.730958
55.550 11.247007
55.555 10.769152
55.560 10.225595
55.565 10.27677
55.570 10.452585
55.575 10.325991
55.580 10.023359
55.585 9.939602
55.590 10.148419
55.595 11.066111
55.600 11.611438
55.605 11.82584
55.610 12.746512
55.615 12.923254
55.620 13.074023
55.625 12.853326
55.630 12.526721
55.635 12.240534
55.640 11.773275
55.645 11.412471
55.650 11.335968
55.655 11.207634
55.660 11.307614
55.665 11.451344
55.670 11.255187
55.675 11.070838
55.680 11.031032
55.685 10.855001
55.690 10.766794
55.695 10.444647
55.700 9.953506
55.705 10.433418
55.710 10.506297
55.715 10.455814
55.720 10.548285
55.725 10.501451
55.730 10.814587
55.735 11.231992
55.740 11.041846
55.745 11.363775
55.750 11.682819
55.755 11.905747
55.760 12.062387
55.765 11.710374
55.770 11.281886
55.775 11.098517
55.780 10.605206
55.785 10.213909
55.790 10.335794
55.795 10.430902
55.800 10.828876
55.805 10.799443
55.810 11.234354
55.815 11.536694
55.820 11.471949
55.825 10.822412
55.830 10.459165
55.835 10.715578
55.840 10.970806
55.845 10.844618
55.850 10.718044
55.855 11.430746
55.860 12.519037
55.865 13.087642
55.870 12.861431
55.875 12.516815
55.880 12.631645
55.885 12.535076
55.890 12.051541
55.895 11.628914
55.900 11.25536
55.905 11.182783
55.910 11.288018
55.915 11.712078
55.920 12.290453
55.925 11.933074
55.930 11.879776
55.935 11.60815
55.940 12.486965
55.945 12.802071
55.950 12.853589
55.955 12.2992
55.960 12.543804
55.965 12.837754
55.970 12.82329
55.975 12.140923
55.980 11.903872
55.985 11.687706
55.990 11.598505
55.995 11.454017
56.000 11.433846
56.005 11.422396
56.010 11.026359
56.015 10.304702
56.020 10.006587
56.025 9.936635
56.030 10.096096
56.035 10.320375
56.040 10.530823
56.045 10.777061
56.050 11.234324
56.055 11.8993
56.060 11.787154
56.065 11.054574
56.070 10.816702
56.075 10.755048
56.080 10.732031
56.085 10.897336
56.090 10.57594
56.095 11.08811
56.100 11.141227
56.105 10.994304
56.110 11.213651
56.115 11.36606
56.120 11.160493
56.125 11.36212
56.130 11.166232
56.135 11.481579
56.140 12.20607
56.145 12.104938
56.150 12.069416
56.155 12.193187
56.160 12.307409
56.165 12.185678
56.170 12.578557
56.175 12.270255
56.180 11.906654
56.185 11.793769
56.190 11.676469
56.195 11.533113
56.200 11.920476
56.205 11.281659
56.210 11.243135
56.215 11.907447
56.220 11.493953
56.225 11.452866
56.230 11.649949
56.235 11.271163
56.240 11.464188
56.245 11.642138
56.250 11.344753
56.255 11.358113
56.260 11.126006
56.265 10.661074
56.270 10.584397
56.275 10.325966
56.280 10.201074
56.285 10.710244
56.290 11.306563
56.295 11.293767
56.300 11.55682
56.305 11.797031
56.310 12.034374
56.315 11.981152
56.320 11.853952
56.325 11.699665
56.330 11.768764
56.335 11.925587
56.340 11.919076
56.345 11.411474
56.350 11.146279
56.355 11.058513
56.360 11.045719
56.365 11.515084
56.370 11.515046
56.375 11.325413
56.380 11.390218
56.385 11.384775
56.390 11.559472
56.395 11.250363
56.400 10.818705
56.405 10.525859
56.410 10.640985
56.415 10.871929
56.420 10.898108
56.425 10.660177
56.430 10.621781
56.435 10.717904
56.440 10.960885
56.445 11.136246
56.450 11.42142
56.455 11.568565
56.460 11.776733
56.465 11.718184
56.470 11.811485
56.475 11.498816
56.480 11.19899
56.485 10.828278
56.490 11.027806
56.495 11.013329
56.500 10.808459
56.505 10.802777
56.510 10.870469
56.515 11.535999
56.520 11.787753
56.525 11.674449
56.530 12.325389
56.535 12.701981
56.540 12.357594
56.545 12.16038
56.550 11.83223
56.555 12.141339
56.560 12.35622
56.565 12.708482
56.570 12.849996
56.575 13.52101
56.580 13.516253
56.585 13.123445
56.590 12.411178
56.595 11.545195
56.600 11.098701
56.605 11.24052
56.610 10.838757
56.615 11.150361
56.620 11.347507
56.625 11.97275
56.630 12.341853
56.635 11.726359
56.640 11.141462
56.645 11.139713
56.650 11.041618
56.655 10.879418
56.660 10.602169
56.665 10.976827
56.670 11.648019
56.675 12.048539
56.680 12.182995
56.685 12.086528
56.690 12.291584
56.695 12.273025
56.700 12.18695
56.705 12.429624
56.710 12.456528
56.715 13.063233
56.720 13.322274
56.725 13.293158
56.730 13.495058
56.735 13.274652
56.740 13.256431
56.745 13.147841
56.750 12.574099
56.755 12.493547
56.760 12.714946
56.765 13.039228
56.770 13.083495
56.775 13.336341
56.780 13.935494
56.785 13.959239
56.790 13.901892
56.795 13.852988
56.800 13.259025
56.805 12.692633
56.810 12.900298
56.815 12.239485
56.820 12.303562
56.825 12.421181
56.830 12.397367
56.835 12.708994
56.840 12.681624
56.845 11.890385
56.850 12.129934
56.855 12.127529
56.860 12.011088
56.865 11.838761
56.870 11.849898
56.875 12.663054
56.880 13.157681
56.885 13.174891
56.890 13.317576
56.895 13.568733
56.900 13.799402
56.905 13.709901
56.910 13.307491
56.915 13.214766
56.920 12.948795
56.925 12.593953
56.930 12.267013
56.935 12.128607
56.940 12.141988
56.945 12.062385
56.950 12.100728
56.955 12.569119
56.960 12.325405
56.965 12.624977
56.970 12.903659
56.975 13.309101
56.980 13.252398
56.985 13.149155
56.990 13.048488
56.995 12.9822
57.000 13.01258
57.005 12.948125
57.010 12.971603
57.015 13.029584
57.020 13.197696
57.025 13.564861
57.030 13.98174
57.035 13.795332
57.040 13.079438
57.045 12.152559
57.050 12.083092
57.055 12.081911
57.060 11.692429
57.065 11.100008
57.070 11.349453
57.075 12.4466
57.080 13.071339
57.085 12.929159
57.090 12.727777
57.095 13.094152
57.100 13.69625
57.105 13.101
57.110 12.447328
57.115 12.090706
57.120 12.376108
57.125 12.23871
57.130 12.075235
57.135 11.736341
57.140 11.857395
57.145 11.785722
57.150 11.673808
57.155 11.492723
57.160 11.457239
57.165 11.310999
57.170 11.377881
57.175 11.613243
57.180 11.934569
57.185 12.618387
57.190 13.259083
57.195 13.888535
57.200 14.074065
57.205 14.124622
57.210 13.694124
57.215 13.280442
57.220 13.001882
57.225 12.40548
57.230 12.139504
57.235 11.971358
57.240 11.79099
57.245 12.124095
57.250 12.293412
57.255 12.604807
57.260 12.596106
57.265 12.6995
57.270 13.037862
57.275 13.401571
57.280 13.612556
57.285 13.155469
57.290 13.075432
57.295 13.253111
57.300 13.264977
57.305 12.814278
57.310 12.923194
57.315 13.527949
57.320 14.493819
57.325 14.989707
57.330 15.352294
57.335 14.920649
57.340 15.102027
57.345 15.072944
57.350 14.611663
57.355 13.751473
57.360 13.11428
57.365 12.962378
57.370 13.025249
57.375 13.096753
57.380 13.083434
57.385 13.604143
57.390 13.370582
57.395 13.03281
57.400 12.702811
57.405 12.65136
57.410 12.243674
57.415 11.711816
57.420 10.97788
57.425 11.471263
57.430 12.045031
57.435 12.1922
57.440 12.289825
57.445 12.685923
57.450 13.079887
57.455 13.056031
57.460 12.873
57.465 12.612017
57.470 12.87299
57.475 12.659385
57.480 12.124221
57.485 12.385191
57.490 13.077706
57.495 13.315159
57.500 13.497152
57.505 13.533637
57.510 13.994875
57.515 13.866329
57.520 13.285079
57.525 12.875099
57.530 12.551758
57.535 12.584675
57.540 12.540814
57.545 11.995495
57.550 12.491213
57.555 12.748948
57.560 13.08836
57.565 12.462051
57.570 12.465971
57.575 12.491395
57.580 13.025484
57.585 12.998253
57.590 12.870719
57.595 12.749396
57.600 13.616504
57.605 13.682316
57.610 13.792694
57.615 13.854748
57.620 14.279359
57.625 13.953793
57.630 13.803395
57.635 13.381423
57.640 13.194456
57.645 13.133255
57.650 12.726397
57.655 12.120181
57.660 11.877977
57.665 11.895869
57.670 11.935765
57.675 12.010573
57.680 12.168414
57.685 12.032384
57.690 12.274938
57.695 12.590407
57.700 12.430161
57.705 12.213929
57.710 12.085932
57.715 12.061163
57.720 12.472458
57.725 12.635937
57.730 12.565458
57.735 12.818691
57.740 12.938393
57.745 12.839133
57.750 12.779585
57.755 12.712642
57.760 12.863508
57.765 13.336578
57.770 13.187689
57.775 13.235845
57.780 13.20289
57.785 13.561435
57.790 13.801048
57.795 13.862084
57.800 14.018221
57.805 14.213041
57.810 14.596354
57.815 14.995331
57.820 14.634807
57.825 14.871496
57.830 15.051007
57.835 15.022647
57.840 14.710386
57.845 14.641905
57.850 14.706949
57.855 14.499046
57.860 13.607033
57.865 13.044795
57.870 12.827956
57.875 13.185225
57.880 13.046333
57.885 12.791791
57.890 13.088935
57.895 13.500992
57.900 13.571517
57.905 14.051098
57.910 14.112305
57.915 14.556548
57.920 14.621249
57.925 14.426724
57.930 14.398422
57.935 14.00641
57.940 13.460089
57.945 13.099695
57.950 12.653381
57.955 12.560774
57.960 12.620921
57.965 12.480968
57.970 13.100289
57.975 13.408905
57.980 13.800071
57.985 14.107984
57.990 14.242837
57.995 14.262688
58.000 14.581168
58.005 14.407499
58.010 14.184031
58.015 13.780805
58.020 13.607525
58.025 14.003585
58.030 14.06737
58.035 14.037799
58.040 13.842123
58.045 13.51285
58.050 13.81866
58.055 13.613441
58.060 13.072581
58.065 12.945959
58.070 12.934218
58.075 13.323966
58.080 13.859838
58.085 13.655089
58.090 13.453892
58.095 13.411067
58.100 13.490862
58.105 13.862223
58.110 14.01059
58.115 13.514877
58.120 13.78067
58.125 14.352558
58.130 14.080816
58.135 14.214275
58.140 13.953135
58.145 13.297528
58.150 13.061763
58.155 12.849768
58.160 12.641543
58.165 13.09166
58.170 12.847625
58.175 12.710615
58.180 13.267802
58.185 13.902281
58.190 13.484154
58.195 13.751392
58.200 13.699827
58.205 13.940775
58.210 14.239289
58.215 14.275577
58.220 14.192737
58.225 14.93833
58.230 14.835752
58.235 14.917562
58.240 15.237273
58.245 15.320365
58.250 14.772223
58.255 14.452742
58.260 14.108881
58.265 14.296077
58.270 14.349446
58.275 13.994345
58.280 13.225077
58.285 13.312052
58.290 13.505065
58.295 13.673799
58.300 13.446681
58.305 13.660296
58.310 13.646771
58.315 14.162583
58.320 14.548087
58.325 14.64606
58.330 14.712564
58.335 15.48117
58.340 15.33335
58.345 14.964874
58.350 15.327331
58.355 14.82102
58.360 14.677091
58.365 14.380189
58.370 13.527096
58.375 13.479194
58.380 13.627291
58.385 13.720906
58.390 13.877497
58.395 13.96939
58.400 13.908732
58.405 13.810611
58.410 14.032515
58.415 14.21962
58.420 14.555253
58.425 15.063062
58.430 14.982286
58.435 15.241808
58.440 15.431478
58.445 15.07898
58.450 14.707717
58.455 14.574358
58.460 14.53735
58.465 14.582064
58.470 14.479484
58.475 14.308223
58.480 14.963747
58.485 15.620846
58.490 15.833164
58.495 16.100842
58.500 16.352076
58.505 16.542221
58.510 16.730129
58.515 16.460304
58.520 16.045246
58.525 15.410038
58.530 15.285359
58.535 14.935516
58.540 14.552826
58.545 14.459178
58.550 13.829214
58.555 13.110476
