!@!!GADDS PLOTSO FILE: Chi integration type
!@!!Title/SampleName: map-af
!@!!Comment: ?
!@!!User: Bruker Instrument Administrator
!@!!Site: University of Illinois Chicago
!@!!Frame: map-af_01_000.gfrm
!@!!Wavelengths    1.54184   1.54056   1.54439
!@!!Frame angles: 2Theta: 63.000 Omega: 50.000 Phi: 0.000 Chi: 90.000
!@!!Integration range: 2Theta: 53.000 to 73.000  Gamma: -105.000 to -75.000
!@!!Integration method: bin normalized
!@!N
!@!SS
!@!M
!@!L 0.0 0.0 0.0 0.0
!@!XDegrees
!@!YCounts
53.000 7.624177
53.005 7.172785
53.010 6.84015
53.015 6.997072
53.020 7.003055
53.025 7.117204
53.030 7.215303
53.035 7.752415
53.040 8.258517
53.045 8.57663
53.050 8.711996
53.055 8.955598
53.060 9.442817
53.065 9.02361
53.070 8.532206
53.075 8.042016
53.080 8.31048
53.085 7.986962
53.090 7.764818
53.095 7.374982
53.100 7.415372
53.105 7.7219
53.110 7.630717
53.115 7.763338
53.120 7.856473
53.125 7.945291
53.130 8.411656
53.135 8.192782
53.140 8.407267
53.145 8.571635
53.150 8.145038
53.155 8.230879
53.160 8.11932
53.165 8.208722
53.170 8.234055
53.175 8.337955
53.180 8.148932
53.185 7.804914
53.190 7.599831
53.195 7.379005
53.200 7.217778
53.205 7.452951
53.210 7.302424
53.215 7.797444
53.220 8.151235
53.225 8.57721
53.230 8.443207
53.235 8.245852
53.240 7.912502
53.245 7.53736
53.250 7.137447
53.255 7.143781
53.260 7.211267
53.265 7.126933
53.270 6.974178
53.275 7.021742
53.280 7.130369
53.285 6.928628
53.290 6.707268
53.295 6.685742
53.300 7.051845
53.305 7.439348
53.310 7.443882
53.315 7.536765
53.320 7.888318
53.325 8.164105
53.330 8.060665
53.335 7.822676
53.340 7.949343
53.345 8.059026
53.350 8.425859
53.355 8.336849
53.360 8.171198
53.365 8.507948
53.370 9.000072
53.375 9.307282
53.380 9.213001
53.385 9.011686
53.390 8.9939
53.395 8.940275
53.400 8.793859
53.405 8.483715
53.410 8.598927
53.415 8.688823
53.420 8.953518
53.425 8.472084
53.430 8.59958
53.435 8.101392
53.440 7.605039
53.445 6.872631
53.450 6.702351
53.455 7.362785
53.460 7.67305
53.465 8.121375
53.470 9.04044
53.475 9.601943
53.480 10.208724
53.485 10.332803
53.490 9.84861
53.495 9.825299
53.500 9.34685
53.505 8.893416
53.510 8.810363
53.515 8.24798
53.520 8.231521
53.525 8.530086
53.530 9.013079
53.535 9.50269
53.540 10.108084
53.545 10.62804
53.550 11.137806
53.555 10.995106
53.560 10.372578
53.565 9.785407
53.570 9.354651
53.575 8.977805
53.580 8.37303
53.585 8.091007
53.590 8.504845
53.595 9.051132
53.600 9.010479
53.605 8.576067
53.610 8.45306
53.615 8.590988
53.620 8.548357
53.625 8.317859
53.630 8.177725
53.635 8.327339
53.640 8.942164
53.645 9.332433
53.650 9.337811
53.655 8.867456
53.660 8.480804
53.665 8.501568
53.670 8.196163
53.675 7.501344
53.680 7.328576
53.685 7.38345
53.690 7.394317
53.695 7.756821
53.700 7.740769
53.705 7.884702
53.710 7.866991
53.715 8.121963
53.720 8.234778
53.725 8.424323
53.730 8.171532
53.735 8.109056
53.740 8.627625
53.745 8.74472
53.750 8.478477
53.755 8.294496
53.760 8.32338
53.765 8.342862
53.770 8.080591
53.775 7.851326
53.780 7.981492
53.785 8.142867
53.790 8.228
53.795 8.524611
53.800 9.051784
53.805 9.400341
53.810 9.446175
53.815 9.737524
53.820 9.90785
53.825 9.847325
53.830 9.403529
53.835 9.14815
53.840 9.281746
53.845 9.136804
53.850 8.702251
53.855 8.924292
53.860 9.386949
53.865 9.872601
53.870 9.756474
53.875 10.050443
53.880 10.125173
53.885 9.854
53.890 9.469519
53.895 9.032684
53.900 9.036284
53.905 8.713088
53.910 7.932061
53.915 8.135426
53.920 8.609226
53.925 8.773012
53.930 8.780806
53.935 8.604155
53.940 9.099049
53.945 9.69616
53.950 10.121504
53.955 10.326196
53.960 9.836278
53.965 9.721542
53.970 10.038907
53.975 10.047721
53.980 9.596731
53.985 9.078469
53.990 8.991244
53.995 9.149543
54.000 8.859676
54.005 8.453536
54.010 8.649317
54.015 8.521472
54.020 8.495029
54.025 8.354843
54.030 8.988371
54.035 9.133788
54.040 9.344957
54.045 9.384164
54.050 9.475131
54.055 9.520547
54.060 9.563865
54.065 9.415617
54.070 9.270111
54.075 9.010634
54.080 9.417462
54.085 9.539768
54.090 9.069325
54.095 8.554605
54.100 8.570328
54.105 9.109023
54.110 8.990468
54.115 8.829025
54.120 8.953931
54.125 9.518131
54.130 10.177589
54.135 10.269629
54.140 10.395919
54.145 10.493001
54.150 10.396101
54.155 11.130778
54.160 11.755669
54.165 11.776565
54.170 11.44846
54.175 11.019792
54.180 10.763192
54.185 10.390979
54.190 10.094271
54.195 10.039865
54.200 9.979611
54.205 10.067304
54.210 10.326739
54.215 10.592361
54.220 10.347009
54.225 9.651461
54.230 9.241826
54.235 9.113965
54.240 9.108712
54.245 8.753414
54.250 8.450331
54.255 8.956723
54.260 9.322601
54.265 9.22561
54.270 9.386932
54.275 9.157354
54.280 9.553383
54.285 9.933946
54.290 9.647048
54.295 9.700459
54.300 9.805185
54.305 9.966727
54.310 10.341104
54.315 9.925567
54.320 10.170304
54.325 10.673875
54.330 10.936705
54.335 11.215983
54.340 11.461055
54.345 11.341113
54.350 11.12398
54.355 10.437584
54.360 10.220222
54.365 9.962434
54.370 9.777339
54.375 9.651021
54.380 9.976146
54.385 10.186534
54.390 9.82674
54.395 9.629011
54.400 9.723933
54.405 9.338498
54.410 9.213788
54.415 8.911737
54.420 9.102823
54.425 9.606069
54.430 9.664401
54.435 9.519996
54.440 10.368913
54.445 10.576101
54.450 10.89094
54.455 11.325635
54.460 11.121388
54.465 10.950674
54.470 11.177354
54.475 10.586825
54.480 10.533138
54.485 10.292988
54.490 9.91328
54.495 9.962556
54.500 9.937392
54.505 9.760011
54.510 9.452166
54.515 9.502847
54.520 9.680528
54.525 9.845835
54.530 9.723166
54.535 10.21586
54.540 10.380094
54.545 10.510305
54.550 10.878636
54.555 10.849189
54.560 11.054026
54.565 11.375973
54.570 11.240373
54.575 11.384677
54.580 11.933549
54.585 12.355152
54.590 12.297655
54.595 11.972534
54.600 11.810781
54.605 11.704842
54.610 11.597633
54.615 10.913342
54.620 10.798359
54.625 10.83299
54.630 10.59258
54.635 10.468985
54.640 10.073598
54.645 10.075572
54.650 9.915198
54.655 9.465279
54.660 9.599944
54.665 9.62523
54.670 9.697956
54.675 10.183123
54.680 9.877103
54.685 9.957329
54.690 10.204319
54.695 10.634873
54.700 11.277111
54.705 11.212593
54.710 11.476727
54.715 11.797292
54.720 11.976926
54.725 11.870066
54.730 11.766531
54.735 11.354895
54.740 11.389205
54.745 10.930099
54.750 10.504736
54.755 10.023384
54.760 9.885321
54.765 9.42911
54.770 9.919312
54.775 10.026717
54.780 9.888842
54.785 10.284218
54.790 10.083497
54.795 10.164301
54.800 10.273412
54.805 9.919905
54.810 10.084227
54.815 10.641181
54.820 11.298795
54.825 11.736797
54.830 11.663113
54.835 11.551351
54.840 11.642395
54.845 11.793016
54.850 11.498816
54.855 11.353004
54.860 10.983976
54.865 10.729831
54.870 11.064203
54.875 11.182368
54.880 11.440326
54.885 11.015903
54.890 10.452359
54.895 11.087554
54.900 11.655036
54.905 11.523557
54.910 11.330082
54.915 11.168861
54.920 11.490282
54.925 11.640787
54.930 11.108136
54.935 11.220026
54.940 10.991578
54.945 10.906996
54.950 10.60569
54.955 10.932657
54.960 11.224134
54.965 10.956573
54.970 10.702912
54.975 10.906075
54.980 11.149798
54.985 11.659194
54.990 11.705413
54.995 11.607583
55.000 11.768437
55.005 12.010035
55.010 12.168122
55.015 11.890161
55.020 11.353289
55.025 11.064963
55.030 11.104255
55.035 11.031445
55.040 11.02598
55.045 10.919325
55.050 10.866217
55.055 10.973063
55.060 11.354098
55.065 11.732988
55.070 12.223559
55.075 12.035711
55.080 12.205216
55.085 11.739554
55.090 11.65772
55.095 12.032717
55.100 12.004233
55.105 11.711931
55.110 11.835537
55.115 11.934193
55.120 12.33442
55.125 12.200057
55.130 11.696013
55.135 11.739419
55.140 11.804311
55.145 11.650457
55.150 11.655236
55.155 11.731573
55.160 11.4944
55.165 11.359662
55.170 10.796743
55.175 10.841368
55.180 11.234251
55.185 11.481599
55.190 11.917222
55.195 11.887906
55.200 11.882922
55.205 11.846543
55.210 11.431348
55.215 10.964084
55.220 10.68618
55.225 10.848388
55.230 10.851743
55.235 10.990636
55.240 11.135693
55.245 11.26305
55.250 11.416539
55.255 10.943036
55.260 10.559053
55.265 11.046796
55.270 11.447433
55.275 11.860016
55.280 11.569599
55.285 11.741977
55.290 12.243475
55.295 12.100554
55.300 11.600962
55.305 10.831306
55.310 10.670275
55.315 10.811399
55.320 11.040299
55.325 11.306364
55.330 11.66606
55.335 11.481244
55.340 12.023161
55.345 12.053152
55.350 11.554117
55.355 11.827239
55.360 11.922015
55.365 12.285929
55.370 12.767794
55.375 12.458549
55.380 12.618273
55.385 12.854182
55.390 12.627034
55.395 12.512228
55.400 11.829979
55.405 11.876788
55.410 12.221402
55.415 12.219605
55.420 11.958292
55.425 11.549693
55.430 11.801847
55.435 11.7796
55.440 10.939717
55.445 10.947404
55.450 11.183482
55.455 11.186524
55.460 11.076877
55.465 11.032294
55.470 11.494984
55.475 11.550113
55.480 11.073579
55.485 11.178876
55.490 11.445296
55.495 11.641678
55.500 11.735959
55.505 11.705486
55.510 12.307874
55.515 12.266625
55.520 12.247952
55.525 12.180497
55.530 12.055387
55.535 12.370777
55.540 12.192119
55.545 11.697715
55.550 11.87914
55.555 11.855814
55.560 12.069558
55.565 11.720735
55.570 11.291366
55.575 11.677982
55.580 11.630215
55.585 11.686277
55.590 11.644203
55.595 11.612203
55.600 11.563013
55.605 11.573612
55.610 11.999594
55.615 12.42767
55.620 12.259917
55.625 12.510286
55.630 12.840504
55.635 12.886099
55.640 12.640859
55.645 12.407481
55.650 12.260372
55.655 12.062787
55.660 12.025491
55.665 11.885053
55.670 11.76029
55.675 11.495587
55.680 11.267862
55.685 11.536774
55.690 11.770413
55.695 11.638581
55.700 11.263014
55.705 11.75258
55.710 11.791035
55.715 12.218323
55.720 12.543875
55.725 12.697107
55.730 12.93983
55.735 13.304299
55.740 13.500429
55.745 13.411601
55.750 12.829585
55.755 12.078676
55.760 11.506679
55.765 10.920813
55.770 10.27105
55.775 10.279685
55.780 10.68749
55.785 10.889307
55.790 10.770264
55.795 10.677592
55.800 11.217971
55.805 11.856154
55.810 11.771168
55.815 11.804889
55.820 12.418274
55.825 13.096991
55.830 13.263597
55.835 13.051629
55.840 13.293927
55.845 13.223915
55.850 12.747136
55.855 12.330085
55.860 12.720078
55.865 12.457793
55.870 12.29346
55.875 12.536602
55.880 12.764692
55.885 13.454856
55.890 13.635417
55.895 13.695705
55.900 13.852493
55.905 13.548945
55.910 13.035434
55.915 12.297812
55.920 12.162333
55.925 11.758446
55.930 12.031807
55.935 12.728642
55.940 12.752515
55.945 13.025579
55.950 13.628472
55.955 13.559833
55.960 13.50598
55.965 13.198599
55.970 13.151008
55.975 13.251545
55.980 13.115818
55.985 13.238686
55.990 13.207806
55.995 13.324854
56.000 13.089108
56.005 12.905976
56.010 13.036143
56.015 13.251787
56.020 13.332388
56.025 13.562379
56.030 13.968803
56.035 14.032304
56.040 13.867001
56.045 13.945301
56.050 13.291097
56.055 12.674772
56.060 11.623976
56.065 11.3429
56.070 11.26893
56.075 11.158734
56.080 11.042994
56.085 11.197124
56.090 11.52696
56.095 12.24698
56.100 12.096857
56.105 12.020931
56.110 12.104962
56.115 12.064546
56.120 12.305262
56.125 12.45431
56.130 12.103341
56.135 12.209719
56.140 12.217992
56.145 12.157995
56.150 11.671198
56.155 11.787928
56.160 11.486321
56.165 11.557462
56.170 11.643576
56.175 11.891994
56.180 11.636514
56.185 12.474676
56.190 12.699866
56.195 13.068903
56.200 13.250262
56.205 13.162425
56.210 13.285225
56.215 13.856449
56.220 13.436536
56.225 13.173156
56.230 13.389415
56.235 13.272425
56.240 13.541766
56.245 13.985199
56.250 13.618732
56.255 13.665664
56.260 13.126275
56.265 12.397083
56.270 12.029036
56.275 12.01953
56.280 11.53894
56.285 11.711756
56.290 11.115193
56.295 11.769608
56.300 12.081045
56.305 12.279295
56.310 12.51522
56.315 13.309661
56.320 13.654109
56.325 14.442142
56.330 14.390681
56.335 14.142884
56.340 14.104688
56.345 13.770757
56.350 13.449231
56.355 13.414763
56.360 13.359581
56.365 13.181062
56.370 13.339731
56.375 13.755057
56.380 13.861835
56.385 13.729734
56.390 13.280425
56.395 12.958666
56.400 12.883897
56.405 12.927862
56.410 12.312561
56.415 11.949425
56.420 11.984841
56.425 12.030646
56.430 12.328081
56.435 12.435401
56.440 12.506037
56.445 12.867222
56.450 12.550536
56.455 12.812699
56.460 13.190737
56.465 12.94519
56.470 13.434602
56.475 13.11377
56.480 13.111461
56.485 13.764379
56.490 13.813268
56.495 13.236341
56.500 12.965014
56.505 12.533167
56.510 12.691449
56.515 12.611474
56.520 12.057508
56.525 11.900264
56.530 12.582619
56.535 12.932532
56.540 13.223861
56.545 12.906309
56.550 12.476557
56.555 12.980292
56.560 13.29263
56.565 13.334577
56.570 13.756601
56.575 13.544823
56.580 13.556833
56.585 13.511384
56.590 13.258849
56.595 12.867447
56.600 12.619747
56.605 12.041388
56.610 12.448334
56.615 12.766556
56.620 12.962146
56.625 13.339383
56.630 13.800017
56.635 13.952866
56.640 13.49305
56.645 13.268932
56.650 13.191833
56.655 12.93514
56.660 12.803455
56.665 12.154435
56.670 12.288452
56.675 13.029992
56.680 12.946642
56.685 13.444871
56.690 13.866166
56.695 13.888074
56.700 14.284849
56.705 14.265193
56.710 14.219106
56.715 13.946812
56.720 13.445834
56.725 12.682353
56.730 12.798712
56.735 12.787231
56.740 13.488113
56.745 13.804628
56.750 14.003629
56.755 14.261615
56.760 14.693316
56.765 14.383277
56.770 14.303978
56.775 13.770172
56.780 13.637609
56.785 13.940052
56.790 13.485065
56.795 13.114985
56.800 12.972806
56.805 12.636642
56.810 12.553101
56.815 12.164975
56.820 11.833457
56.825 12.299763
56.830 12.492546
56.835 12.808185
56.840 12.685733
56.845 12.161366
56.850 12.635695
56.855 13.27157
56.860 13.361393
56.865 13.729781
56.870 14.276127
56.875 14.929222
56.880 15.336605
56.885 15.433519
56.890 15.23892
56.895 15.075899
56.900 15.056631
56.905 14.637257
56.910 14.601045
56.915 14.528058
56.920 14.137289
56.925 14.099741
56.930 14.035417
56.935 14.12254
56.940 14.223657
56.945 13.583895
56.950 13.563754
56.955 13.758924
56.960 13.7149
56.965 13.457218
56.970 13.407553
56.975 13.639005
56.980 14.043601
56.985 14.2481
56.990 14.224968
56.995 14.557629
57.000 14.693999
57.005 14.582943
57.010 14.754607
57.015 14.50499
57.020 13.870332
57.025 13.182816
57.030 13.103579
57.035 13.394627
57.040 12.802361
57.045 12.754322
57.050 12.945248
57.055 13.091642
57.060 13.647594
57.065 13.553417
57.070 12.861872
57.075 13.149732
57.080 13.454446
57.085 13.476242
57.090 13.893785
57.095 13.837218
57.100 13.872164
57.105 14.306416
57.110 13.923018
57.115 13.473475
57.120 13.887752
57.125 13.818585
57.130 13.92957
57.135 14.013424
57.140 14.301415
57.145 14.400667
57.150 14.230029
57.155 13.847295
57.160 14.37536
57.165 14.685643
57.170 14.590549
57.175 14.429679
57.180 14.656488
57.185 14.512003
57.190 14.498055
57.195 13.777428
57.200 13.593743
57.205 13.433186
57.210 13.362767
57.215 13.185912
57.220 13.242407
57.225 12.959042
57.230 12.966876
57.235 13.127915
57.240 13.309704
57.245 12.867784
57.250 12.922192
57.255 13.077592
57.260 13.588174
57.265 13.614871
57.270 13.358973
57.275 13.276714
57.280 13.569808
57.285 13.284945
57.290 13.248729
57.295 13.387568
57.300 13.973543
57.305 14.115731
57.310 14.030103
57.315 14.50714
57.320 14.966068
57.325 15.324681
57.330 15.304784
57.335 15.138845
57.340 15.165375
57.345 15.598316
57.350 15.474277
57.355 15.307176
57.360 15.234352
57.365 15.139765
57.370 15.210198
57.375 15.467275
57.380 15.435294
57.385 15.733556
57.390 16.167982
57.395 15.628983
57.400 15.187333
57.405 14.633487
57.410 14.549581
57.415 13.96874
57.420 14.015129
57.425 14.089304
57.430 15.066242
57.435 15.906623
57.440 16.027882
57.445 16.089401
57.450 16.560154
57.455 15.914499
57.460 16.133701
57.465 16.002949
57.470 15.25962
57.475 14.977529
57.480 14.652991
57.485 14.457779
57.490 14.580118
57.495 14.408845
57.500 14.38331
57.505 14.822396
57.510 15.227667
57.515 15.794071
57.520 15.609657
57.525 15.09584
57.530 14.196052
57.535 13.756026
57.540 13.535225
57.545 13.438727
57.550 12.933908
57.555 13.248153
57.560 13.858308
57.565 13.904687
57.570 13.649789
57.575 14.047013
57.580 14.00061
57.585 14.096514
57.590 14.104461
57.595 14.562647
57.600 15.389341
57.605 16.117582
57.610 15.751118
57.615 15.72878
57.620 16.001135
57.625 16.442287
57.630 15.780705
57.635 15.218069
57.640 14.834151
57.645 15.04039
57.650 15.329557
57.655 15.050972
57.660 14.934958
57.665 15.393435
57.670 15.626352
57.675 15.998978
57.680 16.22266
57.685 16.530285
57.690 16.794985
57.695 16.529791
57.700 15.734795
57.705 15.807058
57.710 16.022755
57.715 16.007643
57.720 16.493773
57.725 16.171736
57.730 17.294743
57.735 18.225176
57.740 17.826397
57.745 17.691347
57.750 17.36801
57.755 16.937023
57.760 17.060034
57.765 15.838552
57.770 15.401446
57.775 15.12761
57.780 14.858644
57.785 14.785906
57.790 14.883763
57.795 14.259591
57.800 14.033278
57.805 14.14551
57.810 14.575748
57.815 14.842017
57.820 15.085811
57.825 15.011125
57.830 15.805866
57.835 16.16367
57.840 15.74812
57.845 15.685312
57.850 15.168712
57.855 15.081357
57.860 15.209122
57.865 15.033147
57.870 15.454592
57.875 15.694508
57.880 15.860846
57.885 15.9088
57.890 15.281928
57.895 15.260928
57.900 15.799163
57.905 15.733429
57.910 16.322485
57.915 16.406687
57.920 16.633408
57.925 16.735182
57.930 16.26837
57.935 15.640083
57.940 15.621571
57.945 15.386668
57.950 15.264986
57.955 15.370438
57.960 15.15798
57.965 16.051456
57.970 16.270956
57.975 15.98842
57.980 16.04347
57.985 15.93533
57.990 15.620028
57.995 16.228592
58.000 15.485219
58.005 15.191229
58.010 15.719893
58.015 16.132114
58.020 16.416773
58.025 16.499794
58.030 16.669287
58.035 17.354271
58.040 17.843019
58.045 17.553299
58.050 17.497732
58.055 17.984655
58.060 18.036955
58.065 17.872694
58.070 17.92528
58.075 17.723074
58.080 18.104519
58.085 18.686884
58.090 18.628593
58.095 18.764101
58.100 18.384331
58.105 17.921801
58.110 18.099243
58.115 17.598497
58.120 17.011126
58.125 16.859093
58.130 16.824266
58.135 16.867289
58.140 16.890825
58.145 16.679058
58.150 16.58864
58.155 16.316864
58.160 16.251955
58.165 16.417337
58.170 17.016479
58.175 17.560432
58.180 17.490084
58.185 17.579708
58.190 17.902262
58.195 17.918789
58.200 17.676306
58.205 17.325001
58.210 16.456238
58.215 16.378172
58.220 16.486202
58.225 16.714437
58.230 16.658842
58.235 17.079287
58.240 17.538944
58.245 18.570496
58.250 19.312805
58.255 19.662382
58.260 19.36339
58.265 20.035275
58.270 19.94788
58.275 20.123564
58.280 20.021046
58.285 19.33699
58.290 18.908339
58.295 19.222895
58.300 19.503201
58.305 19.949793
58.310 20.37273
58.315 20.921438
58.320 21.664772
58.325 22.278435
58.330 21.799597
58.335 21.476519
58.340 21.423082
58.345 21.311483
58.350 21.240376
58.355 21.498573
58.360 22.271868
58.365 22.92309
58.370 23.193527
58.375 23.402658
58.380 23.386007
58.385 23.421539
58.390 23.532341
58.395 23.513624
58.400 24.078985
58.405 24.142607
58.410 24.350712
58.415 24.984123
58.420 25.972641
58.425 26.262524
58.430 26.380831
58.435 26.239786
58.440 26.001888
58.445 26.210636
58.450 26.353689
58.455 26.367401
58.460 26.808931
58.465 26.546947
58.470 26.997019
58.475 27.333851
58.480 27.519087
58.485 27.838614
58.490 28.912907
58.495 29.463865
58.500 30.021225
58.505 30.592682
58.510 30.20289
58.515 30.458948
