!@!!GADDS PLOTSO FILE: Chi integration type
!@!!Title/SampleName: map-3d
!@!!Comment: ?
!@!!User: Bruker Instrument Administrator
!@!!Site: University of Illinois Chicago
!@!!Frame: map-3d_01_000.gfrm
!@!!Wavelengths    1.54184   1.54056   1.54439
!@!!Frame angles: 2Theta: 63.000 Omega: 50.000 Phi: 0.000 Chi: 90.000
!@!!Integration range: 2Theta: 53.000 to 73.000  Gamma: -105.000 to -75.000
!@!!Integration method: bin normalized
!@!N
!@!SS
!@!M
!@!L 0.0 0.0 0.0 0.0
!@!XDegrees
!@!YCounts
53.000 8.312565
53.005 8.023469
53.010 8.300183
53.015 8.761384
53.020 9.078287
53.025 9.134089
53.030 9.249185
53.035 9.573331
53.040 9.409516
53.045 8.902888
53.050 8.082844
53.055 7.790802
53.060 7.609472
53.065 7.238531
53.070 7.033051
53.075 7.056113
53.080 7.498897
53.085 7.703827
53.090 7.877831
53.095 8.086088
53.100 8.11347
53.105 8.099132
53.110 7.897201
53.115 7.332558
53.120 7.069491
53.125 6.704233
53.130 6.639765
53.135 6.936215
53.140 7.19171
53.145 7.713713
53.150 8.104107
53.155 7.831233
53.160 7.438282
53.165 7.010108
53.170 6.961774
53.175 6.09187
53.180 5.971327
53.185 6.653345
53.190 7.131808
53.195 7.527084
53.200 7.400684
53.205 7.429846
53.210 7.566639
53.215 7.284384
53.220 7.025011
53.225 7.064201
53.230 7.013914
53.235 7.032885
53.240 7.247281
53.245 7.225279
53.250 7.459236
53.255 7.520849
53.260 7.642275
53.265 7.979165
53.270 8.021255
53.275 8.137317
53.280 7.984586
53.285 7.418988
53.290 7.20834
53.295 7.037326
53.300 6.935526
53.305 7.282044
53.310 7.474349
53.315 8.032329
53.320 8.125441
53.325 8.300691
53.330 8.062551
53.335 8.086376
53.340 7.706839
53.345 7.657992
53.350 7.230586
53.355 7.405302
53.360 7.349103
53.365 7.900764
53.370 8.464764
53.375 8.47284
53.380 8.387618
53.385 8.145962
53.390 7.992839
53.395 8.413748
53.400 8.16057
53.405 7.70011
53.410 7.43083
53.415 7.569528
53.420 8.014135
53.425 7.715549
53.430 7.120421
53.435 7.061693
53.440 7.312985
53.445 7.539552
53.450 7.604846
53.455 7.847035
53.460 8.637158
53.465 8.753067
53.470 8.795282
53.475 8.773088
53.480 8.851845
53.485 8.635699
53.490 8.05048
53.495 7.882434
53.500 8.060969
53.505 7.76577
53.510 7.669895
53.515 7.691535
53.520 8.298083
53.525 9.071223
53.530 8.986818
53.535 9.059525
53.540 9.573441
53.545 10.088651
53.550 10.229733
53.555 9.909622
53.560 9.316386
53.565 9.448043
53.570 9.491517
53.575 8.997641
53.580 8.415242
53.585 8.287878
53.590 8.056718
53.595 8.064884
53.600 7.911887
53.605 7.614923
53.610 7.420823
53.615 7.205305
53.620 7.406938
53.625 7.845877
53.630 7.492169
53.635 7.566647
53.640 7.691427
53.645 7.892511
53.650 7.744496
53.655 7.402646
53.660 7.293585
53.665 7.590329
53.670 7.504534
53.675 7.498705
53.680 7.833005
53.685 8.095219
53.690 8.324533
53.695 8.798597
53.700 8.652698
53.705 8.49055
53.710 8.252531
53.715 8.263829
53.720 8.123681
53.725 7.615055
53.730 7.643086
53.735 8.04766
53.740 8.576781
53.745 8.901558
53.750 8.642521
53.755 8.893844
53.760 9.125841
53.765 9.056386
53.770 9.1189
53.775 9.156489
53.780 9.424456
53.785 9.349053
53.790 8.997588
53.795 8.573976
53.800 8.025888
53.805 8.314588
53.810 8.269002
53.815 8.366835
53.820 9.099595
53.825 9.213716
53.830 9.312217
53.835 9.477483
53.840 8.890389
53.845 9.104959
53.850 8.747643
53.855 8.328099
53.860 8.366582
53.865 8.331099
53.870 8.177194
53.875 7.758216
53.880 7.56147
53.885 7.762732
53.890 7.78907
53.895 8.010472
53.900 8.129102
53.905 8.320119
53.910 8.688111
53.915 8.354484
53.920 8.121296
53.925 8.363967
53.930 8.281669
53.935 8.434256
53.940 8.382984
53.945 8.627339
53.950 8.833248
53.955 8.679831
53.960 8.391625
53.965 8.780953
53.970 8.873646
53.975 9.014844
53.980 9.144279
53.985 9.334492
53.990 9.508495
53.995 9.486456
54.000 9.262352
54.005 9.241315
54.010 9.521434
54.015 9.536615
54.020 9.579937
54.025 9.605673
54.030 9.510439
54.035 9.013371
54.040 8.748345
54.045 8.213984
54.050 8.22374
54.055 8.527157
54.060 8.890388
54.065 9.448641
54.070 9.61611
54.075 9.933727
54.080 10.398293
54.085 9.916356
54.090 9.61632
54.095 9.179161
54.100 8.773799
54.105 9.064936
54.110 8.794251
54.115 8.545536
54.120 8.394402
54.125 8.42111
54.130 8.17316
54.135 8.261547
54.140 8.268415
54.145 8.673627
54.150 8.645797
54.155 8.689505
54.160 8.705584
54.165 8.825944
54.170 8.54557
54.175 8.103167
54.180 7.777875
54.185 8.125445
54.190 8.043282
54.195 8.016337
54.200 7.961638
54.205 8.166888
54.210 8.130249
54.215 7.8956
54.220 8.145994
54.225 8.573879
54.230 9.072002
54.235 9.682785
54.240 9.564585
54.245 9.511618
54.250 9.470628
54.255 9.430659
54.260 9.600161
54.265 9.855451
54.270 10.151709
54.275 10.221374
54.280 9.9116
54.285 9.851086
54.290 9.820334
54.295 9.167442
54.300 8.400345
54.305 8.099386
54.310 7.994718
54.315 8.284953
54.320 8.203835
54.325 8.15976
54.330 8.173914
54.335 7.894445
54.340 8.140464
54.345 8.568373
54.350 8.425003
54.355 8.200253
54.360 8.401631
54.365 8.879676
54.370 9.281337
54.375 9.111511
54.380 9.458767
54.385 9.996584
54.390 10.107018
54.395 9.987436
54.400 9.55552
54.405 9.315246
54.410 9.523824
54.415 9.2528
54.420 9.41475
54.425 9.692443
54.430 9.818891
54.435 10.126657
54.440 10.203677
54.445 10.115723
54.450 9.592112
54.455 9.142947
54.460 8.656581
54.465 8.750788
54.470 8.668121
54.475 8.644547
54.480 9.071733
54.485 9.377941
54.490 9.351498
54.495 9.480969
54.500 9.487888
54.505 9.253609
54.510 9.362571
54.515 9.083051
54.520 8.89381
54.525 9.073099
54.530 9.076407
54.535 9.231814
54.540 9.381758
54.545 8.884565
54.550 9.076103
54.555 9.319409
54.560 9.813648
54.565 9.89081
54.570 9.48888
54.575 9.575613
54.580 9.236197
54.585 9.471014
54.590 9.096654
54.595 8.531923
54.600 8.09424
54.605 8.112139
54.610 8.560726
54.615 8.876871
54.620 8.556
54.625 8.727854
54.630 9.069149
54.635 8.968434
54.640 8.998053
54.645 8.513603
54.650 8.110479
54.655 8.349607
54.660 8.552039
54.665 8.880936
54.670 9.052607
54.675 8.941542
54.680 9.660486
54.685 9.965787
54.690 10.044022
54.695 9.878761
54.700 9.81216
54.705 10.100868
54.710 9.732475
54.715 9.43593
54.720 9.552521
54.725 9.574032
54.730 9.861037
54.735 9.748324
54.740 9.631032
54.745 9.932425
54.750 9.767641
54.755 9.834831
54.760 9.882588
54.765 9.522024
54.770 9.864783
54.775 9.859703
54.780 10.097868
54.785 10.667423
54.790 10.556663
54.795 10.138423
54.800 10.257596
54.805 10.275448
54.810 10.845016
54.815 10.698863
54.820 10.088502
54.825 9.85851
54.830 10.173691
54.835 10.016026
54.840 9.79284
54.845 9.027187
54.850 8.76643
54.855 8.710962
54.860 8.406514
54.865 8.401838
54.870 8.371081
54.875 8.512364
54.880 9.083862
54.885 9.389757
54.890 9.964243
54.895 10.726443
54.900 10.654909
54.905 10.692168
54.910 10.576778
54.915 10.622513
54.920 10.326667
54.925 10.106865
54.930 9.716018
54.935 9.937454
54.940 9.771029
54.945 9.695065
54.950 10.072663
54.955 10.02064
54.960 10.177515
54.965 10.130242
54.970 10.135353
54.975 10.760938
54.980 10.802575
54.985 10.687795
54.990 10.710353
54.995 10.134502
55.000 9.942511
55.005 9.57015
55.010 9.234414
55.015 9.227059
55.020 9.236197
55.025 9.569292
55.030 9.404531
55.035 9.909794
55.040 10.195511
55.045 9.994186
55.050 9.673762
55.055 9.380314
55.060 9.596034
55.065 9.814057
55.070 9.933866
55.075 9.90765
55.080 10.187268
55.085 11.004361
55.090 11.05587
55.095 11.032719
55.100 10.877611
55.105 10.80184
55.110 11.11789
55.115 11.044319
55.120 10.605268
55.125 10.450967
55.130 10.484563
55.135 10.418587
55.140 10.062819
55.145 10.168276
55.150 10.094102
55.155 9.938314
55.160 9.859519
55.165 10.085855
55.170 10.608376
55.175 10.386086
55.180 10.139172
55.185 10.165279
55.190 10.209174
55.195 10.480567
55.200 9.866451
55.205 9.616397
55.210 9.900746
55.215 9.959478
55.220 9.853391
55.225 10.054396
55.230 10.218686
55.235 10.489661
55.240 10.684325
55.245 11.284739
55.250 11.356212
55.255 11.723754
55.260 11.263842
55.265 11.216884
55.270 11.242854
55.275 10.71168
55.280 10.448485
55.285 10.541049
55.290 9.960508
55.295 10.113778
55.300 9.871613
55.305 9.86129
55.310 10.174494
55.315 9.979678
55.320 9.923394
55.325 10.445909
55.330 10.515785
55.335 10.957661
55.340 10.923954
55.345 10.836825
55.350 10.646132
55.355 10.926345
55.360 11.354165
55.365 11.432644
55.370 11.180729
55.375 10.72748
55.380 10.482358
55.385 10.610323
55.390 10.517065
55.395 10.490195
55.400 10.348333
55.405 10.617323
55.410 10.973835
55.415 10.625414
55.420 9.889302
55.425 9.188144
55.430 9.296269
55.435 9.165913
55.440 8.901834
55.445 9.164688
55.450 9.912127
55.455 10.326908
55.460 10.606907
55.465 10.786028
55.470 11.19531
55.475 11.116749
55.480 10.637747
55.485 10.542665
55.490 11.022218
55.495 11.270241
55.500 11.065622
55.505 11.069323
55.510 11.34833
55.515 11.568866
55.520 11.529132
55.525 11.176026
55.530 10.740541
55.535 10.283192
55.540 10.311067
55.545 10.388823
55.550 10.879135
55.555 10.837222
55.560 11.019147
55.565 10.912445
55.570 10.801463
55.575 10.497697
55.580 10.295574
55.585 9.764272
55.590 9.715629
55.595 9.919763
55.600 10.16417
55.605 10.359439
55.610 11.021394
55.615 11.10086
55.620 11.194843
55.625 11.214319
55.630 10.91207
55.635 10.755925
55.640 10.769499
55.645 10.352961
55.650 10.256043
55.655 10.29468
55.660 10.614803
55.665 10.440053
55.670 10.296596
55.675 10.185296
55.680 10.276387
55.685 10.519788
55.690 10.543813
55.695 10.525919
55.700 10.400042
55.705 10.610219
55.710 10.650073
55.715 10.332416
55.720 9.91586
55.725 10.057393
55.730 10.274955
55.735 10.921197
55.740 10.708676
55.745 10.727272
55.750 10.914607
55.755 11.161267
55.760 11.056787
55.765 10.727404
55.770 10.796322
55.775 11.285949
55.780 11.67528
55.785 11.866566
55.790 11.619473
55.795 11.726125
55.800 11.524468
55.805 11.273235
55.810 10.911032
55.815 10.480457
55.820 10.840021
55.825 10.796013
55.830 10.823512
55.835 11.373589
55.840 11.607975
55.845 11.77351
55.850 11.66937
55.855 11.186627
55.860 10.947157
55.865 10.499274
55.870 9.99599
55.875 9.322406
55.880 9.167363
55.885 9.000545
55.890 9.079394
55.895 9.116698
55.900 9.554968
55.905 9.78479
55.910 9.847196
55.915 9.89923
55.920 10.373856
55.925 10.509149
55.930 11.065732
55.935 11.292588
55.940 12.132364
55.945 13.416958
55.950 13.861956
55.955 13.80281
55.960 13.67293
55.965 13.70254
55.970 13.720481
55.975 13.217285
55.980 12.548828
55.985 12.06256
55.990 11.887583
55.995 11.98329
56.000 11.620653
56.005 11.237759
56.010 11.187393
56.015 10.51079
56.020 10.415026
56.025 10.627563
56.030 10.645986
56.035 10.017859
56.040 9.821461
56.045 10.055943
56.050 10.291463
56.055 10.715152
56.060 10.768783
56.065 10.953737
56.070 11.351586
56.075 11.529786
56.080 11.213655
56.085 11.170415
56.090 11.390505
56.095 10.962759
56.100 10.881221
56.105 10.843986
56.110 10.550396
56.115 10.579967
56.120 10.534275
56.125 10.130283
56.130 10.315556
56.135 10.564735
56.140 10.455171
56.145 10.073479
56.150 10.012363
56.155 10.176426
56.160 10.184816
56.165 10.162706
56.170 10.266653
56.175 10.57886
56.180 11.36223
56.185 11.928094
56.190 12.209439
56.195 12.284739
56.200 12.446098
56.205 12.259715
56.210 12.304956
56.215 11.903145
56.220 11.891835
56.225 11.712985
56.230 12.14678
56.235 12.412682
56.240 12.529141
56.245 12.672038
56.250 12.763743
56.255 12.558587
56.260 12.195362
56.265 11.753657
56.270 11.25212
56.275 11.202398
56.280 10.952827
56.285 11.220943
56.290 11.135437
56.295 11.247451
56.300 11.437349
56.305 11.717397
56.310 11.775975
56.315 11.913392
56.320 11.763439
56.325 11.903984
56.330 12.14354
56.335 11.979072
56.340 11.851396
56.345 11.503784
56.350 11.362245
56.355 11.186169
56.360 11.401475
56.365 11.469564
56.370 11.562471
56.375 11.727289
56.380 11.816884
56.385 11.774524
56.390 11.789301
56.395 11.716937
56.400 11.566901
56.405 10.962379
56.410 10.775739
56.415 10.793136
56.420 10.642689
56.425 11.119884
56.430 11.203808
56.435 11.442586
56.440 11.593287
56.445 11.693761
56.450 11.849457
56.455 12.23548
56.460 11.687677
56.465 11.540319
56.470 11.249131
56.475 11.477264
56.480 11.527304
56.485 11.481024
56.490 11.597384
56.495 11.763045
56.500 11.457259
56.505 11.185205
56.510 11.18147
56.515 10.866667
56.520 11.17031
56.525 11.311251
56.530 11.389082
56.535 11.816858
56.540 12.136419
56.545 12.213494
56.550 12.915844
56.555 12.650222
56.560 12.434075
56.565 11.867575
56.570 11.935023
56.575 12.030831
56.580 11.524541
56.585 11.130752
56.590 10.851926
56.595 10.978364
56.600 11.225596
56.605 11.098826
56.610 11.006992
56.615 11.264889
56.620 11.621172
56.625 11.389678
56.630 11.247642
56.635 12.077084
56.640 12.084626
56.645 12.622055
56.650 12.542713
56.655 12.378927
56.660 12.778738
56.665 12.661622
56.670 12.058401
56.675 12.344122
56.680 12.019904
56.685 12.233865
56.690 12.621294
56.695 13.232519
56.700 13.715671
56.705 14.099767
56.710 14.521389
56.715 14.206775
56.720 14.341933
56.725 14.212975
56.730 14.203506
56.735 14.067935
56.740 14.098828
56.745 13.94115
56.750 14.12467
56.755 13.560339
56.760 13.713797
56.765 13.496037
56.770 13.089539
56.775 12.517664
56.780 12.147036
56.785 12.2761
56.790 12.413099
56.795 12.276266
56.800 12.006316
56.805 12.261697
56.810 11.998755
56.815 11.978985
56.820 11.734575
56.825 11.738814
56.830 11.449457
56.835 11.691568
56.840 11.582459
56.845 11.614041
56.850 11.333091
56.855 11.052985
56.860 11.037786
56.865 11.011101
56.870 10.981142
56.875 11.29958
56.880 11.61304
56.885 11.800557
56.890 11.670259
56.895 11.947251
56.900 11.711339
56.905 11.615628
56.910 11.636966
56.915 11.475276
56.920 11.756295
56.925 12.272512
56.930 12.293884
56.935 12.690511
56.940 12.701403
56.945 12.771834
56.950 12.780881
56.955 12.791468
56.960 12.462347
56.965 12.340798
56.970 12.238647
56.975 11.865541
56.980 12.130365
56.985 12.463858
56.990 12.71169
56.995 12.808412
57.000 12.792399
57.005 13.237068
57.010 13.538367
57.015 13.072958
57.020 12.691846
57.025 12.13142
57.030 11.911136
57.035 11.464682
57.040 10.786669
57.045 10.9933
57.050 11.594848
57.055 11.904281
57.060 12.142862
57.065 12.443606
57.070 12.756968
57.075 12.438843
57.080 12.377222
57.085 12.203608
57.090 11.91434
57.095 12.164953
57.100 12.216208
57.105 12.139412
57.110 12.509791
57.115 12.459884
57.120 12.502794
57.125 12.335177
57.130 12.047845
57.135 12.348322
57.140 12.80849
57.145 12.875257
57.150 12.709952
57.155 12.950845
57.160 13.354362
57.165 13.150556
57.170 12.846665
57.175 12.614298
57.180 12.245798
57.185 12.336221
57.190 12.895135
57.195 12.720011
57.200 13.104294
57.205 13.596116
57.210 13.791931
57.215 14.034928
57.220 14.07184
57.225 13.601031
57.230 13.814406
57.235 13.656074
57.240 13.109539
57.245 13.301957
57.250 13.185727
57.255 12.966896
57.260 13.010054
57.265 12.524727
57.270 12.520328
57.275 12.427045
57.280 12.136563
57.285 11.853111
57.290 12.194428
57.295 11.752246
57.300 12.09953
57.305 12.320618
57.310 12.435357
57.315 12.942636
57.320 13.062668
57.325 12.774889
57.330 12.800973
57.335 12.976903
57.340 13.12729
57.345 13.029819
57.350 12.967445
57.355 12.954061
57.360 12.669349
57.365 12.787734
57.370 12.590281
57.375 12.296531
57.380 12.520007
57.385 12.391522
57.390 12.139274
57.395 12.273147
57.400 12.547838
57.405 12.56144
57.410 12.02433
57.415 11.625187
57.420 11.516377
57.425 11.42099
57.430 11.63406
57.435 11.171946
57.440 11.405069
57.445 11.881457
57.450 12.044751
57.455 12.105859
57.460 12.214335
57.465 12.167994
57.470 12.521749
57.475 12.52317
57.480 12.568454
57.485 11.971075
57.490 11.999737
57.495 12.159149
57.500 12.612514
57.505 12.273653
57.510 12.027153
57.515 12.07297
57.520 12.319706
57.525 12.665852
57.530 12.457531
57.535 12.008782
57.540 11.749611
57.545 11.627684
57.550 11.656735
57.555 11.8343
57.560 11.974112
57.565 12.260155
57.570 12.739012
57.575 13.115125
57.580 12.661286
57.585 12.947303
57.590 13.307044
57.595 12.919495
57.600 12.662846
57.605 12.171867
57.610 12.192704
57.615 13.005832
57.620 12.511546
57.625 12.357833
57.630 12.614946
57.635 12.903581
57.640 13.42656
57.645 13.396321
57.650 13.205467
57.655 13.217219
57.660 12.858061
57.665 12.449759
57.670 12.107555
57.675 11.87652
57.680 12.468315
57.685 12.484304
57.690 12.646468
57.695 13.405972
57.700 13.529166
57.705 13.938605
57.710 13.829176
57.715 13.345147
57.720 13.72831
57.725 13.607743
57.730 13.451841
57.735 13.385557
57.740 12.932391
57.745 12.968586
57.750 13.12077
57.755 13.007395
57.760 13.001934
57.765 13.180008
57.770 13.071478
57.775 13.277775
57.780 12.869447
57.785 12.372307
57.790 12.207596
57.795 11.72521
57.800 11.30959
57.805 11.46504
57.810 11.700419
57.815 12.008656
57.820 12.31927
57.825 12.428901
57.830 12.997963
57.835 13.613579
57.840 13.34241
57.845 13.535194
57.850 13.648072
57.855 13.84161
57.860 13.995689
57.865 13.525815
57.870 13.53612
57.875 14.143264
57.880 14.102993
57.885 14.00499
57.890 13.828273
57.895 13.49892
57.900 13.418209
57.905 13.008386
57.910 12.692568
57.915 12.461231
57.920 11.929426
57.925 11.653733
57.930 11.978621
57.935 11.759392
57.940 11.961564
57.945 11.811308
57.950 12.332862
57.955 13.229402
57.960 13.997105
57.965 14.735826
57.970 15.361597
57.975 15.983552
57.980 16.271215
57.985 16.478992
57.990 16.494898
57.995 15.419167
58.000 14.728478
58.005 14.580776
58.010 13.948061
58.015 14.135792
58.020 13.760935
58.025 13.312286
58.030 13.650213
58.035 13.764865
58.040 13.761353
58.045 14.040084
58.050 13.673897
58.055 13.773229
58.060 13.997332
58.065 14.180297
58.070 13.67329
58.075 13.489349
58.080 13.262179
58.085 13.436148
58.090 13.651313
58.095 13.606705
58.100 14.061274
58.105 14.601715
58.110 15.138024
58.115 15.385265
58.120 15.06539
58.125 14.935802
58.130 15.061731
58.135 14.746298
58.140 14.486262
58.145 13.471462
58.150 13.060569
58.155 13.395899
58.160 13.248717
58.165 13.211192
58.170 13.178044
58.175 13.559298
58.180 13.922162
58.185 13.410036
58.190 12.973202
58.195 13.029315
58.200 12.643041
58.205 12.400303
58.210 12.266461
58.215 12.3781
58.220 12.86881
58.225 12.879481
58.230 12.79944
58.235 13.017651
58.240 13.197818
58.245 13.105691
58.250 13.001839
58.255 13.108018
58.260 12.93844
58.265 12.6486
58.270 12.361346
58.275 12.375567
58.280 12.203436
58.285 12.242209
58.290 12.266575
58.295 12.295214
58.300 12.731739
58.305 12.976509
58.310 12.938052
58.315 12.591416
58.320 13.089346
58.325 13.132936
58.330 13.123071
58.335 13.118114
58.340 13.351177
58.345 13.568593
58.350 14.273261
58.355 14.256873
58.360 14.6454
58.365 15.086061
58.370 15.077971
58.375 14.972625
58.380 14.914041
58.385 14.810257
58.390 14.888906
58.395 14.334777
58.400 14.324345
58.405 14.278206
58.410 13.9899
58.415 13.686183
58.420 13.539283
58.425 13.677971
58.430 13.862055
58.435 13.788675
58.440 14.010507
58.445 14.38702
58.450 14.654608
58.455 14.887238
58.460 14.697934
58.465 15.063666
58.470 15.33524
58.475 15.267188
58.480 15.312191
58.485 15.642073
58.490 15.334916
58.495 15.339378
58.500 15.024552
58.505 15.007957
58.510 15.296872
58.515 15.121057
58.520 14.314246
58.525 13.725697
58.530 13.207391
58.535 12.881678
58.540 12.38961
58.545 11.760762
58.550 11.776063
58.555 12.210922
