!@!!GADDS PLOTSO FILE: Chi integration type
!@!!Title/SampleName: map-133
!@!!Comment: ?
!@!!User: Bruker Instrument Administrator
!@!!Site: University of Illinois Chicago
!@!!Frame: map-133_01_000.gfrm
!@!!Wavelengths    1.54184   1.54056   1.54439
!@!!Frame angles: 2Theta: 63.000 Omega: 50.000 Phi: 0.000 Chi: 90.000
!@!!Integration range: 2Theta: 53.000 to 73.000  Gamma: -105.000 to -75.000
!@!!Integration method: bin normalized
!@!N
!@!SS
!@!M
!@!L 0.0 0.0 0.0 0.0
!@!XDegrees
!@!YCounts
53.000 3.263737
53.005 3.439581
53.010 3.863992
53.015 3.668098
53.020 3.636548
53.025 3.743328
53.030 4.000266
53.035 3.910661
53.040 3.582937
53.045 3.549262
53.050 3.770525
53.055 3.765322
53.060 3.707008
53.065 3.505996
53.070 3.82161
53.075 3.973877
53.080 3.748585
53.085 3.798063
53.090 3.865005
53.095 3.907173
53.100 3.850192
53.105 3.615272
53.110 3.722517
53.115 4.208619
53.120 4.232746
53.125 4.351152
53.130 4.469168
53.135 4.613553
53.140 4.619219
53.145 4.633894
53.150 4.169524
53.155 4.026377
53.160 3.989856
53.165 3.937579
53.170 3.885189
53.175 4.061541
53.180 4.032892
53.185 4.232005
53.190 4.53533
53.195 4.368198
53.200 4.286697
53.205 4.432149
53.210 4.358078
53.215 4.31693
53.220 4.257533
53.225 3.91681
53.230 4.21657
53.235 4.192531
53.240 3.844032
53.245 3.83364
53.250 4.008049
53.255 4.025169
53.260 4.043421
53.265 3.772552
53.270 3.766788
53.275 3.823879
53.280 3.802966
53.285 3.631973
53.290 3.783526
53.295 4.146358
53.300 4.44855
53.305 4.697576
53.310 4.878662
53.315 5.005051
53.320 4.865328
53.325 4.430647
53.330 3.965619
53.335 3.75897
53.340 3.760601
53.345 3.569928
53.350 3.512546
53.355 3.749055
53.360 3.886699
53.365 4.111777
53.370 4.03991
53.375 3.809239
53.380 3.999113
53.385 4.069579
53.390 3.953208
53.395 3.962039
53.400 4.038239
53.405 4.183706
53.410 4.276895
53.415 3.986246
53.420 4.195389
53.425 4.397532
53.430 4.790298
53.435 4.941457
53.440 4.935495
53.445 5.194211
53.450 5.030948
53.455 4.737878
53.460 4.576021
53.465 4.249665
53.470 4.403746
53.475 4.431233
53.480 4.546239
53.485 4.585506
53.490 5.047504
53.495 5.054413
53.500 5.240406
53.505 5.238762
53.510 5.214792
53.515 5.249845
53.520 5.346644
53.525 5.124475
53.530 5.284163
53.535 5.101066
53.540 5.135999
53.545 5.064952
53.550 5.144031
53.555 5.112407
53.560 5.432746
53.565 5.291722
53.570 5.189739
53.575 4.728372
53.580 4.610189
53.585 4.609605
53.590 4.31114
53.595 4.048214
53.600 4.195109
53.605 4.171143
53.610 4.507401
53.615 4.460742
53.620 4.443207
53.625 4.470379
53.630 4.419727
53.635 4.420369
53.640 4.29045
53.645 4.444955
53.650 4.6039
53.655 4.53904
53.660 4.346955
53.665 4.524958
53.670 4.596375
53.675 4.984908
53.680 4.628994
53.685 4.496558
53.690 4.731439
53.695 4.964764
53.700 4.970874
53.705 4.794696
53.710 4.429591
53.715 4.449489
53.720 4.508602
53.725 4.309845
53.730 4.201845
53.735 3.82448
53.740 3.907866
53.745 4.076346
53.750 4.048531
53.755 4.383269
53.760 4.83609
53.765 5.034329
53.770 5.04424
53.775 5.185023
53.780 5.156919
53.785 5.291835
53.790 4.647075
53.795 3.973395
53.800 3.694165
53.805 3.66669
53.810 3.393524
53.815 3.33358
53.820 3.077319
53.825 2.959828
53.830 3.465117
53.835 3.832636
53.840 4.117647
53.845 4.318031
53.850 4.390978
53.855 4.76014
53.860 5.082328
53.865 4.814373
53.870 4.491682
53.875 4.421185
53.880 4.398276
53.885 4.317266
53.890 4.100831
53.895 4.123287
53.900 4.264348
53.905 4.613217
53.910 4.649392
53.915 4.84313
53.920 4.917464
53.925 5.068091
53.930 4.805616
53.935 4.458621
53.940 4.181653
53.945 4.204179
53.950 4.068646
53.955 3.946264
53.960 3.832223
53.965 4.103191
53.970 4.552021
53.975 4.70545
53.980 4.650739
53.985 4.934973
53.990 5.131357
53.995 5.179387
54.000 5.091654
54.005 5.00136
54.010 5.144721
54.015 5.250968
54.020 5.429105
54.025 5.314859
54.030 5.475126
54.035 5.267589
54.040 5.365829
54.045 5.384265
54.050 4.903378
54.055 4.718338
54.060 4.753111
54.065 4.851705
54.070 5.404466
54.075 5.297657
54.080 5.383253
54.085 5.531135
54.090 5.898497
54.095 5.899763
54.100 5.929765
54.105 5.66192
54.110 5.423948
54.115 5.021918
54.120 4.702633
54.125 4.505405
54.130 4.293489
54.135 4.042185
54.140 3.703255
54.145 3.87845
54.150 4.286246
54.155 4.414906
54.160 4.476348
54.165 4.690058
54.170 4.818914
54.175 5.191674
54.180 5.347749
54.185 5.414325
54.190 5.461839
54.195 5.547396
54.200 5.444771
54.205 5.366517
54.210 5.088241
54.215 5.070934
54.220 4.871413
54.225 4.473161
54.230 4.302132
54.235 4.411071
54.240 4.420432
54.245 4.146512
54.250 3.932754
54.255 4.261024
54.260 4.550557
54.265 4.196639
54.270 4.334277
54.275 4.722799
54.280 5.024054
54.285 4.910482
54.290 4.755414
54.295 4.859153
54.300 5.048703
54.305 4.776062
54.310 4.796981
54.315 4.720614
54.320 5.024164
54.325 5.248382
54.330 5.199239
54.335 5.461101
54.340 5.27897
54.345 5.016996
54.350 5.106875
54.355 5.068293
54.360 5.126174
54.365 5.417153
54.370 5.221707
54.375 5.304823
54.380 5.667078
54.385 5.513695
54.390 5.210573
54.395 4.892936
54.400 4.68966
54.405 4.944749
54.410 4.64886
54.415 4.210636
54.420 4.598405
54.425 4.743385
54.430 4.934534
54.435 4.989835
54.440 4.981498
54.445 4.909709
54.450 4.796352
54.455 4.558598
54.460 4.46789
54.465 4.343852
54.470 4.604537
54.475 4.705911
54.480 4.989071
54.485 5.380192
54.490 5.365539
54.495 5.499895
54.500 5.383685
54.505 4.690219
54.510 4.773718
54.515 4.924985
54.520 4.824361
54.525 4.965149
54.530 4.757365
54.535 5.093477
54.540 5.605999
54.545 5.508069
54.550 5.41954
54.555 5.37064
54.560 5.353552
54.565 5.50308
54.570 5.289421
54.575 5.043604
54.580 5.126354
54.585 4.831797
54.590 4.775256
54.595 4.651787
54.600 4.546379
54.605 4.533716
54.610 4.420663
54.615 4.534731
54.620 4.880018
54.625 5.253768
54.630 5.368736
54.635 5.531665
54.640 5.50033
54.645 5.462634
54.650 4.956841
54.655 4.849422
54.660 4.77553
54.665 5.064124
54.670 4.994411
54.675 4.836778
54.680 4.993423
54.685 5.148989
54.690 5.152208
54.695 4.788328
54.700 4.602771
54.705 4.819158
54.710 5.31968
54.715 5.297139
54.720 5.346536
54.725 5.251689
54.730 5.504767
54.735 5.516228
54.740 5.571139
54.745 5.07835
54.750 5.18874
54.755 5.135849
54.760 5.0881
54.765 4.853025
54.770 4.62444
54.775 4.556856
54.780 4.603572
54.785 4.664343
54.790 4.965795
54.795 5.316765
54.800 5.573313
54.805 5.862118
54.810 5.951772
54.815 6.143524
54.820 5.924026
54.825 5.868342
54.830 5.66713
54.835 5.361821
54.840 5.090352
54.845 5.231252
54.850 5.153118
54.855 5.314305
54.860 5.356962
54.865 5.2465
54.870 5.303275
54.875 5.199898
54.880 4.847916
54.885 4.85509
54.890 4.653106
54.895 4.534572
54.900 4.629232
54.905 4.825493
54.910 5.138157
54.915 5.662023
54.920 5.568697
54.925 5.582233
54.930 5.363328
54.935 5.260459
54.940 5.296562
54.945 5.224669
54.950 4.967319
54.955 5.009366
54.960 5.151176
54.965 5.491735
54.970 5.828182
54.975 5.828979
54.980 5.724782
54.985 5.467103
54.990 5.833517
54.995 5.99137
55.000 6.038881
55.005 5.623283
55.010 5.503403
55.015 5.838879
55.020 6.098478
55.025 6.048585
55.030 5.961955
55.035 5.940153
55.040 5.840228
55.045 5.717477
55.050 5.670438
55.055 5.275545
55.060 5.12045
55.065 5.067526
55.070 5.212809
55.075 5.411417
55.080 5.695309
55.085 5.948768
55.090 6.037397
55.095 6.290223
55.100 6.276311
55.105 6.361452
55.110 6.376646
55.115 6.050249
55.120 6.124461
55.125 6.349047
55.130 6.040341
55.135 5.908447
55.140 6.045901
55.145 6.034171
55.150 6.290599
55.155 6.370365
55.160 6.221506
55.165 6.371255
55.170 6.322538
55.175 6.511065
55.180 6.586598
55.185 6.556701
55.190 6.783793
55.195 6.768045
55.200 6.470083
55.205 6.304632
55.210 6.312932
55.215 6.444829
55.220 5.888476
55.225 5.594567
55.230 5.658684
55.235 5.760276
55.240 6.086325
55.245 5.682298
55.250 5.519107
55.255 5.123075
55.260 5.224082
55.265 5.393509
55.270 5.639182
55.275 5.461535
55.280 5.488281
55.285 6.241701
55.290 6.956049
55.295 6.558869
55.300 6.495085
55.305 6.474546
55.310 6.518738
55.315 6.289347
55.320 5.529953
55.325 5.081875
55.330 5.048856
55.335 5.047366
55.340 5.019507
55.345 5.118527
55.350 5.340767
55.355 5.60608
55.360 5.696967
55.365 5.567094
55.370 5.142953
55.375 4.473396
55.380 4.630877
55.385 4.72417
55.390 4.652195
55.395 4.831634
55.400 5.150328
55.405 5.58812
55.410 5.756102
55.415 5.496356
55.420 5.739716
55.425 5.804724
55.430 5.720596
55.435 5.678857
55.440 5.582757
55.445 5.649559
55.450 5.562832
55.455 5.528838
55.460 5.697456
55.465 6.204822
55.470 6.369678
55.475 6.439435
55.480 6.609395
55.485 6.719523
55.490 6.757828
55.495 6.560972
55.500 6.188363
55.505 6.317621
55.510 6.425082
55.515 6.186903
55.520 5.927447
55.525 5.833942
55.530 5.945296
55.535 5.889813
55.540 5.900384
55.545 6.127171
55.550 6.667645
55.555 6.872753
55.560 7.168389
55.565 7.183059
55.570 7.294226
55.575 7.225173
55.580 7.079571
55.585 7.044674
55.590 6.881568
55.595 6.665776
55.600 6.430123
55.605 6.489262
55.610 6.40472
55.615 6.083715
55.620 5.885875
55.625 5.758911
55.630 5.507202
55.635 5.487255
55.640 5.451429
55.645 5.421793
55.650 5.485149
55.655 5.60075
55.660 5.729312
55.665 6.520615
55.670 6.766058
55.675 6.708071
55.680 6.791803
55.685 6.760005
55.690 6.761049
55.695 6.758366
55.700 6.539091
55.705 6.344288
55.710 6.179246
55.715 6.373407
55.720 6.535433
55.725 6.434815
55.730 6.376456
55.735 6.184867
55.740 6.249653
55.745 6.073087
55.750 6.024375
55.755 6.072073
55.760 6.301074
55.765 6.155744
55.770 6.156798
55.775 6.134876
55.780 6.026331
55.785 6.250245
55.790 6.194356
55.795 6.158972
55.800 6.459865
55.805 6.926116
55.810 7.246976
55.815 7.607421
55.820 7.316055
55.825 7.413942
55.830 7.399889
55.835 7.087355
55.840 6.891962
55.845 6.277174
55.850 5.989846
55.855 5.633409
55.860 5.085787
55.865 4.907732
55.870 4.761187
55.875 4.954767
55.880 5.830718
55.885 6.154216
55.890 6.293542
55.895 6.378454
55.900 6.657327
55.905 6.870722
55.910 6.706326
55.915 6.503122
55.920 6.700637
55.925 6.977016
55.930 7.38906
55.935 7.664058
55.940 7.304861
55.945 7.254012
55.950 7.007537
55.955 7.01232
55.960 7.317126
55.965 6.977914
55.970 6.551404
55.975 6.619913
55.980 7.06822
55.985 6.91475
55.990 6.348304
55.995 5.780328
56.000 5.969598
56.005 6.137603
56.010 6.572402
56.015 6.352659
56.020 6.597555
56.025 7.063837
56.030 7.261435
56.035 6.960722
56.040 6.921206
56.045 6.851818
56.050 6.830814
56.055 6.494184
56.060 6.327109
56.065 6.362423
56.070 6.37766
56.075 6.933449
56.080 6.935176
56.085 6.719668
56.090 6.838688
56.095 6.915587
56.100 6.808208
56.105 6.670788
56.110 6.113944
56.115 6.088985
56.120 6.378218
56.125 6.481952
56.130 6.450303
56.135 6.749376
56.140 6.783335
56.145 6.659742
56.150 6.32869
56.155 6.248517
56.160 6.747476
56.165 6.756044
56.170 7.012887
56.175 7.025794
56.180 7.197175
56.185 7.34692
56.190 7.130417
56.195 6.672781
56.200 6.750426
56.205 6.673245
56.210 7.055462
56.215 7.268776
56.220 7.682417
56.225 7.861402
56.230 7.755
56.235 7.783127
56.240 7.857761
56.245 7.687753
56.250 7.523317
56.255 7.480426
56.260 7.667083
56.265 8.07807
56.270 7.959386
56.275 7.99596
56.280 8.029489
56.285 8.264498
56.290 8.307252
56.295 7.965476
56.300 7.351606
56.305 7.486973
56.310 7.310884
56.315 7.000957
56.320 6.887419
56.325 6.8484
56.330 7.167743
56.335 7.56756
56.340 7.456169
56.345 7.621483
56.350 7.562413
56.355 7.475614
56.360 7.542462
56.365 7.665876
56.370 7.590276
56.375 7.557367
56.380 7.15972
56.385 6.880472
56.390 6.426946
56.395 6.089246
56.400 5.682598
56.405 5.705046
56.410 5.68037
56.415 5.696368
56.420 6.021994
56.425 6.128031
56.430 6.215643
56.435 5.949296
56.440 5.372085
56.445 5.237608
56.450 5.485138
56.455 5.503129
56.460 5.636952
56.465 6.165203
56.470 6.664244
56.475 6.920474
56.480 7.195902
56.485 7.423654
56.490 7.678541
56.495 7.881814
56.500 7.578838
56.505 7.48538
56.510 7.615756
56.515 7.414109
56.520 7.296233
56.525 6.900445
56.530 6.946627
56.535 6.946174
56.540 6.927971
56.545 6.848546
56.550 7.009048
56.555 7.143818
56.560 7.335083
56.565 7.119853
56.570 7.266739
56.575 7.759532
56.580 7.897813
56.585 7.770237
56.590 7.601354
56.595 7.350953
56.600 7.474111
56.605 7.343943
56.610 7.205886
56.615 7.310398
56.620 7.066113
56.625 7.099062
56.630 7.442357
56.635 7.563394
56.640 7.160557
56.645 6.851548
56.650 7.186825
56.655 7.551684
56.660 7.851163
56.665 7.921831
56.670 7.949997
56.675 8.235872
56.680 8.167396
56.685 7.907214
56.690 7.747604
56.695 7.540221
56.700 7.006909
56.705 6.909412
56.710 7.193294
56.715 7.207566
56.720 7.481081
56.725 7.763584
56.730 7.736474
56.735 7.711795
56.740 7.514277
56.745 7.296127
56.750 7.197728
56.755 6.93273
56.760 7.071304
56.765 7.437255
56.770 7.437332
56.775 7.523694
56.780 7.675983
56.785 7.866989
56.790 8.073466
56.795 8.15255
56.800 8.327853
56.805 8.940142
56.810 8.716418
56.815 8.237759
56.820 8.236689
56.825 8.31366
56.830 8.314431
56.835 8.224512
56.840 7.796628
56.845 7.795451
56.850 7.774731
56.855 7.590106
56.860 7.205301
56.865 7.125216
56.870 7.018667
56.875 7.351601
56.880 7.585756
56.885 7.868727
56.890 7.775944
56.895 7.737767
56.900 7.795945
56.905 7.767904
56.910 7.750104
56.915 8.160682
56.920 8.275894
56.925 8.390118
56.930 8.074418
56.935 7.775862
56.940 7.475493
56.945 7.668018
56.950 7.480792
56.955 7.275857
56.960 7.332254
56.965 7.418321
56.970 7.434443
56.975 7.568109
56.980 7.184673
56.985 6.920455
56.990 6.9521
56.995 7.233026
57.000 7.413915
57.005 7.423614
57.010 7.307621
57.015 7.51434
57.020 7.546047
57.025 7.461299
57.030 7.163517
57.035 7.294321
57.040 7.538977
57.045 7.393803
57.050 7.54346
57.055 7.852201
57.060 7.810062
57.065 8.064746
57.070 7.723199
57.075 8.168029
57.080 8.474076
57.085 7.86575
57.090 7.515063
57.095 7.713582
57.100 7.537939
57.105 7.535101
57.110 7.421227
57.115 7.544396
57.120 8.018242
57.125 8.061982
57.130 7.886858
57.135 8.448182
57.140 8.590024
57.145 8.545701
57.150 8.521944
57.155 8.436843
57.160 8.749487
57.165 8.865376
57.170 8.435541
57.175 7.9626
57.180 7.526459
57.185 7.325862
57.190 7.373703
57.195 7.084785
57.200 6.778435
57.205 6.623475
57.210 6.622007
57.215 6.633165
57.220 6.812053
57.225 6.597999
57.230 6.76784
57.235 6.880941
57.240 7.093351
57.245 7.441384
57.250 7.483067
57.255 7.641474
57.260 7.786501
57.265 8.090816
57.270 8.454379
57.275 8.483454
57.280 8.46926
57.285 8.513478
57.290 8.58403
57.295 8.679801
57.300 8.514741
57.305 8.598643
57.310 8.696708
57.315 8.346391
57.320 7.971328
57.325 7.930339
57.330 7.783352
57.335 7.630477
57.340 7.449058
57.345 7.214823
57.350 7.692103
57.355 8.252272
57.360 8.300914
57.365 8.582013
57.370 8.473102
57.375 8.538746
57.380 8.75963
57.385 8.827048
57.390 8.574824
57.395 8.37332
57.400 8.120323
57.405 8.383119
57.410 8.482363
57.415 8.319391
57.420 7.909634
57.425 8.141078
57.430 8.365135
57.435 8.346575
57.440 8.740397
57.445 8.7019
57.450 8.814688
57.455 8.545843
57.460 8.37958
57.465 8.36019
57.470 8.281352
57.475 7.707216
57.480 7.487667
57.485 7.657528
57.490 7.957604
57.495 7.932978
57.500 7.711254
57.505 7.911477
57.510 7.835299
57.515 7.799683
57.520 7.989448
57.525 7.652376
57.530 7.673661
57.535 7.627328
57.540 7.169353
57.545 7.247952
57.550 7.048261
57.555 7.046531
57.560 7.16346
57.565 7.202434
57.570 7.570434
57.575 7.74756
57.580 7.477345
57.585 7.532551
57.590 7.382583
57.595 7.354733
57.600 7.021384
57.605 6.861783
57.610 6.850665
57.615 7.002048
57.620 7.402638
57.625 7.975595
57.630 8.339323
57.635 8.435093
57.640 8.434036
57.645 8.434983
57.650 8.803091
57.655 8.778412
57.660 8.571546
57.665 8.407784
57.670 8.703064
57.675 8.866102
57.680 9.134041
57.685 8.939678
57.690 8.738984
57.695 8.729396
57.700 8.958527
57.705 8.894563
57.710 8.728879
57.715 8.60606
57.720 8.629056
57.725 8.727662
57.730 8.785997
57.735 8.731049
57.740 8.826972
57.745 8.726501
57.750 8.815492
57.755 8.860015
57.760 8.707199
57.765 8.645696
57.770 8.442591
57.775 8.358027
57.780 8.641497
57.785 8.568911
57.790 8.421949
57.795 8.730196
57.800 8.639561
57.805 8.87215
57.810 8.923032
57.815 8.950056
57.820 8.941307
57.825 9.00074
57.830 8.613082
57.835 8.473996
57.840 8.422616
57.845 8.319254
57.850 8.391482
57.855 8.514305
57.860 8.658388
57.865 9.288275
57.870 9.576257
57.875 9.614462
57.880 9.457747
57.885 9.276871
57.890 9.599749
57.895 9.666059
57.900 9.413309
57.905 9.093675
57.910 9.273926
57.915 9.589882
57.920 10.012496
57.925 9.860406
57.930 9.677421
57.935 9.385647
57.940 9.823258
57.945 9.702675
57.950 9.774648
57.955 8.964227
57.960 8.570796
57.965 8.279278
57.970 8.623564
57.975 8.51692
57.980 8.483054
57.985 8.489956
57.990 8.999624
57.995 9.638916
58.000 10.436997
58.005 10.583147
58.010 10.435952
58.015 10.500587
58.020 10.239041
58.025 10.127058
58.030 10.05374
58.035 9.810811
58.040 9.588043
58.045 10.013206
58.050 10.355354
58.055 10.581306
58.060 10.097674
58.065 9.600599
58.070 9.110594
58.075 8.993365
58.080 8.934165
58.085 8.921664
58.090 9.139826
58.095 9.17228
58.100 9.662677
58.105 9.99103
58.110 9.738288
58.115 9.422582
58.120 9.28811
58.125 9.253932
58.130 9.629556
58.135 9.629135
58.140 9.794528
58.145 9.979912
58.150 10.00909
58.155 9.833241
58.160 9.802576
58.165 9.411459
58.170 9.595069
58.175 9.817104
58.180 9.927348
58.185 10.095149
58.190 10.271671
58.195 10.44924
58.200 10.22355
58.205 10.259601
58.210 10.613662
58.215 10.65321
58.220 10.532852
58.225 10.38133
58.230 10.527139
58.235 10.954002
58.240 10.801588
58.245 10.362743
58.250 10.476542
58.255 10.841467
58.260 11.121212
58.265 10.903399
58.270 10.957532
58.275 10.903335
58.280 10.650802
58.285 10.604227
58.290 10.05792
58.295 9.927925
58.300 10.295586
58.305 10.160347
58.310 9.880332
58.315 9.629316
58.320 9.981977
58.325 10.567051
58.330 10.859126
58.335 10.649243
58.340 10.585523
58.345 11.252316
58.350 11.38722
58.355 10.897918
58.360 10.629678
58.365 10.415242
58.370 10.701973
58.375 10.91755
58.380 10.68423
58.385 11.521284
58.390 11.928463
58.395 12.250667
58.400 12.205762
58.405 12.031356
58.410 12.132327
58.415 12.780151
58.420 13.384829
58.425 13.525154
58.430 13.537249
58.435 14.022535
58.440 14.417796
58.445 14.279656
58.450 13.801687
58.455 13.530426
58.460 13.270383
58.465 13.609393
58.470 13.600648
58.475 13.201342
58.480 13.410881
58.485 13.382442
58.490 13.390646
58.495 13.195348
58.500 12.719236
58.505 12.146125
58.510 12.244126
58.515 12.248629
58.520 12.539411
58.525 12.742679
58.530 13.213815
58.535 13.748502
58.540 14.623076
58.545 15.371053
58.550 15.781632
58.555 15.965286
58.560 16.291946
58.565 16.30681
58.570 16.605881
58.575 16.645302
58.580 16.605669
58.585 17.163305
58.590 17.49254
58.595 18.1049
58.600 18.507238
58.605 18.67432
58.610 18.57692
58.615 18.555126
58.620 18.15888
58.625 18.209923
58.630 18.718815
58.635 19.284826
58.640 19.693062
58.645 20.154211
58.650 20.045666
58.655 20.374136
58.660 20.395315
58.665 19.739548
58.670 19.532194
58.675 19.437792
58.680 19.819208
58.685 20.905874
58.690 21.354906
58.695 21.895536
58.700 22.645155
58.705 22.767155
58.710 22.580126
58.715 22.446163
58.720 21.75436
58.725 21.556423
