!@!!GADDS PLOTSO FILE: Chi integration type
!@!!Title/SampleName: map-75
!@!!Comment: ?
!@!!User: Bruker Instrument Administrator
!@!!Site: University of Illinois Chicago
!@!!Frame: map-75_01_000.gfrm
!@!!Wavelengths    1.54184   1.54056   1.54439
!@!!Frame angles: 2Theta: 63.000 Omega: 50.000 Phi: 0.000 Chi: 90.000
!@!!Integration range: 2Theta: 53.000 to 73.000  Gamma: -105.000 to -75.000
!@!!Integration method: bin normalized
!@!N
!@!SS
!@!M
!@!L 0.0 0.0 0.0 0.0
!@!XDegrees
!@!YCounts
53.000 7.905394
53.005 7.97599
53.010 8.521593
53.015 8.92182
53.020 8.851585
53.025 8.835443
53.030 9.103705
53.035 9.092393
53.040 9.337317
53.045 8.894773
53.050 8.248111
53.055 8.528511
53.060 8.537333
53.065 8.451282
53.070 8.091345
53.075 7.980991
53.080 8.791704
53.085 9.502931
53.090 9.521641
53.095 9.259929
53.100 8.991439
53.105 9.425562
53.110 9.35741
53.115 8.960437
53.120 8.743263
53.125 8.95982
53.130 9.223257
53.135 9.343509
53.140 8.987541
53.145 8.812989
53.150 8.731689
53.155 8.947342
53.160 8.977452
53.165 8.770054
53.170 8.621346
53.175 8.492235
53.180 8.684393
53.185 8.575763
53.190 8.295296
53.195 7.904838
53.200 7.786807
53.205 7.945033
53.210 8.212718
53.215 7.642631
53.220 7.500688
53.225 7.889573
53.230 8.178889
53.235 8.302931
53.240 8.118063
53.245 8.127503
53.250 8.960747
53.255 8.949081
53.260 8.403752
53.265 8.577728
53.270 8.72047
53.275 8.762856
53.280 8.819971
53.285 8.683065
53.290 8.756209
53.295 9.180269
53.300 9.256907
53.305 9.524556
53.310 9.304408
53.315 9.102323
53.320 9.233062
53.325 9.26072
53.330 8.997973
53.335 8.587694
53.340 8.354818
53.345 8.521771
53.350 8.599657
53.355 7.964367
53.360 7.778403
53.365 7.783446
53.370 7.872059
53.375 7.914501
53.380 7.510778
53.385 7.369931
53.390 7.892144
53.395 8.142306
53.400 8.541039
53.405 8.823689
53.410 8.808659
53.415 9.157659
53.420 9.060852
53.425 9.362794
53.430 9.414263
53.435 9.337831
53.440 9.19653
53.445 9.11396
53.450 9.282545
53.455 9.641624
53.460 9.431224
53.465 9.109196
53.470 8.978876
53.475 8.894726
53.480 8.863717
53.485 9.162035
53.490 8.939892
53.495 9.412799
53.500 9.536344
53.505 9.638801
53.510 10.25819
53.515 10.140691
53.520 10.017645
53.525 10.010771
53.530 9.781055
53.535 9.815065
53.540 9.751038
53.545 9.359966
53.550 9.381773
53.555 8.673656
53.560 8.201397
53.565 8.116776
53.570 8.221361
53.575 8.016162
53.580 8.160855
53.585 8.55584
53.590 9.202334
53.595 9.366158
53.600 9.394443
53.605 9.650227
53.610 10.093142
53.615 9.739195
53.620 9.245138
53.625 8.949687
53.630 8.955908
53.635 8.729684
53.640 7.968413
53.645 7.741915
53.650 8.049829
53.655 8.147195
53.660 8.111584
53.665 8.377347
53.670 8.75353
53.675 9.382018
53.680 9.63463
53.685 9.762621
53.690 9.906801
53.695 10.094535
53.700 9.89064
53.705 9.655375
53.710 9.378073
53.715 8.970357
53.720 9.094903
53.725 9.446975
53.730 9.688683
53.735 9.634554
53.740 9.624996
53.745 9.689684
53.750 9.91409
53.755 10.034326
53.760 10.097043
53.765 10.14961
53.770 10.686687
53.775 11.188718
53.780 11.518014
53.785 11.519671
53.790 11.312339
53.795 11.540076
53.800 11.096593
53.805 10.50767
53.810 9.915143
53.815 9.325182
53.820 9.186724
53.825 8.991175
53.830 8.486855
53.835 8.709478
53.840 8.711019
53.845 9.196423
53.850 9.602942
53.855 10.197384
53.860 10.554965
53.865 10.256981
53.870 10.432189
53.875 10.668564
53.880 10.531357
53.885 10.281854
53.890 9.861404
53.895 9.900581
53.900 10.213796
53.905 10.095708
53.910 9.863456
53.915 9.561249
53.920 9.581532
53.925 9.597437
53.930 9.909616
53.935 10.038266
53.940 10.243944
53.945 10.260689
53.950 10.334701
53.955 10.062863
53.960 10.001515
53.965 10.054619
53.970 9.777344
53.975 9.620546
53.980 9.396263
53.985 9.395765
53.990 9.829395
53.995 9.843362
54.000 9.699149
54.005 9.908934
54.010 9.772061
54.015 9.723016
54.020 9.995467
54.025 10.062394
54.030 10.412225
54.035 10.507792
54.040 10.669675
54.045 11.032164
54.050 11.012304
54.055 10.482742
54.060 10.265044
54.065 9.708072
54.070 9.542131
54.075 9.400328
54.080 9.287461
54.085 9.728377
54.090 9.612874
54.095 9.55556
54.100 9.557442
54.105 9.584993
54.110 9.684164
54.115 9.816824
54.120 9.637724
54.125 9.857095
54.130 9.980957
54.135 10.108945
54.140 10.105632
54.145 10.089808
54.150 9.93077
54.155 9.809136
54.160 9.579377
54.165 9.977763
54.170 10.010134
54.175 10.065684
54.180 10.206628
54.185 10.54861
54.190 11.116277
54.195 11.243776
54.200 11.524084
54.205 11.784732
54.210 11.459138
54.215 11.13053
54.220 10.623435
54.225 10.201673
54.230 9.949776
54.235 9.389813
54.240 9.555961
54.245 10.161489
54.250 10.038667
54.255 10.033598
54.260 10.169935
54.265 9.968577
54.270 9.842675
54.275 9.07751
54.280 8.885604
54.285 9.224653
54.290 9.70939
54.295 10.067902
54.300 9.819319
54.305 10.063494
54.310 10.11263
54.315 9.852883
54.320 9.787689
54.325 9.019476
54.330 8.492253
54.335 8.503769
54.340 8.914945
54.345 9.320909
54.350 10.150645
54.355 10.498991
54.360 10.856932
54.365 11.113921
54.370 11.355971
54.375 11.270715
54.380 10.890245
54.385 10.235773
54.390 9.945601
54.395 9.739196
54.400 9.710485
54.405 9.215184
54.410 9.168216
54.415 9.142979
54.420 9.21056
54.425 9.304099
54.430 9.363545
54.435 9.780194
54.440 10.169311
54.445 10.701136
54.450 10.960861
54.455 10.980993
54.460 11.331143
54.465 11.498253
54.470 11.310214
54.475 11.035041
54.480 10.912256
54.485 11.221518
54.490 11.405031
54.495 11.417036
54.500 11.286041
54.505 11.105778
54.510 11.341796
54.515 11.12621
54.520 10.563353
54.525 10.163495
54.530 9.929483
54.535 9.831853
54.540 10.207955
54.545 10.019033
54.550 10.219002
54.555 10.359761
54.560 10.698989
54.565 10.760827
54.570 10.669082
54.575 10.810376
54.580 11.23548
54.585 11.539913
54.590 11.587588
54.595 11.784285
54.600 11.583624
54.605 11.196188
54.610 10.545721
54.615 10.682965
54.620 10.782268
54.625 11.066181
54.630 11.096821
54.635 11.647509
54.640 11.62007
54.645 11.324245
54.650 10.375768
54.655 9.705414
54.660 9.60687
54.665 9.470227
54.670 9.642277
54.675 10.433059
54.680 10.46713
54.685 10.830013
54.690 10.932791
54.695 10.861118
54.700 10.749315
54.705 10.486505
54.710 9.996771
54.715 10.09775
54.720 10.018227
54.725 10.059919
54.730 10.167555
54.735 10.447401
54.740 10.857495
54.745 10.597212
54.750 10.55923
54.755 10.447165
54.760 10.277482
54.765 9.919705
54.770 9.635915
54.775 9.668262
54.780 10.179114
54.785 10.244598
54.790 9.830585
54.795 9.44692
54.800 9.651065
54.805 9.839772
54.810 9.568712
54.815 9.417063
54.820 9.555493
54.825 10.339326
54.830 11.09376
54.835 10.782504
54.840 10.762668
54.845 11.116478
54.850 11.049145
54.855 11.217886
54.860 10.720602
54.865 10.558929
54.870 11.029814
54.875 10.657663
54.880 10.877313
54.885 10.865033
54.890 10.71556
54.895 10.859053
54.900 10.632147
54.905 10.365607
54.910 10.467303
54.915 10.813181
54.920 10.854268
54.925 10.744583
54.930 10.435861
54.935 10.2781
54.940 10.308587
54.945 10.459458
54.950 10.219387
54.955 10.155829
54.960 10.175235
54.965 10.43037
54.970 10.465772
54.975 10.353943
54.980 10.061169
54.985 10.407711
54.990 10.61045
54.995 10.677897
55.000 10.686831
55.005 11.175246
55.010 11.141142
55.015 10.876798
55.020 10.636906
55.025 10.648449
55.030 10.282663
55.035 9.74077
55.040 9.017494
55.045 9.040281
55.050 9.215511
55.055 9.321237
55.060 9.321948
55.065 10.024175
55.070 10.965744
55.075 10.881357
55.080 10.428764
55.085 10.495663
55.090 10.633308
55.095 10.649123
55.100 10.040946
55.105 9.745372
55.110 9.847648
55.115 9.979147
55.120 9.944125
55.125 9.9983
55.130 10.322493
55.135 10.591582
55.140 10.604903
55.145 10.365456
55.150 10.403983
55.155 10.035231
55.160 10.139445
55.165 10.534234
55.170 10.669361
55.175 10.835753
55.180 11.5897
55.185 11.865729
55.190 11.866239
55.195 11.527922
55.200 11.318721
55.205 11.474236
55.210 11.458405
55.215 11.079467
55.220 10.912622
55.225 11.183609
55.230 11.510656
55.235 11.550558
55.240 11.593446
55.245 11.913527
55.250 12.529278
55.255 13.257771
55.260 13.31369
55.265 13.092582
55.270 12.902692
55.275 12.959083
55.280 12.65441
55.285 11.586469
55.290 11.2818
55.295 11.011311
55.300 10.581991
55.305 9.980822
55.310 9.593336
55.315 9.498401
55.320 10.034281
55.325 9.725284
55.330 9.760716
55.335 10.036952
55.340 10.162119
55.345 10.532671
55.350 10.674017
55.355 10.540603
55.360 10.797015
55.365 10.7639
55.370 10.569574
55.375 10.270249
55.380 10.093065
55.385 9.818719
55.390 9.636242
55.395 9.340739
55.400 9.069378
55.405 9.610182
55.410 10.445409
55.415 10.912013
55.420 11.227305
55.425 11.592555
55.430 12.232989
55.435 12.35772
55.440 11.918829
55.445 11.689613
55.450 11.467852
55.455 11.464639
55.460 11.57926
55.465 11.333797
55.470 11.902402
55.475 11.991377
55.480 11.840187
55.485 11.370404
55.490 11.34113
55.495 10.805595
55.500 10.781629
55.505 10.949345
55.510 11.196078
55.515 11.242305
55.520 11.583589
55.525 11.674397
55.530 12.000445
55.535 12.151597
55.540 12.082071
55.545 11.981162
55.550 11.995667
55.555 12.044157
55.560 12.055039
55.565 12.069111
55.570 11.548188
55.575 11.028744
55.580 11.361619
55.585 11.260426
55.590 11.113598
55.595 11.506772
55.600 11.542775
55.605 11.733582
55.610 12.160117
55.615 12.247977
55.620 12.336291
55.625 12.356374
55.630 11.845971
55.635 11.899087
55.640 11.96384
55.645 11.41549
55.650 11.427457
55.655 11.653648
55.660 12.0316
55.665 11.890143
55.670 11.584279
55.675 11.570217
55.680 11.677809
55.685 12.19494
55.690 12.120907
55.695 11.740784
55.700 11.86659
55.705 12.899541
55.710 13.102223
55.715 12.855594
55.720 12.467124
55.725 12.412133
55.730 12.825832
55.735 13.009439
55.740 11.771246
55.745 11.660621
55.750 11.909385
55.755 11.75248
55.760 11.995473
55.765 11.983158
55.770 11.586141
55.775 11.879126
55.780 11.853133
55.785 11.709379
55.790 11.181122
55.795 10.621671
55.800 10.301176
55.805 10.219445
55.810 10.248983
55.815 10.431877
55.820 10.913429
55.825 11.799446
55.830 12.017179
55.835 12.118744
55.840 12.374991
55.845 12.612753
55.850 12.17455
55.855 11.931466
55.860 11.877128
55.865 12.313988
55.870 12.043281
55.875 12.214904
55.880 11.92447
55.885 12.194601
55.890 12.249813
55.895 12.129254
55.900 11.64354
55.905 11.59916
55.910 11.441399
55.915 11.4533
55.920 11.746764
55.925 11.665661
55.930 11.88146
55.935 12.73409
55.940 13.928226
55.945 14.370068
55.950 15.045732
55.955 14.661259
55.960 14.473399
55.965 14.09943
55.970 13.60194
55.975 12.880387
55.980 12.251349
55.985 11.342987
55.990 11.214805
55.995 11.792964
56.000 11.94179
56.005 11.887413
56.010 11.961506
56.015 12.284533
56.020 12.657296
56.025 13.016251
56.030 12.337555
56.035 12.346128
56.040 12.451141
56.045 12.531431
56.050 12.625851
56.055 12.436913
56.060 11.628433
56.065 11.451262
56.070 11.255549
56.075 11.329955
56.080 11.04296
56.085 10.53413
56.090 10.500169
56.095 11.065904
56.100 11.313209
56.105 11.60275
56.110 11.525206
56.115 11.791576
56.120 12.060449
56.125 12.029315
56.130 11.548407
56.135 11.412608
56.140 11.028303
56.145 11.169966
56.150 11.297971
56.155 11.684983
56.160 12.175554
56.165 12.426836
56.170 12.241136
56.175 12.028054
56.180 11.798496
56.185 11.82554
56.190 11.071345
56.195 10.594059
56.200 10.813538
56.205 11.307698
56.210 11.524572
56.215 11.122112
56.220 10.899757
56.225 11.188288
56.230 11.854419
56.235 12.348949
56.240 12.609536
56.245 13.069457
56.250 13.434645
56.255 13.848883
56.260 14.14879
56.265 14.032262
56.270 13.77732
56.275 12.9529
56.280 12.413286
56.285 12.476803
56.290 12.005443
56.295 11.801458
56.300 11.435122
56.305 11.508952
56.310 12.306911
56.315 12.740418
56.320 12.589939
56.325 13.05834
56.330 13.236212
56.335 13.333314
56.340 13.445197
56.345 13.496319
56.350 13.705397
56.355 13.914614
56.360 13.632279
56.365 13.458278
56.370 13.293319
56.375 12.523022
56.380 11.613666
56.385 10.993764
56.390 10.581362
56.395 10.993888
56.400 11.37182
56.405 11.340734
56.410 11.788747
56.415 12.768119
56.420 13.34378
56.425 13.691976
56.430 13.454288
56.435 13.068977
56.440 13.072164
56.445 12.802934
56.450 12.415272
56.455 12.196327
56.460 12.225181
56.465 11.71663
56.470 11.983785
56.475 11.660254
56.480 11.742063
56.485 12.263742
56.490 12.86535
56.495 13.212644
56.500 13.348947
56.505 13.77495
56.510 14.541291
56.515 15.090114
56.520 14.533352
56.525 13.623669
56.530 13.207538
56.535 13.048183
56.540 12.477127
56.545 11.86508
56.550 10.972923
56.555 10.93864
56.560 11.166466
56.565 11.323044
56.570 11.413344
56.575 11.288859
56.580 11.646792
56.585 11.841749
56.590 11.93643
56.595 12.027413
56.600 11.805402
56.605 12.114347
56.610 12.18529
56.615 12.032914
56.620 11.712653
56.625 11.426206
56.630 11.606867
56.635 12.008576
56.640 11.930889
56.645 11.987668
56.650 12.037461
56.655 12.49908
56.660 12.242299
56.665 12.413062
56.670 12.638882
56.675 12.82727
56.680 13.001431
56.685 13.259665
56.690 13.474803
56.695 13.462522
56.700 13.121834
56.705 12.499854
56.710 12.44873
56.715 12.496718
56.720 12.366881
56.725 12.469008
56.730 12.889905
56.735 13.086823
56.740 13.642681
56.745 13.981697
56.750 14.316856
56.755 14.723879
56.760 14.940432
56.765 14.821524
56.770 14.455173
56.775 13.839761
56.780 13.627168
56.785 13.295677
56.790 12.81733
56.795 12.595372
56.800 12.359826
56.805 12.763908
56.810 12.810636
56.815 12.795484
56.820 12.603179
56.825 12.528288
56.830 12.673127
56.835 13.266769
56.840 13.900369
56.845 14.49754
56.850 14.036484
56.855 13.994077
56.860 14.353309
56.865 14.627651
56.870 14.54606
56.875 13.958976
56.880 13.579659
56.885 13.45242
56.890 13.52619
56.895 13.157106
56.900 12.937548
56.905 12.565444
56.910 12.598711
56.915 12.610927
56.920 12.975896
56.925 13.325348
56.930 13.550962
56.935 13.639438
56.940 13.668484
56.945 13.506082
56.950 13.344967
56.955 13.376085
56.960 13.481854
56.965 13.544968
56.970 13.772096
56.975 14.175791
56.980 14.275707
56.985 14.303321
56.990 14.100618
56.995 13.321168
57.000 13.134449
57.005 12.666854
57.010 12.392621
57.015 12.457234
57.020 12.692704
57.025 12.973715
57.030 12.848223
57.035 12.785252
57.040 12.227138
57.045 12.67384
57.050 13.069279
57.055 12.890326
57.060 12.553332
57.065 12.672708
57.070 12.740299
57.075 13.36628
57.080 12.909803
57.085 12.184107
57.090 12.380926
57.095 12.66326
57.100 12.812552
57.105 12.959709
57.110 13.235162
57.115 13.413854
57.120 13.670217
57.125 13.827004
57.130 14.349789
57.135 14.546882
57.140 14.518887
57.145 13.795022
57.150 14.118335
57.155 14.091482
57.160 13.504612
57.165 13.545641
57.170 13.168558
57.175 13.043461
57.180 13.590474
57.185 13.222432
57.190 12.948484
57.195 13.248067
57.200 13.05842
57.205 13.053981
57.210 13.270757
57.215 13.120844
57.220 13.020039
57.225 13.348524
57.230 13.429591
57.235 13.342006
57.240 13.842802
57.245 13.707354
57.250 13.371152
57.255 13.333632
57.260 13.342299
57.265 13.294928
57.270 13.273155
57.275 13.148703
57.280 13.16518
57.285 13.078762
57.290 13.105202
57.295 13.365794
57.300 13.064576
57.305 13.140368
57.310 13.214413
57.315 13.570541
57.320 14.253201
57.325 13.957246
57.330 13.789286
57.335 14.133766
57.340 13.608475
57.345 13.386156
57.350 13.141112
57.355 13.385516
57.360 13.89337
57.365 13.607718
57.370 13.681237
57.375 14.453306
57.380 14.826782
57.385 14.922982
57.390 14.490515
57.395 14.551373
57.400 14.457456
57.405 14.20441
57.410 13.700098
57.415 13.499879
57.420 13.536192
57.425 13.46505
57.430 13.352756
57.435 13.377609
57.440 13.241518
57.445 13.175467
57.450 13.109674
57.455 13.612235
57.460 14.16002
57.465 14.856112
57.470 14.748839
57.475 14.803226
57.480 14.527612
57.485 14.500127
57.490 14.198251
57.495 13.587226
57.500 12.791516
57.505 12.850925
57.510 12.91309
57.515 13.35838
57.520 13.260239
57.525 12.843396
57.530 12.5249
57.535 12.836238
57.540 12.816337
57.545 13.469489
57.550 13.493897
57.555 13.676777
57.560 14.302654
57.565 14.782332
57.570 14.911607
57.575 15.449387
57.580 15.013796
57.585 14.620277
57.590 13.88937
57.595 13.571975
57.600 13.283161
57.605 13.001646
57.610 12.397329
57.615 12.545441
57.620 13.047515
57.625 14.003274
57.630 14.309019
57.635 14.265891
57.640 14.710529
57.645 15.078832
57.650 15.18225
57.655 14.851729
57.660 14.387039
57.665 14.315958
57.670 14.210336
57.675 13.711279
57.680 13.537972
57.685 13.137824
57.690 12.998075
57.695 13.217092
57.700 13.099003
57.705 13.063971
57.710 12.84618
57.715 12.735823
57.720 12.702778
57.725 12.774389
57.730 13.023133
57.735 13.028702
57.740 13.709697
57.745 14.255454
57.750 14.578328
57.755 14.843101
57.760 14.726004
57.765 14.33874
57.770 13.76406
57.775 13.496484
57.780 13.440722
57.785 13.602085
57.790 13.637279
57.795 13.500334
57.800 14.08851
57.805 14.781486
57.810 14.4795
57.815 14.262455
57.820 14.558688
57.825 15.004182
57.830 14.725616
57.835 14.858512
57.840 14.519929
57.845 14.904276
57.850 15.090019
57.855 14.293636
57.860 14.001179
57.865 14.465312
57.870 14.229224
57.875 15.151
57.880 15.419946
57.885 15.180027
57.890 15.133277
57.895 15.30438
57.900 15.277771
57.905 14.864182
57.910 13.945272
57.915 13.670724
57.920 13.875284
57.925 14.580895
57.930 14.701292
57.935 14.785244
57.940 15.034657
57.945 15.687462
57.950 15.926008
57.955 16.343882
57.960 16.220774
57.965 16.253012
57.970 16.455381
57.975 16.683361
57.980 16.298376
57.985 16.027279
57.990 15.70459
57.995 15.651655
58.000 15.336483
58.005 15.114305
58.010 15.419128
58.015 15.366021
58.020 15.524422
58.025 15.394279
58.030 15.554619
58.035 16.049562
58.040 16.290569
58.045 15.976565
58.050 16.210772
58.055 15.948865
58.060 15.850066
58.065 15.204602
58.070 14.393925
58.075 14.373269
58.080 14.615908
58.085 14.971997
58.090 15.376827
58.095 15.332561
58.100 15.473623
58.105 15.86577
58.110 15.767164
58.115 15.621487
58.120 15.032918
58.125 14.893774
58.130 14.941928
58.135 14.961035
58.140 15.144186
58.145 15.420691
58.150 15.640235
58.155 15.302536
58.160 15.390849
58.165 15.832129
58.170 16.30722
58.175 16.381529
58.180 16.401812
58.185 16.409863
58.190 17.060261
58.195 16.964914
58.200 16.808655
58.205 16.52137
58.210 16.153795
58.215 15.506341
58.220 15.231866
58.225 14.878304
58.230 14.167857
58.235 13.625955
58.240 13.690192
58.245 13.76615
58.250 13.672379
58.255 13.612666
58.260 14.005208
58.265 14.427052
58.270 14.859217
58.275 14.962344
58.280 15.057397
58.285 15.51848
58.290 15.87577
58.295 15.885781
58.300 16.10487
58.305 16.128084
58.310 16.18951
58.315 15.937908
58.320 16.039379
58.325 16.045652
58.330 15.46102
58.335 15.388645
58.340 15.306377
58.345 15.291362
58.350 15.541418
58.355 15.475039
58.360 15.773108
58.365 16.773479
58.370 17.274612
58.375 17.332071
58.380 17.541502
58.385 18.229033
58.390 18.478544
58.395 18.255342
58.400 17.815491
58.405 17.451117
58.410 17.425266
58.415 17.46962
58.420 17.538042
58.425 17.527704
58.430 18.267534
58.435 18.410873
58.440 18.368057
58.445 17.83452
58.450 17.421925
58.455 17.849571
58.460 17.612148
58.465 17.345205
58.470 18.207071
58.475 19.1828
58.480 19.904116
58.485 20.23818
58.490 19.885784
58.495 20.239157
58.500 19.72658
58.505 18.628386
58.510 18.136913
58.515 17.523422
