!@!!GADDS PLOTSO FILE: Chi integration type
!@!!Title/SampleName: map-2c
!@!!Comment: ?
!@!!User: Bruker Instrument Administrator
!@!!Site: University of Illinois Chicago
!@!!Frame: map-2c_01_000.gfrm
!@!!Wavelengths    1.54184   1.54056   1.54439
!@!!Frame angles: 2Theta: 63.000 Omega: 50.000 Phi: 0.000 Chi: 90.000
!@!!Integration range: 2Theta: 53.000 to 73.000  Gamma: -105.000 to -75.000
!@!!Integration method: bin normalized
!@!N
!@!SS
!@!M
!@!L 0.0 0.0 0.0 0.0
!@!XDegrees
!@!YCounts
53.000 10.047264
53.005 10.101944
53.010 10.31393
53.015 10.150976
53.020 9.865713
53.025 10.137505
53.030 10.03599
53.035 9.527251
53.040 9.657142
53.045 10.000851
53.050 9.704675
53.055 9.772579
53.060 9.652824
53.065 9.725802
53.070 9.766211
53.075 9.287448
53.080 9.197985
53.085 9.649894
53.090 9.636882
53.095 9.588703
53.100 9.614856
53.105 9.994531
53.110 9.838095
53.115 9.785862
53.120 9.455677
53.125 9.117136
53.130 9.146503
53.135 8.671444
53.140 8.161229
53.145 8.091443
53.150 7.907644
53.155 8.448799
53.160 8.792647
53.165 9.351715
53.170 9.84813
53.175 10.479535
53.180 10.53598
53.185 10.812776
53.190 10.505523
53.195 10.324407
53.200 10.34051
53.205 10.550811
53.210 10.344557
53.215 10.206678
53.220 10.252002
53.225 10.23686
53.230 10.432692
53.235 10.347691
53.240 10.172142
53.245 10.193484
53.250 10.41733
53.255 10.889999
53.260 11.140025
53.265 10.961959
53.270 10.70583
53.275 10.955585
53.280 10.768753
53.285 10.651169
53.290 10.26778
53.295 10.077373
53.300 10.063119
53.305 9.865621
53.310 9.58549
53.315 9.891831
53.320 10.156272
53.325 10.229967
53.330 10.40091
53.335 11.069841
53.340 11.267046
53.345 11.60593
53.350 11.653498
53.355 11.190167
53.360 11.452198
53.365 11.507009
53.370 11.121707
53.375 10.767025
53.380 10.747517
53.385 10.566059
53.390 10.568576
53.395 10.397972
53.400 10.290476
53.405 10.977998
53.410 11.124296
53.415 11.374865
53.420 11.180593
53.425 11.102628
53.430 10.603303
53.435 10.598098
53.440 10.58819
53.445 10.560836
53.450 10.406898
53.455 10.589736
53.460 10.761155
53.465 11.391359
53.470 11.449888
53.475 11.202897
53.480 11.354958
53.485 11.481561
53.490 11.608663
53.495 11.410518
53.500 11.127636
53.505 10.880749
53.510 10.685968
53.515 11.041536
53.520 11.150989
53.525 11.412611
53.530 11.476493
53.535 10.941454
53.540 10.808028
53.545 10.908208
53.550 10.755205
53.555 10.312593
53.560 10.047132
53.565 10.064371
53.570 10.515028
53.575 10.537161
53.580 10.432249
53.585 10.514317
53.590 10.064157
53.595 10.18391
53.600 10.036476
53.605 10.440032
53.610 10.933638
53.615 11.024094
53.620 11.243484
53.625 11.654862
53.630 11.796045
53.635 12.042057
53.640 11.910082
53.645 11.997892
53.650 12.050563
53.655 11.981654
53.660 11.982141
53.665 11.663685
53.670 11.487639
53.675 11.136801
53.680 10.541699
53.685 10.285487
53.690 10.878849
53.695 11.04939
53.700 11.174752
53.705 11.48937
53.710 11.757092
53.715 12.17128
53.720 12.099524
53.725 11.258219
53.730 11.036153
53.735 11.065543
53.740 11.032327
53.745 11.259189
53.750 10.803709
53.755 10.568159
53.760 10.900722
53.765 11.144056
53.770 11.097426
53.775 10.622748
53.780 10.430294
53.785 10.822433
53.790 11.175261
53.795 10.982222
53.800 10.300388
53.805 10.078471
53.810 10.715785
53.815 10.775875
53.820 10.572505
53.825 10.390056
53.830 10.608932
53.835 10.617143
53.840 10.837288
53.845 10.534524
53.850 10.28567
53.855 10.209351
53.860 10.430458
53.865 10.663712
53.870 10.670436
53.875 9.969885
53.880 10.028349
53.885 10.074751
53.890 9.851622
53.895 9.552896
53.900 9.828586
53.905 10.507171
53.910 10.653809
53.915 10.750892
53.920 10.806208
53.925 10.755589
53.930 10.839563
53.935 10.425778
53.940 10.186702
53.945 10.297247
53.950 10.379574
53.955 10.872784
53.960 11.053313
53.965 11.065624
53.970 11.344359
53.975 11.220284
53.980 10.95915
53.985 10.643917
53.990 10.373872
53.995 10.650365
54.000 10.599028
54.005 10.69515
54.010 11.499255
54.015 12.46859
54.020 13.211242
54.025 13.227365
54.030 13.148159
54.035 13.171112
54.040 13.123845
54.045 12.346567
54.050 11.324677
54.055 11.095966
54.060 11.430796
54.065 11.200242
54.070 11.110205
54.075 10.878193
54.080 11.441248
54.085 11.389814
54.090 11.34824
54.095 11.407709
54.100 11.800102
54.105 11.583803
54.110 11.47436
54.115 11.204569
54.120 10.983308
54.125 10.847004
54.130 10.589774
54.135 10.669392
54.140 10.689386
54.145 10.470622
54.150 10.473622
54.155 10.595366
54.160 10.707399
54.165 11.073017
54.170 11.425038
54.175 11.534083
54.180 11.773083
54.185 11.579662
54.190 11.889753
54.195 11.896904
54.200 12.020449
54.205 11.545088
54.210 11.599695
54.215 11.465533
54.220 11.91461
54.225 11.779753
54.230 11.508701
54.235 11.313281
54.240 11.516492
54.245 11.768317
54.250 11.632018
54.255 11.049262
54.260 10.639171
54.265 10.438184
54.270 10.554078
54.275 11.074862
54.280 11.214509
54.285 11.613545
54.290 11.88518
54.295 11.445549
54.300 11.274254
54.305 11.489534
54.310 11.244245
54.315 11.58119
54.320 11.533175
54.325 11.741986
54.330 12.375983
54.335 12.470424
54.340 12.205969
54.345 11.84212
54.350 11.343327
54.355 11.680117
54.360 11.867504
54.365 11.717929
54.370 11.594686
54.375 11.401025
54.380 11.362257
54.385 11.639729
54.390 11.393168
54.395 11.244754
54.400 11.440984
54.405 11.916696
54.410 11.892229
54.415 11.932275
54.420 11.637152
54.425 11.72946
54.430 12.0168
54.435 12.074694
54.440 11.873219
54.445 12.056446
54.450 12.124287
54.455 12.083956
54.460 12.184181
54.465 12.297482
54.470 11.869631
54.475 11.768891
54.480 11.715245
54.485 11.552147
54.490 11.808825
54.495 11.778281
54.500 11.573664
54.505 11.597549
54.510 11.437269
54.515 11.620236
54.520 11.537506
54.525 11.009747
54.530 10.810758
54.535 11.038128
54.540 11.427691
54.545 12.000503
54.550 11.657616
54.555 11.953392
54.560 11.872573
54.565 12.064328
54.570 11.893917
54.575 11.72566
54.580 11.408898
54.585 11.905156
54.590 11.658533
54.595 11.637413
54.600 11.609183
54.605 11.491098
54.610 10.829734
54.615 10.927566
54.620 11.26477
54.625 11.572575
54.630 11.484908
54.635 11.160958
54.640 11.112544
54.645 11.533149
54.650 11.586841
54.655 11.416889
54.660 11.390741
54.665 11.06466
54.670 11.173182
54.675 11.355416
54.680 11.211016
54.685 11.060564
54.690 10.992219
54.695 11.284639
54.700 11.521453
54.705 11.603945
54.710 11.506958
54.715 11.630038
54.720 11.485557
54.725 11.444331
54.730 11.758431
54.735 11.553966
54.740 11.498637
54.745 11.941745
54.750 11.531301
54.755 11.162864
54.760 11.126122
54.765 11.299118
54.770 11.403807
54.775 11.604697
54.780 11.241451
54.785 11.377568
54.790 11.618846
54.795 12.170055
54.800 12.343749
54.805 12.616469
54.810 12.611664
54.815 13.005957
54.820 13.418005
54.825 12.940754
54.830 12.4926
54.835 12.177974
54.840 11.656331
54.845 11.729362
54.850 11.606389
54.855 11.418716
54.860 11.320113
54.865 11.344277
54.870 11.897997
54.875 12.326601
54.880 11.873466
54.885 11.527815
54.890 11.847118
54.895 11.940482
54.900 11.687921
54.905 11.210288
54.910 11.2248
54.915 11.93575
54.920 12.34365
54.925 11.93095
54.930 12.171538
54.935 11.88131
54.940 12.204116
54.945 12.015478
54.950 12.125705
54.955 12.154997
54.960 12.018756
54.965 12.083956
54.970 12.351516
54.975 11.97017
54.980 11.989676
54.985 11.494945
54.990 11.446498
54.995 11.955213
55.000 12.143184
55.005 12.400539
55.010 12.727609
55.015 12.459002
55.020 12.555345
55.025 12.460126
55.030 12.582423
55.035 12.527782
55.040 12.42782
55.045 12.350607
55.050 12.861593
55.055 12.811433
55.060 12.389693
55.065 11.581979
55.070 11.264723
55.075 11.290044
55.080 11.370181
55.085 11.07686
55.090 11.460885
55.095 12.294464
55.100 12.752562
55.105 12.917953
55.110 12.691596
55.115 12.640297
55.120 12.967406
55.125 13.317813
55.130 13.076241
55.135 13.255455
55.140 13.352305
55.145 13.441126
55.150 13.498082
55.155 12.744525
55.160 12.674828
55.165 12.147563
55.170 11.832009
55.175 11.83617
55.180 11.627285
55.185 11.972924
55.190 11.899818
55.195 11.666922
55.200 11.858732
55.205 11.917599
55.210 12.054834
55.215 12.088795
55.220 11.789743
55.225 11.907814
55.230 11.924784
55.235 11.842386
55.240 11.243151
55.245 10.918963
55.250 10.850327
55.255 10.752224
55.260 10.490762
55.265 10.450432
55.270 10.971165
55.275 11.548412
55.280 11.47256
55.285 11.544394
55.290 11.481971
55.295 11.680989
55.300 11.805653
55.305 11.919408
55.310 11.852211
55.315 11.76247
55.320 12.123261
55.325 12.195654
55.330 12.319741
55.335 12.424774
55.340 12.581859
55.345 12.692861
55.350 12.454757
55.355 12.365833
55.360 12.963345
55.365 12.747496
55.370 12.248152
55.375 11.921136
55.380 12.167157
55.385 12.487127
55.390 12.419095
55.395 11.781944
55.400 11.840075
55.405 11.942554
55.410 12.077819
55.415 11.962017
55.420 11.593534
55.425 11.576854
55.430 12.024601
55.435 12.031721
55.440 11.991934
55.445 11.940906
55.450 12.193457
55.455 11.99923
55.460 11.869501
55.465 11.737918
55.470 12.16734
55.475 12.410044
55.480 12.274324
55.485 12.594481
55.490 12.689208
55.495 13.081384
55.500 13.025043
55.505 12.832224
55.510 12.71071
55.515 12.733174
55.520 12.675128
55.525 13.304426
55.530 13.220468
55.535 13.380718
55.540 13.149962
55.545 12.767298
55.550 12.566356
55.555 12.708901
55.560 12.253808
55.565 12.076226
55.570 11.861438
55.575 12.258779
55.580 12.332076
55.585 12.438414
55.590 12.119525
55.595 11.999802
55.600 11.691738
55.605 11.483481
55.610 11.593027
55.615 11.801696
55.620 11.261249
55.625 11.48383
55.630 11.525422
55.635 12.458836
55.640 12.550147
55.645 12.358392
55.650 12.376213
55.655 12.972406
55.660 12.562121
55.665 12.006156
55.670 11.808199
55.675 11.774217
55.680 11.617872
55.685 11.737082
55.690 11.972498
55.695 12.527343
55.700 13.289102
55.705 13.539976
55.710 13.382008
55.715 13.452127
55.720 13.399734
55.725 13.382361
55.730 13.437414
55.735 12.807039
55.740 12.726385
55.745 13.362414
55.750 13.455623
55.755 13.107826
55.760 13.066982
55.765 13.062289
55.770 13.209958
55.775 13.275172
55.780 13.23314
55.785 13.471612
55.790 13.578883
55.795 13.597264
55.800 13.361425
55.805 13.454116
55.810 13.685281
55.815 13.312138
55.820 13.16332
55.825 12.743063
55.830 12.536861
55.835 12.973047
55.840 12.943259
55.845 12.601888
55.850 12.542509
55.855 12.474555
55.860 12.606022
55.865 12.231581
55.870 12.721881
55.875 12.991152
55.880 13.051159
55.885 13.03411
55.890 13.140472
55.895 13.122087
55.900 13.413626
55.905 13.158739
55.910 13.178836
55.915 13.025579
55.920 13.276201
55.925 13.320974
55.930 13.67606
55.935 13.579772
55.940 13.08058
55.945 13.341851
55.950 13.814019
55.955 13.669337
55.960 13.76466
55.965 13.702187
55.970 13.821599
55.975 13.674455
55.980 13.459838
55.985 12.962927
55.990 12.749533
55.995 12.849984
56.000 12.934938
56.005 12.623925
56.010 12.588266
56.015 12.208995
56.020 12.387684
56.025 12.754755
56.030 12.200282
56.035 12.199997
56.040 12.41748
56.045 12.809854
56.050 13.252535
56.055 13.63997
56.060 13.369287
56.065 13.39879
56.070 13.367674
56.075 13.338612
56.080 13.242649
56.085 12.616529
56.090 12.247432
56.095 12.701771
56.100 12.901602
56.105 12.974834
56.110 12.497358
56.115 12.13495
56.120 12.424751
56.125 12.384815
56.130 12.161618
56.135 11.961205
56.140 12.006476
56.145 12.84605
56.150 13.258221
56.155 13.08164
56.160 12.865641
56.165 13.167534
56.170 13.872222
56.175 14.264169
56.180 13.928734
56.185 13.880287
56.190 14.236508
56.195 14.263656
56.200 13.857911
56.205 13.141374
56.210 13.25679
56.215 13.06459
56.220 12.72847
56.225 12.764729
56.230 13.031218
56.235 13.467345
56.240 13.566797
56.245 13.317392
56.250 13.418844
56.255 13.905684
56.260 14.012696
56.265 14.000503
56.270 13.873153
56.275 13.886562
56.280 13.850523
56.285 13.918875
56.290 14.209208
56.295 14.42042
56.300 14.326286
56.305 14.259473
56.310 14.003218
56.315 14.000876
56.320 13.955006
56.325 13.725544
56.330 13.35437
56.335 13.193119
56.340 13.096007
56.345 13.668909
56.350 13.651322
56.355 13.943443
56.360 14.439044
56.365 14.794785
56.370 15.14436
56.375 14.961967
56.380 14.778693
56.385 14.941803
56.390 14.144961
56.395 13.757527
56.400 13.953832
56.405 13.696028
56.410 13.471479
56.415 13.153559
56.420 12.862082
56.425 13.201138
56.430 12.982592
56.435 12.579639
56.440 12.63816
56.445 12.924706
56.450 13.158068
56.455 13.356486
56.460 13.208276
56.465 12.844694
56.470 12.630244
56.475 12.681211
56.480 12.73983
56.485 12.661193
56.490 13.709612
56.495 14.568045
56.500 15.126892
56.505 15.839531
56.510 15.957414
56.515 15.996958
56.520 15.464614
56.525 14.376328
56.530 13.319878
56.535 13.153765
56.540 12.794996
56.545 12.097649
56.550 11.835691
56.555 11.734326
56.560 11.675604
56.565 12.368601
56.570 12.232873
56.575 12.372108
56.580 12.480036
56.585 12.91205
56.590 13.102983
56.595 13.072148
56.600 12.05677
56.605 11.640543
56.610 11.939739
56.615 12.324706
56.620 12.322539
56.625 12.901547
56.630 13.475558
56.635 14.049782
56.640 14.244083
56.645 13.604101
56.650 13.239376
56.655 12.848784
56.660 12.131558
56.665 11.894515
56.670 12.243206
56.675 12.77073
56.680 13.027819
56.685 13.309654
56.690 13.794392
56.695 14.00063
56.700 13.956801
56.705 13.890967
56.710 13.649084
56.715 13.973596
56.720 14.112819
56.725 14.423075
56.730 14.505146
56.735 14.50958
56.740 14.51195
56.745 15.035003
56.750 14.987807
56.755 14.6319
56.760 14.24405
56.765 14.412819
56.770 14.842752
56.775 14.894208
56.780 14.918542
56.785 15.282512
56.790 15.785674
56.795 15.928643
56.800 15.967647
56.805 16.104429
56.810 16.043678
56.815 15.518918
56.820 15.233487
56.825 15.096014
56.830 15.011754
56.835 15.264373
56.840 15.216218
56.845 14.784044
56.850 14.761546
56.855 14.39432
56.860 14.181091
56.865 14.082582
56.870 13.400084
56.875 12.792982
56.880 13.216317
56.885 13.093331
56.890 13.355916
56.895 13.54591
56.900 13.496218
56.905 14.107615
56.910 14.573339
56.915 14.891904
56.920 15.138974
56.925 14.811854
56.930 14.520926
56.935 14.673046
56.940 14.319924
56.945 13.960423
56.950 13.614901
56.955 13.585152
56.960 13.48584
56.965 13.56604
56.970 13.620755
56.975 13.543163
56.980 13.582538
56.985 13.47613
56.990 13.652669
56.995 14.096577
57.000 14.012129
57.005 13.984529
57.010 14.527628
57.015 14.840455
57.020 15.007051
57.025 15.054979
57.030 15.390282
57.035 15.496162
57.040 15.045782
57.045 15.164037
57.050 15.224719
57.055 15.06403
57.060 14.76859
57.065 14.647431
57.070 14.841404
57.075 14.690889
57.080 13.992022
57.085 13.505174
57.090 13.587854
57.095 13.426078
57.100 13.280428
57.105 13.547889
57.110 13.706213
57.115 13.74713
57.120 13.85217
57.125 13.844739
57.130 13.782437
57.135 13.470939
57.140 13.107257
57.145 13.309072
57.150 13.805038
57.155 14.374881
57.160 14.655612
57.165 14.924526
57.170 15.230201
57.175 16.081722
57.180 16.133757
57.185 15.872602
57.190 16.156919
57.195 15.887231
57.200 15.742373
57.205 15.404276
57.210 14.780925
57.215 14.421467
57.220 14.132409
57.225 13.879527
57.230 14.241008
57.235 14.657964
57.240 14.683956
57.245 15.043118
57.250 15.775182
57.255 15.541862
57.260 15.502893
57.265 15.63251
57.270 15.177521
57.275 15.186371
57.280 14.699112
57.285 14.176525
57.290 14.127879
57.295 14.067392
57.300 14.315992
57.305 14.90075
57.310 15.063891
57.315 14.993081
57.320 15.51301
57.325 15.846429
57.330 15.727667
57.335 15.413342
57.340 15.252433
57.345 15.558458
57.350 16.038277
57.355 16.091381
57.360 15.813618
57.365 15.67471
57.370 15.591701
57.375 14.954947
57.380 14.625719
57.385 14.23074
57.390 14.455034
57.395 14.95309
57.400 15.640378
57.405 16.222622
57.410 16.748514
57.415 17.120224
57.420 17.070038
57.425 16.660833
57.430 16.799162
57.435 15.909439
57.440 15.559848
57.445 15.270432
57.450 15.163526
57.455 15.641228
57.460 15.971175
57.465 15.569888
57.470 15.732654
57.475 15.612275
57.480 15.667991
57.485 15.236643
57.490 14.673902
57.495 14.098439
57.500 13.925737
57.505 14.353923
57.510 14.473555
57.515 14.743077
57.520 14.966654
57.525 14.848413
57.530 14.665735
57.535 14.937633
57.540 15.04374
57.545 15.060703
57.550 14.626471
57.555 15.000939
57.560 15.462795
57.565 16.137831
57.570 16.584793
57.575 16.420708
57.580 16.531164
57.585 16.992554
57.590 16.636654
57.595 16.653481
57.600 16.65485
57.605 16.464302
57.610 16.721106
57.615 16.908854
57.620 16.890835
57.625 17.384506
57.630 17.089092
57.635 16.672176
57.640 16.319355
57.645 16.11376
57.650 15.483206
57.655 15.211912
57.660 15.656878
57.665 15.829924
57.670 16.210253
57.675 16.794769
57.680 17.028151
57.685 17.571951
57.690 17.553232
57.695 17.055946
57.700 16.73768
57.705 16.176994
57.710 15.916886
57.715 15.563127
57.720 15.655538
57.725 16.246304
57.730 16.658813
57.735 16.978462
57.740 17.417589
57.745 17.12397
57.750 17.179079
57.755 16.745312
57.760 15.856845
57.765 15.62303
57.770 15.742023
57.775 15.345036
57.780 15.24963
57.785 15.528278
57.790 15.891804
57.795 16.113197
57.800 16.132105
57.805 16.070841
57.810 16.41168
57.815 16.602621
57.820 16.693214
57.825 16.342112
57.830 16.596104
57.835 16.387922
57.840 16.142925
57.845 16.012432
57.850 16.072874
57.855 16.051344
57.860 15.842453
57.865 15.567956
57.870 15.70383
57.875 15.993927
57.880 15.695782
57.885 15.471382
57.890 15.744957
57.895 16.018761
57.900 16.368132
57.905 16.286051
57.910 16.078072
57.915 16.694601
57.920 17.100683
57.925 17.006191
57.930 17.050056
57.935 16.74164
57.940 16.46332
57.945 16.305529
57.950 15.766504
57.955 15.168149
57.960 14.842867
57.965 15.158359
57.970 15.7349
57.975 16.679737
57.980 16.981785
57.985 17.527866
57.990 18.023422
57.995 18.391144
58.000 18.507647
58.005 18.329487
58.010 17.963013
58.015 17.993486
58.020 17.798536
58.025 17.504965
58.030 17.427113
58.035 17.327539
58.040 17.639833
58.045 17.442305
58.050 17.344727
58.055 17.494583
58.060 17.6012
58.065 17.84963
58.070 17.282852
58.075 16.775023
58.080 16.634027
58.085 16.738932
58.090 16.564531
58.095 17.008986
58.100 16.976892
58.105 17.618086
58.110 18.289246
58.115 18.657021
58.120 19.137091
58.125 19.075808
58.130 18.86632
58.135 18.572475
58.140 18.681223
58.145 18.994392
58.150 18.671762
58.155 18.652246
58.160 18.939953
58.165 18.536715
58.170 18.969486
58.175 19.332582
58.180 19.229023
58.185 19.726089
58.190 19.309538
58.195 19.490217
58.200 19.671082
58.205 19.254164
58.210 19.037245
58.215 18.73016
58.220 18.334791
58.225 18.635426
58.230 18.51808
58.235 18.578382
58.240 18.602085
58.245 17.667709
58.250 18.099747
58.255 18.68471
58.260 18.72187
58.265 18.852205
58.270 18.856081
58.275 19.576656
58.280 20.446392
58.285 20.895945
58.290 21.000937
58.295 21.78096
58.300 22.164425
58.305 22.393641
58.310 21.958405
58.315 22.133377
58.320 22.007687
58.325 22.237467
58.330 21.989588
58.335 22.274424
58.340 22.749914
58.345 23.205578
58.350 22.780384
58.355 23.034569
58.360 23.23814
58.365 23.561169
58.370 23.613487
58.375 23.414705
58.380 23.89892
58.385 24.96191
58.390 24.465935
58.395 24.220427
58.400 24.239323
58.405 25.045095
58.410 25.248114
58.415 24.817333
58.420 24.917639
58.425 26.412645
58.430 27.125963
58.435 27.081087
58.440 27.151321
58.445 28.091467
58.450 28.409082
