!@!!GADDS PLOTSO FILE: Chi integration type
!@!!Title/SampleName: map-87
!@!!Comment: ?
!@!!User: Bruker Instrument Administrator
!@!!Site: University of Illinois Chicago
!@!!Frame: map-87_01_000.gfrm
!@!!Wavelengths    1.54184   1.54056   1.54439
!@!!Frame angles: 2Theta: 63.000 Omega: 50.000 Phi: 0.000 Chi: 90.000
!@!!Integration range: 2Theta: 53.000 to 73.000  Gamma: -105.000 to -75.000
!@!!Integration method: bin normalized
!@!N
!@!SS
!@!M
!@!L 0.0 0.0 0.0 0.0
!@!XDegrees
!@!YCounts
53.000 6.688923
53.005 6.973008
53.010 7.106479
53.015 6.889686
53.020 7.087631
53.025 7.316474
53.030 7.273319
53.035 7.41778
53.040 7.307485
53.045 7.467627
53.050 7.741834
53.055 7.361847
53.060 7.551969
53.065 7.531353
53.070 7.362445
53.075 7.693284
53.080 7.641114
53.085 7.705433
53.090 8.032382
53.095 8.048537
53.100 8.422588
53.105 8.584476
53.110 8.381171
53.115 8.801868
53.120 8.803594
53.125 8.48912
53.130 8.426472
53.135 8.4178
53.140 8.438529
53.145 8.388811
53.150 8.246238
53.155 8.347898
53.160 7.927689
53.165 7.855484
53.170 7.767776
53.175 7.595495
53.180 7.356618
53.185 6.696311
53.190 6.828801
53.195 6.988447
53.200 6.780501
53.205 6.813785
53.210 7.06553
53.215 7.350412
53.220 7.509811
53.225 7.653347
53.230 7.711715
53.235 7.85498
53.240 7.979426
53.245 7.757047
53.250 7.78223
53.255 7.636129
53.260 7.478267
53.265 7.105394
53.270 7.164803
53.275 6.952374
53.280 7.327811
53.285 7.455438
53.290 7.743024
53.295 7.746596
53.300 7.649467
53.305 7.593261
53.310 7.855248
53.315 7.514224
53.320 7.413899
53.325 7.327859
53.330 7.874283
53.335 8.071514
53.340 8.086565
53.345 7.864978
53.350 8.043269
53.355 7.827998
53.360 7.751245
53.365 7.428335
53.370 7.431132
53.375 7.325695
53.380 7.28112
53.385 7.518425
53.390 7.697126
53.395 7.491434
53.400 7.37052
53.405 7.565073
53.410 7.986506
53.415 8.371203
53.420 8.625671
53.425 8.378033
53.430 8.437127
53.435 8.316839
53.440 7.974847
53.445 7.592216
53.450 7.652514
53.455 7.83121
53.460 8.229433
53.465 8.039722
53.470 8.334965
53.475 8.186191
53.480 7.718966
53.485 6.922076
53.490 6.382106
53.495 6.634246
53.500 6.98774
53.505 6.956168
53.510 7.360945
53.515 7.464386
53.520 7.330123
53.525 7.773968
53.530 7.491241
53.535 7.318686
53.540 7.292044
53.545 7.348886
53.550 7.899334
53.555 8.239983
53.560 7.930848
53.565 8.001897
53.570 7.953655
53.575 8.056381
53.580 8.062359
53.585 7.869907
53.590 8.037358
53.595 8.057023
53.600 8.225013
53.605 8.492255
53.610 8.622612
53.615 8.41573
53.620 8.096963
53.625 8.352356
53.630 8.147561
53.635 8.065399
53.640 8.208829
53.645 8.253897
53.650 8.676649
53.655 8.811154
53.660 8.548942
53.665 8.892801
53.670 8.872651
53.675 8.579498
53.680 8.133644
53.685 8.633889
53.690 9.100963
53.695 9.484406
53.700 9.510302
53.705 9.491922
53.710 9.683921
53.715 9.468473
53.720 8.784076
53.725 8.238581
53.730 7.555277
53.735 7.349371
53.740 7.527881
53.745 7.603028
53.750 8.276716
53.755 8.445397
53.760 8.673529
53.765 9.24218
53.770 9.504541
53.775 9.493529
53.780 9.397538
53.785 8.795442
53.790 8.937968
53.795 8.797112
53.800 8.3991
53.805 8.333924
53.810 8.29473
53.815 8.310058
53.820 8.599315
53.825 8.545648
53.830 8.817434
53.835 8.801114
53.840 8.630447
53.845 8.573251
53.850 8.654286
53.855 8.696114
53.860 8.419709
53.865 8.247251
53.870 8.413476
53.875 8.406315
53.880 8.221452
53.885 7.871018
53.890 8.149746
53.895 8.548079
53.900 8.698528
53.905 9.069624
53.910 9.284785
53.915 9.356506
53.920 9.390821
53.925 9.041023
53.930 8.873117
53.935 8.486848
53.940 7.874474
53.945 8.131237
53.950 8.131723
53.955 8.169732
53.960 8.330602
53.965 8.427453
53.970 8.266633
53.975 8.465361
53.980 8.324064
53.985 8.204505
53.990 7.990978
53.995 7.548656
54.000 7.109491
54.005 7.128291
54.010 6.682396
54.015 6.573911
54.020 6.672919
54.025 7.030133
54.030 7.756167
54.035 9.142307
54.040 9.849769
54.045 10.163229
54.050 10.245309
54.055 10.292191
54.060 10.072732
54.065 9.648643
54.070 9.115816
54.075 9.072922
54.080 9.121557
54.085 9.297719
54.090 9.337115
54.095 9.522525
54.100 9.815215
54.105 9.786409
54.110 9.644285
54.115 9.61003
54.120 8.991897
54.125 9.092062
54.130 8.632398
54.135 8.216772
54.140 8.160422
54.145 8.164514
54.150 8.362008
54.155 8.60014
54.160 8.726323
54.165 8.520738
54.170 9.319155
54.175 9.570509
54.180 9.506614
54.185 9.478728
54.190 9.668758
54.195 9.351371
54.200 9.489756
54.205 8.769167
54.210 8.801833
54.215 8.989224
54.220 9.156004
54.225 9.107085
54.230 9.39076
54.235 9.667265
54.240 9.511573
54.245 9.535853
54.250 9.329068
54.255 9.405685
54.260 9.307426
54.265 8.822708
54.270 8.311067
54.275 8.412161
54.280 8.783895
54.285 8.892209
54.290 8.616644
54.295 8.524839
54.300 8.67484
54.305 9.268195
54.310 9.474423
54.315 9.179117
54.320 8.959944
54.325 9.020587
54.330 9.406294
54.335 9.774168
54.340 9.808741
54.345 9.67205
54.350 10.010745
54.355 10.791744
54.360 10.649743
54.365 10.025544
54.370 9.695688
54.375 9.702244
54.380 9.53091
54.385 9.071424
54.390 8.873809
54.395 9.124453
54.400 9.123205
54.405 8.935096
54.410 8.65879
54.415 8.935406
54.420 8.961361
54.425 8.827538
54.430 8.92719
54.435 8.959267
54.440 8.674213
54.445 8.79627
54.450 8.442599
54.455 8.216365
54.460 7.978424
54.465 7.77601
54.470 7.838059
54.475 7.734223
54.480 7.710513
54.485 8.340003
54.490 8.479668
54.495 8.821501
54.500 9.146611
54.505 9.113251
54.510 9.275269
54.515 8.878025
54.520 8.6535
54.525 8.54078
54.530 8.662837
54.535 8.497296
54.540 8.345235
54.545 8.179202
54.550 7.987626
54.555 7.829178
54.560 7.935251
54.565 8.255955
54.570 8.386485
54.575 8.844616
54.580 8.922708
54.585 9.078462
54.590 9.197866
54.595 9.058062
54.600 8.766108
54.605 9.501457
54.610 9.712676
54.615 10.025345
54.620 10.196579
54.625 10.372736
54.630 10.539004
54.635 10.556505
54.640 10.254847
54.645 10.08324
54.650 9.883333
54.655 10.07841
54.660 9.74766
54.665 9.673862
54.670 9.437309
54.675 9.307243
54.680 9.244298
54.685 9.287268
54.690 9.658415
54.695 9.85521
54.700 9.583117
54.705 9.176558
54.710 9.233341
54.715 9.059928
54.720 8.795588
54.725 7.904975
54.730 7.990847
54.735 8.776818
54.740 9.498314
54.745 9.404333
54.750 9.471083
54.755 9.811641
54.760 10.520281
54.765 10.75677
54.770 10.219288
54.775 9.755423
54.780 10.001208
54.785 9.96253
54.790 10.082474
54.795 10.097042
54.800 9.901588
54.805 10.123031
54.810 10.385218
54.815 10.76557
54.820 10.998095
54.825 10.966817
54.830 10.543411
54.835 10.548308
54.840 10.554106
54.845 10.718529
54.850 10.443084
54.855 10.823868
54.860 10.8242
54.865 10.77049
54.870 10.76041
54.875 10.999146
54.880 11.165893
54.885 11.216919
54.890 10.971845
54.895 11.024378
54.900 11.052882
54.905 10.832178
54.910 10.771982
54.915 10.745505
54.920 10.264307
54.925 10.078484
54.930 9.839452
54.935 10.080713
54.940 10.671134
54.945 10.506272
54.950 10.122047
54.955 10.309754
54.960 10.529696
54.965 10.506576
54.970 10.62672
54.975 10.097902
54.980 10.523073
54.985 11.103783
54.990 11.316484
54.995 10.932016
55.000 11.114241
55.005 11.035877
55.010 10.948511
55.015 10.349587
55.020 9.990556
55.025 9.852261
55.030 10.341166
55.035 10.363999
55.040 10.179893
55.045 10.367456
55.050 10.295996
55.055 10.48631
55.060 10.775565
55.065 10.604723
55.070 10.297872
55.075 10.189994
55.080 10.160271
55.085 9.858571
55.090 9.481558
55.095 9.001678
55.100 8.498661
55.105 8.69838
55.110 9.25515
55.115 9.585325
55.120 10.048185
55.125 9.929686
55.130 10.500096
55.135 11.281835
55.140 11.296317
55.145 10.550728
55.150 10.451663
55.155 10.4401
55.160 10.796111
55.165 10.435436
55.170 10.210108
55.175 10.142438
55.180 10.359603
55.185 10.015311
55.190 9.299952
55.195 8.86952
55.200 8.756393
55.205 8.611037
55.210 8.784158
55.215 8.830339
55.220 9.37369
55.225 9.694446
55.230 9.703861
55.235 9.737629
55.240 9.727941
55.245 9.498
55.250 9.428681
55.255 9.198422
55.260 9.492022
55.265 9.697662
55.270 9.829852
55.275 10.083141
55.280 9.972308
55.285 9.840185
55.290 10.147151
55.295 10.318071
55.300 10.084959
55.305 9.813505
55.310 10.034563
55.315 10.209743
55.320 10.303764
55.325 10.2688
55.330 9.9595
55.335 10.167671
55.340 10.445211
55.345 10.379095
55.350 10.631353
55.355 10.9201
55.360 10.88025
55.365 11.008912
55.370 11.174747
55.375 11.172724
55.380 11.101563
55.385 10.857792
55.390 10.50864
55.395 10.49808
55.400 10.317429
55.405 10.048998
55.410 10.01317
55.415 9.811523
55.420 9.573895
55.425 9.384165
55.430 9.735733
55.435 9.810975
55.440 9.661363
55.445 9.66742
55.450 10.213411
55.455 10.22717
55.460 10.270148
55.465 10.469075
55.470 10.848404
55.475 11.196012
55.480 10.932665
55.485 10.77487
55.490 11.281343
55.495 11.517188
55.500 11.326323
55.505 11.386105
55.510 11.202692
55.515 11.160339
55.520 11.160282
55.525 10.799661
55.530 10.550598
55.535 10.82479
55.540 11.080944
55.545 11.113986
55.550 11.208722
55.555 11.062639
55.560 11.28019
55.565 11.523849
55.570 11.354302
55.575 11.026693
55.580 11.228256
55.585 11.534145
55.590 11.692958
55.595 11.405578
55.600 10.952491
55.605 10.365928
55.610 10.992182
55.615 10.60863
55.620 10.508458
55.625 10.672613
55.630 10.535002
55.635 10.876697
55.640 11.489028
55.645 11.203975
55.650 11.49487
55.655 11.196424
55.660 11.176565
55.665 11.234625
55.670 10.764627
55.675 10.179831
55.680 9.784085
55.685 9.405915
55.690 9.569753
55.695 9.321578
55.700 9.337139
55.705 9.480182
55.710 9.478957
55.715 9.793352
55.720 10.659595
55.725 10.93224
55.730 11.017228
55.735 11.830818
55.740 12.017193
55.745 12.031656
55.750 11.616849
55.755 11.017502
55.760 11.190848
55.765 10.678504
55.770 9.546789
55.775 9.642088
55.780 9.688776
55.785 9.777094
55.790 9.56378
55.795 9.462602
55.800 10.118914
55.805 10.713785
55.810 10.872791
55.815 11.008652
55.820 11.554859
55.825 12.033607
55.830 12.218125
55.835 12.488892
55.840 12.610844
55.845 12.484901
55.850 12.364564
55.855 11.619443
55.860 11.310004
55.865 11.281271
55.870 10.976709
55.875 10.676027
55.880 10.418233
55.885 10.61998
55.890 10.722438
55.895 10.378007
55.900 10.57595
55.905 10.477587
55.910 10.435728
55.915 10.904
55.920 10.713875
55.925 10.615417
55.930 10.985728
55.935 10.846981
55.940 11.686557
55.945 11.890925
55.950 11.753738
55.955 11.751891
55.960 11.922134
55.965 11.513136
55.970 11.165376
55.975 10.784459
55.980 11.118123
55.985 11.56598
55.990 11.65621
55.995 11.803822
56.000 12.17258
56.005 12.145597
56.010 12.038763
56.015 11.445265
56.020 11.433496
56.025 11.562554
56.030 11.474504
56.035 11.382237
56.040 11.615953
56.045 11.059577
56.050 10.477653
56.055 9.540008
56.060 9.351775
56.065 9.357697
56.070 8.996253
56.075 8.573399
56.080 8.961466
56.085 9.040301
56.090 9.29336
56.095 9.417596
56.100 9.057736
56.105 9.364689
56.110 9.589692
56.115 9.886669
56.120 10.661649
56.125 10.513503
56.130 10.86691
56.135 10.931719
56.140 10.637432
56.145 10.80809
56.150 10.866297
56.155 10.979175
56.160 10.865614
56.165 10.788924
56.170 10.948169
56.175 10.969821
56.180 10.534455
56.185 10.134163
56.190 9.876709
56.195 10.209324
56.200 10.301517
56.205 10.724312
56.210 10.760178
56.215 11.305837
56.220 11.77279
56.225 12.895599
56.230 13.159726
56.235 13.114769
56.240 12.939124
56.245 12.814631
56.250 12.360154
56.255 12.102818
56.260 11.317887
56.265 10.891294
56.270 10.948836
56.275 10.746573
56.280 10.624909
56.285 10.699776
56.290 10.887964
56.295 10.823814
56.300 10.697733
56.305 10.650322
56.310 10.87917
56.315 10.761536
56.320 10.555728
56.325 10.386046
56.330 10.473755
56.335 10.696976
56.340 10.862514
56.345 10.775207
56.350 11.083391
56.355 11.496264
56.360 11.751327
56.365 11.867513
56.370 11.796639
56.375 11.59448
56.380 11.824628
56.385 11.903997
56.390 11.139287
56.395 10.913437
56.400 10.909755
56.405 11.369134
56.410 11.833274
56.415 11.933898
56.420 11.870234
56.425 11.882649
56.430 11.532806
56.435 11.232601
56.440 11.019225
56.445 10.739065
56.450 11.168019
56.455 11.562308
56.460 11.733496
56.465 11.722335
56.470 11.79131
56.475 11.160283
56.480 10.485609
56.485 9.65398
56.490 10.068675
56.495 10.573264
56.500 10.738423
56.505 10.497703
56.510 11.265503
56.515 12.107599
56.520 12.43098
56.525 11.813572
56.530 11.863274
56.535 12.047278
56.540 12.561672
56.545 12.510675
56.550 12.475315
56.555 12.146491
56.560 12.236272
56.565 11.953546
56.570 12.073074
56.575 11.9823
56.580 11.723962
56.585 11.345416
56.590 11.718849
56.595 11.388046
56.600 11.32856
56.605 11.174646
56.610 10.93671
56.615 10.719137
56.620 10.644081
56.625 10.639346
56.630 10.903036
56.635 10.995161
56.640 11.190386
56.645 11.440932
56.650 11.326093
56.655 11.608772
56.660 11.433712
56.665 11.39715
56.670 11.776987
56.675 11.473104
56.680 11.475836
56.685 11.870397
56.690 11.592097
56.695 12.117773
56.700 12.17667
56.705 12.171026
56.710 12.550737
56.715 12.52532
56.720 12.459112
56.725 12.884145
56.730 12.608127
56.735 12.42417
56.740 11.925177
56.745 11.731883
56.750 11.943921
56.755 12.108896
56.760 12.070327
56.765 11.623401
56.770 11.613636
56.775 11.41813
56.780 11.477283
56.785 11.66398
56.790 11.719843
56.795 11.85699
56.800 12.229039
56.805 12.779546
56.810 13.654972
56.815 13.69015
56.820 13.339454
56.825 13.003985
56.830 13.076921
56.835 13.360323
56.840 12.958342
56.845 12.357276
56.850 12.143727
56.855 12.279678
56.860 12.311781
56.865 12.497124
56.870 12.883104
56.875 12.983831
56.880 13.359263
56.885 13.19251
56.890 13.201533
56.895 13.56021
56.900 12.921307
56.905 12.186114
56.910 12.239109
56.915 12.534584
56.920 12.930478
56.925 12.528126
56.930 12.154881
56.935 12.246108
56.940 12.603449
56.945 12.906726
56.950 12.499227
56.955 11.865352
56.960 12.140392
56.965 12.143773
56.970 12.531954
56.975 12.415362
56.980 12.351364
56.985 12.271421
56.990 12.488431
56.995 12.376978
57.000 12.225201
57.005 11.768105
57.010 11.564617
57.015 11.697123
57.020 11.7316
57.025 11.840276
57.030 11.650666
57.035 11.758034
57.040 12.139899
57.045 11.765538
57.050 11.588983
57.055 11.797671
57.060 12.116558
57.065 12.187901
57.070 12.356151
57.075 12.593999
57.080 12.625201
57.085 12.128179
57.090 11.872505
57.095 11.631812
57.100 11.311303
57.105 11.020037
57.110 10.539483
57.115 10.76951
57.120 11.321848
57.125 11.545153
57.130 11.53891
57.135 12.009753
57.140 12.892591
57.145 13.488012
57.150 13.445599
57.155 12.92863
57.160 12.747888
57.165 12.971044
57.170 12.4762
57.175 12.067298
57.180 11.681082
57.185 11.87862
57.190 12.296599
57.195 12.644925
57.200 12.742438
57.205 13.170646
57.210 12.923698
57.215 13.032585
57.220 12.876319
57.225 13.116258
57.230 13.091289
57.235 12.809684
57.240 12.749752
57.245 12.49504
57.250 12.483507
57.255 12.618076
57.260 12.199459
57.265 12.529069
57.270 12.860637
57.275 12.653971
57.280 12.834379
57.285 13.032707
57.290 13.468394
57.295 13.99349
57.300 13.900649
57.305 13.798702
57.310 14.312653
57.315 14.65532
57.320 14.463244
57.325 13.644733
57.330 13.263228
57.335 13.549076
57.340 13.998174
57.345 14.014115
57.350 13.959792
57.355 13.914304
57.360 14.544038
57.365 14.670889
57.370 14.010548
57.375 13.813031
57.380 13.111135
57.385 12.628573
57.390 12.817268
57.395 12.543624
57.400 12.501228
57.405 12.50395
57.410 12.074258
57.415 12.574277
57.420 12.367676
57.425 12.164394
57.430 11.965073
57.435 12.114968
57.440 12.432122
57.445 12.340022
57.450 12.279633
57.455 12.958984
57.460 13.275622
57.465 12.990875
57.470 12.541407
57.475 12.318446
57.480 12.612416
57.485 12.920715
57.490 12.814896
57.495 12.758974
57.500 13.540247
57.505 13.508548
57.510 13.854484
57.515 14.09966
57.520 13.451017
57.525 13.068727
57.530 12.738044
57.535 12.5981
57.540 12.730237
57.545 12.384638
57.550 12.232526
57.555 13.037477
57.560 13.115906
57.565 13.185803
57.570 13.153541
57.575 13.111715
57.580 12.92552
57.585 12.966647
57.590 11.974875
57.595 12.557939
57.600 13.222202
57.605 13.313835
57.610 13.42372
57.615 13.176845
57.620 12.606643
57.625 13.227671
57.630 12.994896
57.635 12.120575
57.640 11.822412
57.645 11.98206
57.650 12.761438
57.655 13.280395
57.660 12.809125
57.665 12.898205
57.670 13.267004
57.675 13.047975
57.680 12.928206
57.685 12.607084
57.690 12.398752
57.695 12.331603
57.700 11.665836
57.705 11.496626
57.710 11.689269
57.715 11.727173
57.720 12.008269
57.725 12.142843
57.730 12.409664
57.735 13.090899
57.740 13.697268
57.745 13.868723
57.750 14.175883
57.755 13.970027
57.760 13.90274
57.765 14.140874
57.770 13.828957
57.775 13.526027
57.780 13.513421
57.785 13.51783
57.790 13.617992
57.795 13.700435
57.800 14.102969
57.805 14.128786
57.810 14.316545
57.815 14.461589
57.820 14.425374
57.825 14.426512
57.830 14.359068
57.835 13.988657
57.840 13.708365
57.845 13.719208
57.850 13.734661
57.855 13.838994
57.860 13.742358
57.865 13.359906
57.870 13.708954
57.875 13.706111
57.880 13.508554
57.885 13.349885
57.890 13.23308
57.895 13.458354
57.900 13.167252
57.905 12.722786
57.910 12.806927
57.915 12.899058
57.920 12.841962
57.925 13.145143
57.930 13.342278
57.935 14.02833
57.940 14.421433
57.945 14.536073
57.950 14.512021
57.955 14.272946
57.960 13.673308
57.965 13.698543
57.970 13.308016
57.975 12.909937
57.980 12.907652
57.985 12.481194
57.990 12.434169
57.995 12.960329
58.000 12.740772
58.005 13.085897
58.010 14.17238
58.015 14.577433
58.020 14.526254
58.025 15.092802
58.030 14.841749
58.035 15.217671
58.040 14.749444
58.045 14.019852
58.050 14.058667
58.055 14.210117
58.060 14.21513
58.065 14.708971
58.070 14.857789
58.075 14.873757
58.080 14.853865
58.085 14.569085
58.090 14.623652
58.095 14.109628
58.100 13.912549
58.105 14.021769
58.110 14.355077
58.115 14.395297
58.120 14.461673
58.125 15.152467
58.130 15.469067
58.135 15.236564
58.140 15.112554
58.145 15.043048
58.150 14.722566
58.155 14.826514
58.160 14.546718
58.165 14.969533
58.170 15.064404
58.175 15.142246
58.180 15.380731
58.185 15.752157
58.190 15.815042
58.195 15.431064
58.200 15.170176
58.205 14.783954
58.210 14.507148
58.215 14.175492
58.220 14.149672
58.225 13.953043
58.230 13.940746
58.235 13.672467
58.240 14.061164
58.245 14.148807
58.250 14.0012
58.255 14.356045
58.260 14.69525
58.265 15.077007
58.270 15.273356
58.275 15.108499
58.280 14.987911
58.285 15.252708
58.290 15.136684
58.295 14.685513
58.300 14.081964
58.305 14.337768
58.310 14.618196
58.315 14.858712
58.320 14.375442
58.325 14.145644
58.330 14.368114
58.335 14.665863
58.340 14.118842
58.345 14.256041
58.350 13.883217
58.355 14.07583
58.360 14.192252
58.365 14.570113
58.370 14.666156
58.375 14.866965
58.380 14.664608
58.385 15.186517
58.390 14.881407
58.395 15.017397
58.400 14.740085
58.405 14.767516
58.410 14.495198
58.415 14.422583
58.420 14.813482
58.425 15.13373
58.430 14.960957
58.435 14.789652
58.440 15.06798
58.445 15.183591
58.450 15.380658
58.455 15.125222
58.460 15.17934
58.465 15.391069
58.470 15.423736
58.475 15.274061
58.480 15.330133
58.485 15.317901
58.490 16.102701
58.495 17.005568
58.500 17.57959
58.505 18.263933
58.510 18.475433
58.515 18.920345
58.520 18.850069
58.525 17.783503
58.530 17.23752
58.535 16.909946
58.540 16.351763
58.545 16.008751
58.550 16.243351
58.555 16.540028
