!@!!GADDS PLOTSO FILE: Chi integration type
!@!!Title/SampleName: map-93
!@!!Comment: ?
!@!!User: Bruker Instrument Administrator
!@!!Site: University of Illinois Chicago
!@!!Frame: map-93_01_000.gfrm
!@!!Wavelengths    1.54184   1.54056   1.54439
!@!!Frame angles: 2Theta: 63.000 Omega: 50.000 Phi: 0.000 Chi: 90.000
!@!!Integration range: 2Theta: 53.000 to 73.000  Gamma: -105.000 to -75.000
!@!!Integration method: bin normalized
!@!N
!@!SS
!@!M
!@!L 0.0 0.0 0.0 0.0
!@!XDegrees
!@!YCounts
53.000 7.449523
53.005 7.243233
53.010 6.704945
53.015 6.778645
53.020 6.880731
53.025 7.194551
53.030 7.244269
53.035 7.38556
53.040 7.722812
53.045 7.992925
53.050 8.315696
53.055 8.417848
53.060 8.068104
53.065 8.117519
53.070 8.022107
53.075 7.837617
53.080 8.060924
53.085 7.740438
53.090 7.666246
53.095 8.126056
53.100 8.620909
53.105 8.814522
53.110 8.807178
53.115 8.753472
53.120 8.796698
53.125 8.734681
53.130 8.378173
53.135 8.596915
53.140 9.205667
53.145 9.621494
53.150 9.683969
53.155 9.834053
53.160 9.734399
53.165 9.702363
53.170 9.009453
53.175 8.341468
53.180 7.834782
53.185 7.481712
53.190 7.03424
53.195 6.941698
53.200 6.837401
53.205 7.053621
53.210 7.595327
53.215 7.903655
53.220 8.251364
53.225 8.591301
53.230 8.679201
53.235 8.756437
53.240 8.758988
53.245 8.490872
53.250 8.435348
53.255 9.089767
53.260 9.126178
53.265 9.26313
53.270 9.177607
53.275 9.236758
53.280 9.479537
53.285 9.594966
53.290 9.154826
53.295 9.084643
53.300 8.937796
53.305 8.435879
53.310 8.446521
53.315 8.18572
53.320 7.712564
53.325 7.465121
53.330 7.324344
53.335 7.768452
53.340 8.10425
53.345 7.881509
53.350 8.053933
53.355 8.404014
53.360 8.687197
53.365 8.780649
53.370 8.366308
53.375 8.346987
53.380 8.617936
53.385 8.922076
53.390 9.183885
53.395 8.906109
53.400 9.284416
53.405 9.108525
53.410 8.792211
53.415 8.865432
53.420 8.218259
53.425 8.202867
53.430 8.168655
53.435 7.97468
53.440 8.441348
53.445 8.734022
53.450 8.794802
53.455 9.152847
53.460 9.183028
53.465 9.431918
53.470 9.406188
53.475 9.31141
53.480 8.833482
53.485 8.731305
53.490 8.667712
53.495 8.963694
53.500 8.730554
53.505 8.710962
53.510 8.506259
53.515 8.346142
53.520 8.11084
53.525 7.682907
53.530 7.20734
53.535 7.142405
53.540 7.325447
53.545 7.763968
53.550 8.17536
53.555 8.535766
53.560 8.86267
53.565 8.633242
53.570 8.464539
53.575 8.267969
53.580 8.358253
53.585 8.267898
53.590 8.625656
53.595 9.066069
53.600 10.01907
53.605 10.547997
53.610 10.196676
53.615 9.994663
53.620 10.405827
53.625 10.474344
53.630 10.0513
53.635 9.289114
53.640 8.842181
53.645 9.086914
53.650 9.303569
53.655 8.748636
53.660 8.228425
53.665 8.252614
53.670 8.309904
53.675 8.225724
53.680 7.795043
53.685 7.277625
53.690 7.275777
53.695 7.452006
53.700 7.818942
53.705 8.175428
53.710 8.714871
53.715 9.528718
53.720 10.149733
53.725 9.955589
53.730 10.088346
53.735 10.141938
53.740 10.259358
53.745 9.871973
53.750 9.253193
53.755 9.356476
53.760 9.712974
53.765 9.486132
53.770 9.281599
53.775 8.942886
53.780 8.949304
53.785 9.168631
53.790 8.586382
53.795 8.712176
53.800 8.884422
53.805 8.818187
53.810 8.940101
53.815 8.638209
53.820 8.602337
53.825 8.763991
53.830 8.184129
53.835 8.013765
53.840 8.18749
53.845 8.338828
53.850 9.054166
53.855 9.217856
53.860 9.489798
53.865 9.509139
53.870 10.271436
53.875 10.696017
53.880 10.849623
53.885 10.959158
53.890 10.723921
53.895 10.957584
53.900 10.930396
53.905 10.367903
53.910 10.181621
53.915 9.536507
53.920 8.85902
53.925 8.512955
53.930 8.117372
53.935 8.07183
53.940 8.40069
53.945 8.759418
53.950 9.272758
53.955 9.840746
53.960 10.530415
53.965 11.240515
53.970 11.35386
53.975 10.823958
53.980 10.306761
53.985 10.05958
53.990 9.812428
53.995 9.756196
54.000 9.234725
54.005 9.167817
54.010 9.457053
54.015 9.40558
54.020 9.596278
54.025 9.594081
54.030 9.08587
54.035 9.527071
54.040 9.831745
54.045 9.663638
54.050 9.761445
54.055 9.800832
54.060 9.963104
54.065 10.244493
54.070 10.156199
54.075 10.076679
54.080 10.496354
54.085 10.911487
54.090 10.852945
54.095 10.872907
54.100 10.598335
54.105 10.655607
54.110 10.387412
54.115 9.937889
54.120 9.608371
54.125 9.990809
54.130 9.679418
54.135 9.976995
54.140 10.114477
54.145 10.392889
54.150 10.846853
54.155 10.48076
54.160 10.525581
54.165 10.714279
54.170 10.395098
54.175 10.14001
54.180 9.830326
54.185 9.431925
54.190 9.554656
54.195 9.278347
54.200 9.308441
54.205 9.77511
54.210 10.42876
54.215 10.924956
54.220 11.159101
54.225 11.079147
54.230 11.480385
54.235 11.377052
54.240 10.662245
54.245 10.475451
54.250 10.322551
54.255 10.035856
54.260 10.153118
54.265 10.159579
54.270 10.337641
54.275 10.360167
54.280 9.970645
54.285 10.282534
54.290 10.638826
54.295 10.195773
54.300 10.160872
54.305 9.671991
54.310 9.492241
54.315 9.26852
54.320 8.717193
54.325 8.997031
54.330 9.428079
54.335 9.438457
54.340 10.139018
54.345 10.500942
54.350 10.697005
54.355 10.792882
54.360 10.513839
54.365 10.050639
54.370 10.040964
54.375 9.645286
54.380 9.283864
54.385 9.145927
54.390 9.096672
54.395 9.104942
54.400 9.170215
54.405 9.499932
54.410 10.010644
54.415 10.497473
54.420 10.518559
54.425 10.972005
54.430 11.515286
54.435 11.554133
54.440 11.125006
54.445 10.837351
54.450 10.657837
54.455 10.924298
54.460 10.418661
54.465 9.939549
54.470 10.235753
54.475 10.480213
54.480 10.331529
54.485 10.322894
54.490 10.062241
54.495 10.072367
54.500 9.975696
54.505 9.300952
54.510 8.991087
54.515 8.638998
54.520 8.740868
54.525 8.885704
54.530 8.715659
54.535 8.703867
54.540 8.916744
54.545 9.494853
54.550 9.505675
54.555 9.760607
54.560 9.562525
54.565 9.616881
54.570 9.433885
54.575 9.696124
54.580 9.695612
54.585 10.017883
54.590 9.700069
54.595 9.909415
54.600 10.273209
54.605 10.912395
54.610 10.641888
54.615 10.356343
54.620 10.377493
54.625 10.310594
54.630 10.096974
54.635 9.189143
54.640 8.431
54.645 8.635643
54.650 8.562699
54.655 8.457613
54.660 8.53876
54.665 9.278409
54.670 10.293206
54.675 10.672795
54.680 10.960542
54.685 11.047231
54.690 11.477627
54.695 11.683176
54.700 11.041809
54.705 10.847829
54.710 10.54476
54.715 10.218086
54.720 10.161963
54.725 10.149431
54.730 10.106661
54.735 10.431704
54.740 10.812825
54.745 11.552319
54.750 12.29524
54.755 12.394265
54.760 12.150887
54.765 11.956819
54.770 12.017502
54.775 11.60812
54.780 10.544457
54.785 9.385853
54.790 9.211447
54.795 9.569884
54.800 9.703644
54.805 9.560532
54.810 10.133293
54.815 11.017303
54.820 11.438598
54.825 11.888676
54.830 11.310411
54.835 11.297744
54.840 11.558187
54.845 10.942679
54.850 10.6296
54.855 10.590926
54.860 10.332614
54.865 10.834972
54.870 10.906052
54.875 11.023207
54.880 11.393996
54.885 11.328527
54.890 11.421832
54.895 11.63121
54.900 11.281994
54.905 11.072078
54.910 10.746015
54.915 10.604878
54.920 9.956224
54.925 9.436272
54.930 9.114654
54.935 8.943831
54.940 8.691233
54.945 8.803312
54.950 9.538282
54.955 10.443978
54.960 10.42931
54.965 10.688016
54.970 11.074791
54.975 11.015592
54.980 11.060026
54.985 10.743966
54.990 10.673749
54.995 10.617124
55.000 10.225754
55.005 10.028438
55.010 9.814215
55.015 9.596471
55.020 9.114049
55.025 8.912345
55.030 8.931291
55.035 9.207544
55.040 9.340688
55.045 9.365996
55.050 9.18504
55.055 9.373409
55.060 9.316324
55.065 9.268609
55.070 9.600356
55.075 9.780025
55.080 9.769916
55.085 10.074816
55.090 10.415256
55.095 10.731764
55.100 11.111469
55.105 10.728069
55.110 10.837886
55.115 11.307651
55.120 10.717622
55.125 10.568515
55.130 10.428356
55.135 10.239993
55.140 10.134799
55.145 10.288852
55.150 10.204084
55.155 10.721505
55.160 11.015877
55.165 11.20804
55.170 11.201603
55.175 11.188472
55.180 10.823997
55.185 10.762499
55.190 10.543602
55.195 10.069396
55.200 10.234698
55.205 10.622777
55.210 10.879497
55.215 10.756011
55.220 11.090477
55.225 11.226254
55.230 11.289581
55.235 10.987937
55.240 10.717266
55.245 10.53144
55.250 10.720325
55.255 10.549475
55.260 10.501071
55.265 10.155991
55.270 10.144037
55.275 10.373342
55.280 10.687136
55.285 10.450603
55.290 10.381236
55.295 10.221213
55.300 10.154828
55.305 10.134991
55.310 10.037451
55.315 9.969741
55.320 10.218383
55.325 10.36159
55.330 10.815169
55.335 10.966978
55.340 10.409665
55.345 10.478118
55.350 10.486303
55.355 10.212563
55.360 9.76242
55.365 9.505722
55.370 9.669997
55.375 9.822993
55.380 9.820022
55.385 9.735806
55.390 9.84345
55.395 10.231675
55.400 10.34358
55.405 10.64375
55.410 10.899549
55.415 11.05406
55.420 11.1058
55.425 11.261899
55.430 11.421626
55.435 11.509197
55.440 11.374547
55.445 11.093031
55.450 10.682015
55.455 10.576447
55.460 10.395984
55.465 10.06234
55.470 9.642267
55.475 9.516503
55.480 9.648086
55.485 9.855203
55.490 10.16432
55.495 10.453195
55.500 10.848878
55.505 11.043722
55.510 11.071662
55.515 11.0059
55.520 11.024889
55.525 10.734199
55.530 10.517285
55.535 10.330626
55.540 10.479165
55.545 10.465478
55.550 10.900707
55.555 11.268479
55.560 11.080838
55.565 10.934123
55.570 10.709034
55.575 10.376359
55.580 10.418591
55.585 10.216275
55.590 10.374586
55.595 10.94507
55.600 10.86247
55.605 10.738503
55.610 11.376478
55.615 11.64395
55.620 11.335115
55.625 11.321983
55.630 11.51028
55.635 12.210792
55.640 12.743718
55.645 12.30397
55.650 12.086977
55.655 12.251329
55.660 11.821673
55.665 11.465783
55.670 10.584611
55.675 10.589833
55.680 10.942595
55.685 10.612324
55.690 9.995328
55.695 10.099383
55.700 10.419318
55.705 11.197488
55.710 10.92458
55.715 10.883216
55.720 11.422132
55.725 11.806505
55.730 11.981202
55.735 11.792576
55.740 11.693783
55.745 11.18115
55.750 11.216054
55.755 11.147029
55.760 10.687956
55.765 10.254507
55.770 9.808131
55.775 9.667149
55.780 9.665572
55.785 9.36045
55.790 9.61771
55.795 9.769485
55.800 9.565321
55.805 9.981703
55.810 10.065895
55.815 10.389709
55.820 10.839245
55.825 11.130596
55.830 11.872693
55.835 12.342544
55.840 12.790898
55.845 13.087296
55.850 13.123962
55.855 12.796688
55.860 12.503985
55.865 12.022771
55.870 11.954795
55.875 11.473475
55.880 11.537744
55.885 11.451548
55.890 11.46958
55.895 11.64244
55.900 11.74722
55.905 12.028131
55.910 12.158157
55.915 12.205564
55.920 11.920293
55.925 11.791855
55.930 12.148231
55.935 12.612036
55.940 12.943053
55.945 12.853188
55.950 12.931162
55.955 13.274858
55.960 13.368328
55.965 13.054794
55.970 12.27509
55.975 11.785918
55.980 11.386256
55.985 11.020403
55.990 10.980086
55.995 10.596292
56.000 10.557156
56.005 10.771719
56.010 10.852344
56.015 11.0522
56.020 11.391678
56.025 11.365973
56.030 11.621659
56.035 11.688198
56.040 12.053561
56.045 11.915927
56.050 11.88027
56.055 11.773578
56.060 11.995947
56.065 11.877774
56.070 11.893878
56.075 11.783353
56.080 11.61794
56.085 11.726241
56.090 12.126233
56.095 12.537716
56.100 12.566551
56.105 12.127243
56.110 11.705249
56.115 11.923267
56.120 11.98213
56.125 10.990191
56.130 10.356566
56.135 10.583439
56.140 10.906973
56.145 11.57543
56.150 11.713112
56.155 11.639544
56.160 12.129753
56.165 12.327341
56.170 11.847106
56.175 11.21861
56.180 10.853022
56.185 10.790144
56.190 10.487722
56.195 10.370878
56.200 10.195824
56.205 10.634751
56.210 10.629538
56.215 10.789851
56.220 11.046539
56.225 11.258654
56.230 11.101635
56.235 11.288505
56.240 11.33849
56.245 11.857046
56.250 12.15821
56.255 11.673528
56.260 11.665092
56.265 11.767651
56.270 11.556792
56.275 11.57566
56.280 11.295281
56.285 11.149818
56.290 11.773587
56.295 11.677217
56.300 11.459411
56.305 11.334724
56.310 11.184231
56.315 11.407108
56.320 11.099348
56.325 11.016078
56.330 11.289258
56.335 11.942645
56.340 12.65641
56.345 12.662588
56.350 12.829511
56.355 12.708852
56.360 12.544184
56.365 12.306522
56.370 11.85916
56.375 11.868417
56.380 11.607455
56.385 11.620731
56.390 12.220372
56.395 12.848814
56.400 13.59392
56.405 13.697904
56.410 13.791797
56.415 13.866395
56.420 13.815587
56.425 13.317837
56.430 12.801799
56.435 12.138953
56.440 11.501948
56.445 11.173904
56.450 10.505294
56.455 10.281113
56.460 10.883228
56.465 11.264573
56.470 11.630589
56.475 11.980651
56.480 11.833321
56.485 12.139806
56.490 12.035873
56.495 11.598394
56.500 11.362225
56.505 10.761017
56.510 10.450734
56.515 10.539653
56.520 10.858227
56.525 10.925062
56.530 11.100806
56.535 11.37941
56.540 11.990533
56.545 12.184229
56.550 12.523712
56.555 12.078751
56.560 12.075185
56.565 11.87518
56.570 11.601791
56.575 11.453397
56.580 11.495678
56.585 11.35813
56.590 11.51237
56.595 11.027097
56.600 10.858925
56.605 10.95972
56.610 11.191319
56.615 11.00777
56.620 11.06486
56.625 11.35798
56.630 11.565166
56.635 11.814733
56.640 11.584906
56.645 11.538919
56.650 11.572063
56.655 11.308189
56.660 10.935286
56.665 10.718457
56.670 10.78506
56.675 10.699435
56.680 10.650336
56.685 11.109045
56.690 11.31986
56.695 11.923059
56.700 12.562657
56.705 12.792472
56.710 13.022308
56.715 12.854298
56.720 12.595387
56.725 12.83938
56.730 12.513315
56.735 12.619702
56.740 12.408392
56.745 12.283808
56.750 12.731831
56.755 13.09514
56.760 13.022637
56.765 12.618723
56.770 12.431
56.775 12.347941
56.780 12.487647
56.785 12.675957
56.790 12.606672
56.795 12.479144
56.800 12.863339
56.805 13.214314
56.810 13.486937
56.815 13.503034
56.820 12.966087
56.825 12.68677
56.830 12.413832
56.835 12.002416
56.840 11.72679
56.845 11.692655
56.850 11.372916
56.855 11.140917
56.860 11.593809
56.865 12.24702
56.870 12.429459
56.875 12.497114
56.880 12.415063
56.885 12.943494
56.890 13.338632
56.895 13.054488
56.900 12.602062
56.905 12.604021
56.910 12.643127
56.915 12.68485
56.920 12.653438
56.925 12.759313
56.930 13.035341
56.935 13.116117
56.940 13.000704
56.945 13.089968
56.950 12.934141
56.955 12.844041
56.960 12.667864
56.965 12.845984
56.970 13.022189
56.975 13.285761
56.980 13.434738
56.985 13.417512
56.990 13.518775
56.995 13.397468
57.000 13.042874
57.005 12.895207
57.010 12.600821
57.015 12.733233
57.020 12.646532
57.025 12.721344
57.030 12.824715
57.035 13.24749
57.040 13.774321
57.045 13.930998
57.050 13.857352
57.055 14.171641
57.060 14.19428
57.065 14.152478
57.070 14.058467
57.075 14.328728
57.080 14.062243
57.085 13.559879
57.090 13.373999
57.095 12.977036
57.100 12.856943
57.105 12.588519
57.110 11.895538
57.115 11.917328
57.120 11.974445
57.125 12.248116
57.130 12.495372
57.135 12.713852
57.140 12.51043
57.145 12.094381
57.150 12.106931
57.155 12.030549
57.160 11.97296
57.165 12.096985
57.170 12.357568
57.175 12.628513
57.180 13.155565
57.185 12.945984
57.190 12.959147
57.195 12.786852
57.200 12.579175
57.205 12.211498
57.210 11.874231
57.215 11.765229
57.220 12.12803
57.225 12.166511
57.230 12.202147
57.235 11.942527
57.240 12.04186
57.245 12.60748
57.250 12.362591
57.255 12.357212
57.260 12.235271
57.265 12.337382
57.270 12.48618
57.275 12.656424
57.280 12.640747
57.285 12.957258
57.290 13.023434
57.295 13.140213
57.300 13.171712
57.305 13.304244
57.310 12.911531
57.315 13.316481
57.320 13.482292
57.325 14.025478
57.330 13.916115
57.335 13.617546
57.340 13.372056
57.345 13.294534
57.350 12.765182
57.355 12.637243
57.360 12.197456
57.365 12.701001
57.370 13.375017
57.375 13.851832
57.380 14.104231
57.385 14.311514
57.390 14.479342
57.395 14.694052
57.400 14.193798
57.405 14.013221
57.410 14.060852
57.415 13.858542
57.420 13.16933
57.425 12.487361
57.430 12.41025
57.435 12.185608
57.440 11.761169
57.445 11.426536
57.450 11.54877
57.455 11.968646
57.460 12.109758
57.465 12.372979
57.470 12.837045
57.475 13.129483
57.480 13.116514
57.485 13.391257
57.490 13.510749
57.495 13.221213
57.500 12.988452
57.505 12.706362
57.510 12.432716
57.515 12.341921
57.520 12.267987
57.525 12.499031
57.530 13.20904
57.535 13.321315
57.540 13.442932
57.545 13.883038
57.550 14.624557
57.555 14.79444
57.560 14.892763
57.565 14.574105
57.570 14.785301
57.575 14.975273
57.580 14.63122
57.585 13.595845
57.590 13.223178
57.595 13.183393
57.600 13.697181
57.605 13.841695
57.610 13.929435
57.615 14.178208
57.620 15.22541
57.625 15.623958
57.630 14.810081
57.635 13.940588
57.640 13.634744
57.645 13.84958
57.650 13.979577
57.655 13.937302
57.660 13.794646
57.665 14.256576
57.670 14.21569
57.675 14.118786
57.680 13.298473
57.685 12.688495
57.690 11.994146
57.695 12.015144
57.700 12.342425
57.705 12.390134
57.710 12.245932
57.715 12.627313
57.720 13.262267
57.725 13.44488
57.730 13.211422
57.735 13.007945
57.740 13.646447
57.745 13.691742
57.750 13.990618
57.755 13.900496
57.760 13.786115
57.765 13.68192
57.770 13.897272
57.775 13.834557
57.780 13.99862
57.785 13.904644
57.790 13.979956
57.795 14.397429
57.800 14.636574
57.805 14.296733
57.810 14.281682
57.815 14.138244
57.820 14.213062
57.825 14.00624
57.830 13.656223
57.835 13.5983
57.840 13.712296
57.845 13.414552
57.850 13.554403
57.855 13.54533
57.860 13.747149
57.865 13.850597
57.870 13.908903
57.875 13.940248
57.880 13.842382
57.885 13.929611
57.890 14.232745
57.895 14.035593
57.900 13.936663
57.905 13.899527
57.910 13.85874
57.915 13.899117
57.920 13.251545
57.925 13.030341
57.930 13.390793
57.935 13.547332
57.940 13.614263
57.945 13.524015
57.950 13.769432
57.955 14.431735
57.960 14.40086
57.965 14.279945
57.970 14.323894
57.975 15.145824
57.980 15.376128
57.985 15.317085
57.990 15.034708
57.995 14.903529
58.000 14.931445
58.005 15.151271
58.010 14.567203
58.015 14.395485
58.020 14.232655
58.025 14.337532
58.030 14.110889
58.035 14.364542
58.040 14.431112
58.045 15.026305
58.050 15.070056
58.055 15.950977
58.060 16.637758
58.065 17.292923
58.070 17.129381
58.075 17.014585
58.080 16.856258
58.085 16.654367
58.090 16.133871
58.095 15.392278
58.100 14.961516
58.105 14.73401
58.110 13.961472
58.115 13.587083
58.120 14.199039
58.125 14.484106
58.130 14.917087
58.135 15.311029
58.140 16.102371
58.145 16.83325
58.150 17.263491
58.155 16.921741
58.160 16.37122
58.165 16.487265
58.170 16.82881
58.175 16.193195
58.180 16.11307
58.185 16.361431
58.190 16.371468
58.195 16.617191
58.200 16.670017
58.205 16.710308
58.210 17.298569
58.215 16.688932
58.220 16.249397
58.225 16.579208
58.230 16.807274
58.235 16.249643
58.240 16.047493
58.245 16.039173
58.250 16.901905
58.255 16.689369
58.260 16.748823
58.265 16.663336
58.270 17.292116
58.275 17.248909
58.280 17.090803
58.285 16.941044
58.290 17.410227
58.295 17.768284
58.300 18.062794
58.305 17.973686
58.310 18.182882
58.315 17.553303
58.320 17.356503
58.325 17.657127
58.330 17.142176
58.335 17.088001
58.340 17.161253
58.345 17.064222
58.350 17.483351
58.355 18.177925
58.360 17.538496
58.365 17.6894
58.370 17.57773
58.375 17.782627
58.380 18.074306
58.385 18.760723
58.390 19.019907
58.395 19.422117
58.400 19.263874
58.405 18.912029
58.410 18.501167
58.415 18.130728
58.420 17.659801
58.425 17.591099
58.430 17.805979
58.435 18.127537
58.440 19.101601
58.445 19.83729
58.450 20.079498
58.455 19.987228
58.460 20.386354
58.465 20.921701
58.470 21.51408
58.475 21.285456
58.480 21.335758
58.485 22.653612
58.490 23.448704
58.495 24.31892
58.500 24.284664
58.505 24.555767
58.510 24.418661
58.515 24.265896
58.520 23.897022
58.525 23.929668
