!@!!GADDS PLOTSO FILE: Chi integration type
!@!!Title/SampleName: map-104
!@!!Comment: ?
!@!!User: Bruker Instrument Administrator
!@!!Site: University of Illinois Chicago
!@!!Frame: map-104_01_000.gfrm
!@!!Wavelengths    1.54184   1.54056   1.54439
!@!!Frame angles: 2Theta: 63.000 Omega: 50.000 Phi: 0.000 Chi: 90.000
!@!!Integration range: 2Theta: 53.000 to 73.000  Gamma: -105.000 to -75.000
!@!!Integration method: bin normalized
!@!N
!@!SS
!@!M
!@!L 0.0 0.0 0.0 0.0
!@!XDegrees
!@!YCounts
53.000 8.639615
53.005 8.915718
53.010 8.941998
53.015 9.075323
53.020 9.526746
53.025 9.432644
53.030 9.341719
53.035 9.277332
53.040 9.209534
53.045 9.336103
53.050 9.157963
53.055 9.108349
53.060 8.97345
53.065 8.68213
53.070 9.114583
53.075 9.106942
53.080 8.686534
53.085 8.560838
53.090 8.711597
53.095 9.27339
53.100 9.929888
53.105 9.698748
53.110 9.719323
53.115 10.230814
53.120 10.278572
53.125 10.163497
53.130 10.437225
53.135 10.039426
53.140 9.640026
53.145 9.540044
53.150 9.160549
53.155 9.047504
53.160 8.64062
53.165 8.466464
53.170 9.03228
53.175 9.291208
53.180 9.154884
53.185 9.376218
53.190 9.413637
53.195 9.299026
53.200 9.246854
53.205 8.990289
53.210 9.250014
53.215 9.232606
53.220 9.150688
53.225 9.072864
53.230 9.250306
53.235 9.0378
53.240 9.158628
53.245 9.331329
53.250 9.661299
53.255 9.440852
53.260 9.565907
53.265 9.143007
53.270 8.951821
53.275 8.276142
53.280 8.059165
53.285 8.445298
53.290 9.379169
53.295 9.543278
53.300 10.184349
53.305 10.491589
53.310 10.668459
53.315 10.696051
53.320 10.164975
53.325 9.917977
53.330 10.016255
53.335 9.463436
53.340 9.463865
53.345 9.497645
53.350 9.399722
53.355 9.109414
53.360 9.203512
53.365 9.328695
53.370 9.656363
53.375 9.880603
53.380 10.252237
53.385 10.000917
53.390 9.708793
53.395 9.498443
53.400 9.31903
53.405 9.330097
53.410 9.438569
53.415 9.504951
53.420 10.090682
53.425 10.340554
53.430 10.290578
53.435 10.273559
53.440 10.247422
53.445 10.502183
53.450 10.67146
53.455 10.704385
53.460 11.086209
53.465 11.216692
53.470 11.252188
53.475 11.265437
53.480 10.917441
53.485 10.78542
53.490 10.992526
53.495 11.13587
53.500 11.20372
53.505 11.097322
53.510 11.184424
53.515 11.03822
53.520 11.001454
53.525 10.544473
53.530 10.48418
53.535 10.749504
53.540 10.778964
53.545 10.656843
53.550 11.065106
53.555 11.131731
53.560 11.1923
53.565 10.684426
53.570 10.160108
53.575 10.280585
53.580 10.142468
53.585 10.189822
53.590 10.247383
53.595 10.132795
53.600 9.970816
53.605 10.245672
53.610 10.557487
53.615 10.734654
53.620 10.558866
53.625 10.374923
53.630 10.81302
53.635 11.471718
53.640 11.209165
53.645 10.75331
53.650 10.531306
53.655 10.118415
53.660 10.491686
53.665 9.918771
53.670 9.56509
53.675 9.961883
53.680 9.969812
53.685 9.987039
53.690 10.331276
53.695 10.114022
53.700 10.167837
53.705 9.887361
53.710 9.825739
53.715 10.096304
53.720 10.311405
53.725 10.804317
53.730 11.250144
53.735 11.712836
53.740 11.954274
53.745 11.920501
53.750 11.498126
53.755 11.526834
53.760 11.352323
53.765 11.140216
53.770 10.840321
53.775 10.564512
53.780 10.547822
53.785 10.746999
53.790 10.523641
53.795 10.113478
53.800 9.708991
53.805 9.137914
53.810 9.181843
53.815 9.385915
53.820 9.211063
53.825 9.05387
53.830 8.925043
53.835 9.48963
53.840 9.995049
53.845 9.984875
53.850 9.704721
53.855 9.948239
53.860 10.222337
53.865 10.670062
53.870 10.818249
53.875 11.341267
53.880 11.657837
53.885 11.378934
53.890 11.138574
53.895 11.301863
53.900 10.979513
53.905 10.714727
53.910 10.291352
53.915 9.852293
53.920 9.847579
53.925 9.788072
53.930 10.237531
53.935 10.804978
53.940 10.72025
53.945 10.819065
53.950 10.923968
53.955 11.104527
53.960 10.994551
53.965 10.261918
53.970 9.673829
53.975 9.970488
53.980 10.237503
53.985 10.488923
53.990 10.597004
53.995 10.988646
54.000 11.681752
54.005 12.052356
54.010 11.964854
54.015 12.054724
54.020 12.385921
54.025 12.083138
54.030 11.217724
54.035 10.367435
54.040 10.11205
54.045 9.899028
54.050 9.496222
54.055 8.888499
54.060 8.555761
54.065 8.48805
54.070 8.806836
54.075 9.153277
54.080 9.308283
54.085 9.759534
54.090 10.389155
54.095 10.537294
54.100 10.830829
54.105 11.122405
54.110 11.149287
54.115 11.234124
54.120 10.88473
54.125 10.77444
54.130 10.992386
54.135 10.687561
54.140 10.37096
54.145 10.433559
54.150 10.220151
54.155 9.767884
54.160 9.864569
54.165 10.449677
54.170 10.955291
54.175 10.572509
54.180 10.417267
54.185 10.648086
54.190 10.905554
54.195 10.961915
54.200 10.479099
54.205 9.939306
54.210 10.020636
54.215 10.024488
54.220 9.962069
54.225 9.665088
54.230 9.397477
54.235 9.760547
54.240 10.525166
54.245 10.876842
54.250 10.879389
54.255 10.897475
54.260 11.253769
54.265 11.133724
54.270 11.562708
54.275 11.925945
54.280 11.639426
54.285 11.834749
54.290 12.217474
54.295 12.36074
54.300 12.330482
54.305 11.769177
54.310 11.326315
54.315 11.194311
54.320 11.447646
54.325 11.559669
54.330 11.567288
54.335 11.494843
54.340 11.669291
54.345 11.663342
54.350 11.301581
54.355 10.608472
54.360 10.497123
54.365 10.174377
54.370 10.266583
54.375 10.247014
54.380 10.225028
54.385 10.793652
54.390 10.753831
54.395 10.986707
54.400 11.042181
54.405 11.289016
54.410 11.544515
54.415 11.507298
54.420 11.591269
54.425 11.679633
54.430 11.976333
54.435 12.116318
54.440 11.91795
54.445 11.500874
54.450 11.39714
54.455 11.000809
54.460 10.762189
54.465 10.356409
54.470 10.084424
54.475 10.132167
54.480 10.276016
54.485 10.552376
54.490 10.567321
54.495 10.824889
54.500 11.038077
54.505 10.9645
54.510 10.929377
54.515 11.334713
54.520 11.243501
54.525 11.503723
54.530 11.436872
54.535 11.506186
54.540 11.874571
54.545 11.554111
54.550 11.766376
54.555 11.879132
54.560 11.647375
54.565 11.153563
54.570 10.946947
54.575 10.962089
54.580 11.050612
54.585 10.772552
54.590 10.686026
54.595 10.711442
54.600 11.032191
54.605 10.872718
54.610 10.491267
54.615 10.757893
54.620 10.474639
54.625 10.52449
54.630 11.181584
54.635 11.218923
54.640 11.286274
54.645 11.37565
54.650 11.400636
54.655 12.091779
54.660 12.038795
54.665 11.820293
54.670 11.76333
54.675 11.742819
54.680 12.002967
54.685 11.869004
54.690 11.418316
54.695 11.308117
54.700 11.27969
54.705 11.380503
54.710 11.462783
54.715 11.108356
54.720 11.104496
54.725 11.276052
54.730 11.17832
54.735 10.978413
54.740 11.051105
54.745 10.625136
54.750 10.648892
54.755 10.272878
54.760 10.027931
54.765 10.111536
54.770 10.200449
54.775 10.395823
54.780 10.298433
54.785 10.308369
54.790 10.562136
54.795 10.990928
54.800 11.045884
54.805 10.84059
54.810 10.763852
54.815 11.318662
54.820 11.87445
54.825 12.289693
54.830 12.138761
54.835 12.052086
54.840 11.796961
54.845 11.759903
54.850 11.760055
54.855 11.052035
54.860 11.042367
54.865 11.251181
54.870 11.978649
54.875 12.486525
54.880 12.648134
54.885 12.589886
54.890 12.86711
54.895 12.837209
54.900 12.49133
54.905 12.141596
54.910 12.232712
54.915 12.095019
54.920 11.913241
54.925 11.729279
54.930 11.698337
54.935 11.696958
54.940 11.593829
54.945 11.514527
54.950 11.891744
54.955 12.056189
54.960 11.621584
54.965 11.48353
54.970 11.491856
54.975 11.476213
54.980 11.333438
54.985 11.187699
54.990 11.01778
54.995 11.23755
55.000 11.235907
55.005 11.168205
55.010 11.236917
55.015 11.089011
55.020 11.057434
55.025 10.932323
55.030 10.730043
55.035 10.909307
55.040 10.966166
55.045 10.877242
55.050 11.150797
55.055 11.739219
55.060 12.491174
55.065 12.820599
55.070 12.883733
55.075 13.149292
55.080 13.015076
55.085 12.973374
55.090 12.380788
55.095 12.107292
55.100 12.140422
55.105 11.738476
55.110 11.96701
55.115 12.305603
55.120 12.797788
55.125 13.05648
55.130 12.902575
55.135 12.978815
55.140 13.145361
55.145 12.607501
55.150 12.216157
55.155 11.333361
55.160 11.254562
55.165 11.326547
55.170 11.676177
55.175 12.245296
55.180 12.339259
55.185 12.258906
55.190 12.076833
55.195 11.64193
55.200 11.546899
55.205 11.339035
55.210 10.984965
55.215 10.956582
55.220 10.719403
55.225 10.870605
55.230 10.941936
55.235 10.967847
55.240 10.438654
55.245 10.610695
55.250 11.136685
55.255 11.666975
55.260 12.199496
55.265 12.508108
55.270 12.753592
55.275 13.108539
55.280 13.161227
55.285 12.706115
55.290 12.801833
55.295 13.310126
55.300 13.06813
55.305 12.65769
55.310 12.431936
55.315 12.699492
55.320 12.748626
55.325 12.620859
55.330 11.757599
55.335 11.685208
55.340 11.514058
55.345 10.881982
55.350 10.382213
55.355 10.583037
55.360 10.643743
55.365 10.507912
55.370 10.538018
55.375 11.2637
55.380 12.311719
55.385 12.434828
55.390 12.81507
55.395 13.534039
55.400 13.919994
55.405 13.65529
55.410 13.283962
55.415 13.300477
55.420 13.571885
55.425 13.264986
55.430 12.942686
55.435 12.725803
55.440 12.883348
55.445 12.847081
55.450 11.980377
55.455 11.857756
55.460 11.751333
55.465 12.137842
55.470 12.874169
55.475 12.839067
55.480 13.379245
55.485 13.859466
55.490 13.650821
55.495 13.317247
55.500 12.891631
55.505 12.643269
55.510 12.313388
55.515 12.168658
55.520 12.31287
55.525 12.81214
55.530 12.549654
55.535 12.649641
55.540 12.490802
55.545 12.619452
55.550 12.855339
55.555 12.38294
55.560 11.595879
55.565 11.536662
55.570 11.448893
55.575 11.553233
55.580 11.830222
55.585 11.582913
55.590 11.803242
55.595 12.111616
55.600 12.086896
55.605 11.856605
55.610 11.743773
55.615 11.104312
55.620 10.638968
55.625 10.596327
55.630 10.721622
55.635 10.826408
55.640 10.926614
55.645 10.830016
55.650 10.89198
55.655 11.758238
55.660 11.89284
55.665 12.142535
55.670 12.224705
55.675 12.415412
55.680 12.923196
55.685 13.27606
55.690 13.383981
55.695 13.744183
55.700 14.020277
55.705 14.242871
55.710 14.161848
55.715 13.743774
55.720 13.566425
55.725 13.289891
55.730 13.214766
55.735 12.887659
55.740 12.377079
55.745 12.632791
55.750 12.416749
55.755 12.242468
55.760 12.414799
55.765 12.593122
55.770 12.990154
55.775 13.719266
55.780 13.464154
55.785 13.532036
55.790 13.190102
55.795 12.864625
55.800 12.42907
55.805 12.121814
55.810 12.069361
55.815 12.394368
55.820 12.501107
55.825 12.677146
55.830 12.547507
55.835 12.852375
55.840 13.228498
55.845 13.079954
55.850 13.23021
55.855 13.23033
55.860 13.371181
55.865 13.324484
55.870 12.421272
55.875 11.635009
55.880 12.068053
55.885 12.283368
55.890 12.121305
55.895 11.872531
55.900 11.985764
55.905 12.546203
55.910 12.721602
55.915 12.287357
55.920 12.199862
55.925 11.970847
55.930 12.040215
55.935 12.151533
55.940 12.623748
55.945 12.976619
55.950 13.153049
55.955 13.169959
55.960 12.992192
55.965 13.457057
55.970 13.28494
55.975 12.828829
55.980 12.599288
55.985 12.465523
55.990 12.550978
55.995 12.841215
56.000 12.189495
56.005 12.240142
56.010 12.623593
56.015 12.617805
56.020 12.62986
56.025 12.730989
56.030 12.743219
56.035 13.245968
56.040 13.683112
56.045 13.797495
56.050 13.685058
56.055 13.888701
56.060 13.654032
56.065 13.517351
56.070 13.289465
56.075 13.168278
56.080 12.710431
56.085 12.770629
56.090 12.64376
56.095 13.194671
56.100 13.017886
56.105 12.870749
56.110 13.287076
56.115 13.780964
56.120 13.941345
56.125 13.559536
56.130 13.643127
56.135 13.878716
56.140 13.891698
56.145 13.483043
56.150 13.042511
56.155 13.201183
56.160 13.677383
56.165 13.502513
56.170 13.491765
56.175 13.026893
56.180 12.341482
56.185 12.382792
56.190 12.628285
56.195 12.753908
56.200 12.95875
56.205 12.996622
56.210 13.146603
56.215 13.478381
56.220 13.260115
56.225 13.098101
56.230 13.187417
56.235 12.936939
56.240 13.103863
56.245 13.22629
56.250 13.332266
56.255 13.452294
56.260 12.94425
56.265 12.651993
56.270 12.563766
56.275 12.868488
56.280 12.980413
56.285 12.752636
56.290 12.80474
56.295 12.964622
56.300 13.254642
56.305 13.470893
56.310 13.081313
56.315 13.234531
56.320 13.365033
56.325 13.293358
56.330 13.383894
56.335 13.646282
56.340 13.958122
56.345 13.764036
56.350 13.339506
56.355 13.617778
56.360 13.796433
56.365 13.778635
56.370 13.243255
56.375 12.894656
56.380 13.090759
56.385 13.125592
56.390 13.370953
56.395 13.524932
56.400 13.793699
56.405 14.112304
56.410 13.754686
56.415 14.051578
56.420 14.873322
56.425 14.51741
56.430 15.061501
56.435 15.491632
56.440 15.62333
56.445 16.290752
56.450 15.766467
56.455 15.22158
56.460 15.233112
56.465 14.067523
56.470 13.323555
56.475 13.227119
56.480 13.554901
56.485 13.95937
56.490 14.746154
56.495 14.707633
56.500 14.586084
56.505 15.274271
56.510 14.961332
56.515 14.526337
56.520 14.036001
56.525 13.027953
56.530 12.621733
56.535 12.551764
56.540 11.964942
56.545 12.340831
56.550 12.73904
56.555 13.264571
56.560 14.017948
56.565 14.194482
56.570 14.09979
56.575 14.206629
56.580 14.135934
56.585 13.924098
56.590 13.650863
56.595 13.100013
56.600 13.301955
56.605 12.932192
56.610 12.151599
56.615 11.90441
56.620 11.832767
56.625 11.549504
56.630 11.645602
56.635 11.599776
56.640 12.114202
56.645 12.911219
56.650 12.772742
56.655 13.140899
56.660 13.43494
56.665 13.092665
56.670 13.492494
56.675 13.965239
56.680 14.304434
56.685 14.810109
56.690 14.833626
56.695 15.227989
56.700 15.546538
56.705 15.075467
56.710 14.288094
56.715 14.109535
56.720 13.815555
56.725 13.457299
56.730 13.583032
56.735 13.784229
56.740 14.383219
56.745 14.961535
56.750 15.076429
56.755 15.502934
56.760 15.733465
56.765 15.699959
56.770 15.6771
56.775 15.623131
56.780 15.729381
56.785 15.558984
56.790 15.122762
56.795 14.945648
56.800 15.193762
56.805 15.448808
56.810 15.443389
56.815 14.901894
56.820 14.687665
56.825 15.107237
56.830 14.660841
56.835 14.069371
56.840 13.804657
56.845 13.642751
56.850 14.20844
56.855 14.533018
56.860 14.132028
56.865 14.166296
56.870 14.16918
56.875 14.032473
56.880 13.460181
56.885 12.756051
56.890 12.381732
56.895 13.068979
56.900 13.498637
56.905 13.353514
56.910 13.44007
56.915 14.00041
56.920 14.042092
56.925 13.4652
56.930 12.892436
56.935 13.020364
56.940 12.964628
56.945 12.562908
56.950 12.236401
56.955 12.64489
56.960 13.3727
56.965 13.481959
56.970 13.624077
56.975 13.993491
56.980 14.4036
56.985 14.324727
56.990 14.028435
56.995 13.783261
57.000 13.733225
57.005 13.537788
57.010 13.549315
57.015 13.208978
57.020 13.131337
57.025 13.591601
57.030 13.621249
57.035 13.653619
57.040 13.73604
57.045 13.622684
57.050 13.742132
57.055 14.280107
57.060 14.422482
57.065 14.438836
57.070 14.314998
57.075 14.250165
57.080 14.613679
57.085 14.864565
57.090 14.622032
57.095 14.11012
57.100 14.237671
57.105 14.187299
57.110 14.061352
57.115 14.137264
57.120 14.279865
57.125 14.396686
57.130 15.124332
57.135 14.965363
57.140 14.452723
57.145 14.378756
57.150 14.208629
57.155 14.045237
57.160 13.76622
57.165 13.59609
57.170 13.731921
57.175 13.874453
57.180 13.884932
57.185 13.564354
57.190 13.383434
57.195 13.221565
57.200 13.320574
57.205 13.826232
57.210 14.222836
57.215 14.044806
57.220 14.20172
57.225 14.425219
57.230 14.593949
57.235 14.090263
57.240 14.164042
57.245 14.037175
57.250 14.432424
57.255 14.686824
57.260 14.810721
57.265 14.816775
57.270 14.827769
57.275 13.983835
57.280 13.960058
57.285 13.78601
57.290 13.979508
57.295 13.888505
57.300 13.782072
57.305 13.985573
57.310 14.489617
57.315 14.959556
57.320 14.87974
57.325 14.769135
57.330 14.9341
57.335 15.089438
57.340 15.048816
57.345 14.727741
57.350 14.051203
57.355 14.0604
57.360 13.691626
57.365 13.414424
57.370 13.339976
57.375 13.55322
57.380 14.190172
57.385 14.70551
57.390 14.45009
57.395 14.482121
57.400 14.747652
57.405 14.99147
57.410 14.568041
57.415 14.279419
57.420 15.142001
57.425 15.788713
57.430 15.578256
57.435 15.306441
57.440 15.515133
57.445 16.58864
57.450 17.38913
57.455 16.659687
57.460 16.566191
57.465 16.640051
57.470 16.274654
57.475 15.512056
57.480 14.537601
57.485 13.551605
57.490 13.288216
57.495 12.984284
57.500 13.319942
57.505 13.278774
57.510 13.279647
57.515 13.73301
57.520 14.133424
57.525 14.534217
57.530 14.690053
57.535 15.175412
57.540 15.358932
57.545 15.933215
57.550 15.671274
57.555 15.613511
57.560 15.733211
57.565 16.384722
57.570 16.211084
57.575 16.022932
57.580 15.174764
57.585 15.162958
57.590 14.82585
57.595 13.927655
57.600 13.140655
57.605 13.323873
57.610 13.893656
57.615 14.313652
57.620 14.428367
57.625 14.94989
57.630 15.152407
57.635 15.213279
57.640 14.955345
57.645 14.493531
57.650 14.568336
57.655 14.679014
57.660 14.115622
57.665 14.215134
57.670 13.65701
57.675 13.898075
57.680 14.333764
57.685 15.009582
57.690 15.235496
57.695 15.246492
57.700 15.633075
57.705 16.247038
57.710 15.897961
57.715 15.572807
57.720 15.160862
57.725 15.2766
57.730 14.994124
57.735 14.411477
57.740 14.258842
57.745 14.420118
57.750 14.669371
57.755 14.181184
57.760 14.418668
57.765 14.855672
57.770 14.94783
57.775 14.955006
57.780 14.82759
57.785 14.805181
57.790 14.857527
57.795 13.788911
57.800 14.482663
57.805 14.853199
57.810 14.925857
57.815 14.772073
57.820 14.194851
57.825 13.93072
57.830 14.798285
57.835 14.711067
57.840 14.721313
57.845 14.375079
57.850 14.527857
57.855 14.674819
57.860 15.111357
57.865 14.795374
57.870 14.176727
57.875 13.747244
57.880 13.769286
57.885 13.994377
57.890 14.73018
57.895 14.28299
57.900 14.418098
57.905 14.854362
57.910 14.841586
57.915 14.908706
57.920 14.87203
57.925 14.965652
57.930 15.334064
57.935 15.183483
57.940 15.490089
57.945 15.753156
57.950 15.905946
57.955 15.857896
57.960 15.575645
57.965 15.494786
57.970 15.33731
57.975 15.099078
57.980 14.89912
57.985 14.615323
57.990 14.368477
57.995 14.128914
58.000 14.134187
58.005 14.267904
58.010 14.214223
58.015 14.751992
58.020 15.424351
58.025 15.682001
58.030 15.835819
58.035 15.617917
58.040 15.844603
58.045 15.976847
58.050 15.887451
58.055 16.468332
58.060 16.863253
58.065 17.528349
58.070 18.003258
58.075 17.642557
58.080 17.549545
58.085 17.395285
58.090 16.472858
58.095 15.465049
58.100 15.106833
58.105 15.057544
58.110 15.556419
58.115 15.804844
58.120 15.591167
58.125 15.442183
58.130 15.632504
58.135 15.504114
58.140 15.149704
58.145 15.288954
58.150 15.466023
58.155 15.987361
58.160 16.195433
58.165 16.414358
58.170 16.373079
58.175 17.12709
58.180 17.057295
58.185 16.735008
58.190 16.04446
58.195 15.681409
58.200 15.86762
58.205 16.141506
58.210 15.958302
58.215 15.673737
58.220 16.042032
58.225 16.343296
58.230 16.363529
58.235 15.772882
58.240 15.423558
58.245 15.020528
58.250 15.309156
58.255 15.203457
58.260 15.585805
58.265 15.709986
58.270 16.02973
58.275 15.911002
58.280 15.555596
58.285 15.143353
58.290 14.988737
58.295 14.57513
58.300 14.491218
58.305 14.491871
58.310 14.517039
58.315 14.575976
58.320 14.452238
58.325 14.697721
58.330 15.276953
58.335 15.949255
58.340 15.93978
58.345 15.946231
58.350 16.221722
58.355 16.692965
58.360 16.720417
58.365 16.183605
58.370 16.289864
58.375 16.539349
58.380 16.050621
58.385 15.757875
58.390 15.319843
58.395 14.907608
58.400 15.122136
58.405 14.37898
58.410 14.575222
58.415 14.890417
58.420 15.211766
58.425 15.21493
58.430 15.314564
58.435 15.24291
58.440 15.656306
58.445 16.048555
58.450 16.499447
58.455 16.149937
58.460 16.108318
58.465 16.092249
58.470 16.206999
58.475 16.038477
