!@!!GADDS PLOTSO FILE: Chi integration type
!@!!Title/SampleName: map-14b
!@!!Comment: ?
!@!!User: Bruker Instrument Administrator
!@!!Site: University of Illinois Chicago
!@!!Frame: map-14b_01_000.gfrm
!@!!Wavelengths    1.54184   1.54056   1.54439
!@!!Frame angles: 2Theta: 63.000 Omega: 50.000 Phi: 0.000 Chi: 90.000
!@!!Integration range: 2Theta: 53.000 to 73.000  Gamma: -105.000 to -75.000
!@!!Integration method: bin normalized
!@!N
!@!SS
!@!M
!@!L 0.0 0.0 0.0 0.0
!@!XDegrees
!@!YCounts
53.000 8.722991
53.005 8.950078
53.010 8.765676
53.015 8.667275
53.020 8.56966
53.025 8.853806
53.030 9.316322
53.035 8.752135
53.040 8.219342
53.045 8.496322
53.050 8.398055
53.055 8.763284
53.060 8.539161
53.065 8.282285
53.070 8.53832
53.075 8.707134
53.080 8.628016
53.085 9.039263
53.090 8.782253
53.095 8.597574
53.100 8.578331
53.105 8.861626
53.110 9.171014
53.115 9.227382
53.120 9.277181
53.125 9.319686
53.130 9.395641
53.135 9.138672
53.140 9.075969
53.145 9.136119
53.150 8.754652
53.155 8.488381
53.160 8.643042
53.165 8.835301
53.170 8.841805
53.175 8.47059
53.180 8.383815
53.185 8.639033
53.190 8.768116
53.195 8.334339
53.200 8.101615
53.205 8.16442
53.210 7.946938
53.215 7.653308
53.220 7.400532
53.225 7.384082
53.230 7.445978
53.235 7.193557
53.240 7.210688
53.245 7.37217
53.250 8.019764
53.255 8.274607
53.260 8.365465
53.265 8.418632
53.270 8.649563
53.275 8.859581
53.280 9.050821
53.285 8.879762
53.290 9.109078
53.295 9.174404
53.300 9.086304
53.305 9.377132
53.310 9.06113
53.315 8.708418
53.320 7.973679
53.325 7.913765
53.330 7.949695
53.335 8.03298
53.340 8.180605
53.345 8.5235
53.350 8.592168
53.355 9.079719
53.360 9.069004
53.365 9.153119
53.370 8.890669
53.375 8.769813
53.380 9.135261
53.385 9.344012
53.390 9.362876
53.395 9.357463
53.400 9.410268
53.405 9.499341
53.410 9.439389
53.415 9.372431
53.420 9.693404
53.425 9.566788
53.430 9.479195
53.435 9.640711
53.440 9.314675
53.445 9.053886
53.450 8.852771
53.455 8.410074
53.460 8.58889
53.465 8.487401
53.470 8.221018
53.475 8.307584
53.480 8.314434
53.485 8.512953
53.490 8.45493
53.495 8.13321
53.500 8.183349
53.505 8.353154
53.510 8.604511
53.515 8.881123
53.520 8.479491
53.525 8.672139
53.530 8.589925
53.535 8.536667
53.540 8.610469
53.545 8.255809
53.550 7.73169
53.555 7.865419
53.560 8.391751
53.565 8.654408
53.570 8.59335
53.575 8.742637
53.580 9.206555
53.585 9.614908
53.590 9.794694
53.595 9.635131
53.600 10.060826
53.605 10.122899
53.610 9.771996
53.615 9.44759
53.620 9.137618
53.625 8.830935
53.630 8.425749
53.635 8.253567
53.640 8.183751
53.645 8.350294
53.650 8.089998
53.655 8.306317
53.660 8.102543
53.665 8.186452
53.670 7.732903
53.675 7.717251
53.680 7.924606
53.685 8.249931
53.690 7.968323
53.695 8.39801
53.700 8.679183
53.705 9.29828
53.710 9.268707
53.715 9.075162
53.720 9.08357
53.725 9.18248
53.730 9.006466
53.735 8.883711
53.740 8.667383
53.745 8.998178
53.750 9.552063
53.755 10.002187
53.760 10.204456
53.765 10.431643
53.770 10.57913
53.775 10.087654
53.780 10.139632
53.785 9.770224
53.790 9.771986
53.795 9.198449
53.800 8.787726
53.805 8.837229
53.810 8.884655
53.815 8.728473
53.820 8.767494
53.825 8.721318
53.830 9.281738
53.835 9.42997
53.840 9.6086
53.845 10.295637
53.850 10.405263
53.855 10.079401
53.860 9.877583
53.865 9.644618
53.870 9.750763
53.875 9.190452
53.880 8.561921
53.885 8.407675
53.890 9.220667
53.895 9.604495
53.900 9.54337
53.905 9.230256
53.910 9.62777
53.915 10.080384
53.920 10.136758
53.925 9.522654
53.930 9.280532
53.935 9.478477
53.940 9.344238
53.945 8.678864
53.950 8.160943
53.955 8.097988
53.960 7.75882
53.965 7.403872
53.970 7.420203
53.975 7.617014
53.980 7.950265
53.985 8.289935
53.990 8.214109
53.995 9.031127
54.000 8.974378
54.005 9.118998
54.010 9.220973
54.015 9.357194
54.020 9.569018
54.025 9.457376
54.030 9.538248
54.035 9.295368
54.040 9.299248
54.045 9.372261
54.050 9.044067
54.055 8.951519
54.060 9.140825
54.065 8.851407
54.070 9.206719
54.075 9.314331
54.080 9.64053
54.085 9.494122
54.090 9.418968
54.095 9.145605
54.100 9.408056
54.105 9.339152
54.110 9.340963
54.115 9.146934
54.120 9.69202
54.125 9.999117
54.130 10.256819
54.135 10.379073
54.140 10.428992
54.145 10.177819
54.150 10.107841
54.155 9.863224
54.160 9.835665
54.165 10.066545
54.170 10.10698
54.175 9.975709
54.180 9.814672
54.185 9.588913
54.190 9.34645
54.195 9.140626
54.200 9.198611
54.205 9.519104
54.210 9.914565
54.215 10.453282
54.220 10.605976
54.225 10.719065
54.230 10.470623
54.235 10.253985
54.240 9.677391
54.245 9.251809
54.250 9.082169
54.255 9.713446
54.260 9.766538
54.265 10.259897
54.270 10.73489
54.275 10.910052
54.280 10.903454
54.285 10.771583
54.290 10.370265
54.295 10.558339
54.300 10.103791
54.305 9.940288
54.310 10.084722
54.315 9.966819
54.320 9.853809
54.325 9.807582
54.330 9.705911
54.335 9.921612
54.340 9.673458
54.345 9.939418
54.350 10.288181
54.355 10.341222
54.360 10.422986
54.365 10.28021
54.370 10.198333
54.375 10.122183
54.380 10.012819
54.385 10.017942
54.390 10.32356
54.395 10.090056
54.400 9.679771
54.405 9.168963
54.410 9.147783
54.415 9.280379
54.420 8.793606
54.425 8.401042
54.430 7.976142
54.435 8.118479
54.440 8.157844
54.445 8.030424
54.450 7.74215
54.455 8.016463
54.460 7.993679
54.465 7.970676
54.470 8.352202
54.475 8.423865
54.480 8.575609
54.485 8.703175
54.490 8.648367
54.495 8.824103
54.500 9.363848
54.505 9.119301
54.510 9.540734
54.515 9.032661
54.520 8.998624
54.525 9.343011
54.530 9.277037
54.535 9.046647
54.540 8.731635
54.545 9.09972
54.550 9.687842
54.555 9.533726
54.560 9.053514
54.565 9.292011
54.570 9.477397
54.575 9.533814
54.580 8.891077
54.585 8.989896
54.590 8.920332
54.595 9.012978
54.600 8.936036
54.605 9.395471
54.610 9.923911
54.615 10.144747
54.620 10.116482
54.625 10.341181
54.630 10.469376
54.635 10.213641
54.640 9.677741
54.645 9.629896
54.650 9.420746
54.655 9.178227
54.660 9.034285
54.665 8.873487
54.670 9.020069
54.675 8.507059
54.680 8.522992
54.685 8.599119
54.690 8.473529
54.695 9.084083
54.700 9.270087
54.705 9.379277
54.710 9.307225
54.715 8.895771
54.720 8.690287
54.725 8.894534
54.730 8.288579
54.735 8.191312
54.740 8.360515
54.745 8.509255
54.750 8.47084
54.755 8.292562
54.760 8.067326
54.765 7.968792
54.770 8.275975
54.775 8.110165
54.780 8.27795
54.785 8.619223
54.790 8.595493
54.795 8.923018
54.800 9.420173
54.805 8.987329
54.810 9.543628
54.815 9.825004
54.820 10.027992
54.825 10.246151
54.830 9.662935
54.835 9.558703
54.840 9.657191
54.845 9.460543
54.850 9.412187
54.855 9.625374
54.860 9.98516
54.865 10.675983
54.870 11.072412
54.875 10.956947
54.880 11.235063
54.885 11.265872
54.890 11.437828
54.895 11.48856
54.900 10.780433
54.905 10.526812
54.910 10.322821
54.915 10.23075
54.920 10.290061
54.925 10.184405
54.930 10.145266
54.935 10.477184
54.940 10.807376
54.945 11.086781
54.950 11.098277
54.955 11.156089
54.960 10.741819
54.965 10.762666
54.970 10.609655
54.975 10.682219
54.980 10.496938
54.985 10.593538
54.990 10.704366
54.995 11.029688
55.000 11.026649
55.005 10.704905
55.010 10.158879
55.015 10.525619
55.020 10.656253
55.025 10.625093
55.030 10.753455
55.035 10.908824
55.040 11.211692
55.045 11.522914
55.050 11.539602
55.055 11.027535
55.060 11.391294
55.065 11.108767
55.070 11.270045
55.075 11.199181
55.080 10.791918
55.085 10.781525
55.090 11.0809
55.095 11.000915
55.100 10.894129
55.105 10.952277
55.110 11.022022
55.115 11.024493
55.120 10.599167
55.125 9.861337
55.130 9.439675
55.135 9.422194
55.140 9.26058
55.145 9.781396
55.150 9.973336
55.155 9.616289
55.160 10.083619
55.165 10.330059
55.170 10.252729
55.175 9.781998
55.180 9.626949
55.185 10.368854
55.190 11.067887
55.195 11.015578
55.200 10.874084
55.205 10.608265
55.210 10.747399
55.215 10.443459
55.220 10.151189
55.225 9.871745
55.230 9.583554
55.235 9.722752
55.240 10.193317
55.245 10.231316
55.250 10.402676
55.255 9.897416
55.260 9.980139
55.265 10.412398
55.270 10.280408
55.275 10.151989
55.280 9.837942
55.285 10.031152
55.290 10.044491
55.295 9.796858
55.300 9.355496
55.305 9.2873
55.310 8.935436
55.315 8.807739
55.320 8.396994
55.325 8.666024
55.330 8.835556
55.335 8.857601
55.340 8.738623
55.345 9.00343
55.350 9.027934
55.355 9.510797
55.360 9.535314
55.365 9.607306
55.370 9.667394
55.375 10.196339
55.380 10.36903
55.385 10.750047
55.390 10.281722
55.395 10.329879
55.400 10.432733
55.405 10.665801
55.410 10.19527
55.415 9.974402
55.420 9.377388
55.425 9.807697
55.430 9.516417
55.435 9.454783
55.440 9.534253
55.445 9.327223
55.450 9.335799
55.455 9.49203
55.460 9.11685
55.465 9.096836
55.470 8.708372
55.475 8.485872
55.480 8.654647
55.485 8.801019
55.490 8.893175
55.495 8.573684
55.500 8.804134
55.505 9.077249
55.510 9.583269
55.515 9.837977
55.520 9.715679
55.525 9.7171
55.530 10.286433
55.535 10.135307
55.540 9.729651
55.545 9.50847
55.550 9.438143
55.555 9.660035
55.560 9.636383
55.565 9.268259
55.570 9.351498
55.575 9.541087
55.580 9.853319
55.585 9.435139
55.590 9.058963
55.595 8.820977
55.600 8.762719
55.605 8.924685
55.610 8.835821
55.615 8.86869
55.620 9.334462
55.625 10.064568
55.630 10.233039
55.635 10.073902
55.640 10.014699
55.645 9.896894
55.650 10.021336
55.655 10.131436
55.660 9.704195
55.665 9.852668
55.670 9.666766
55.675 9.698811
55.680 9.90162
55.685 9.576748
55.690 9.229337
55.695 9.149602
55.700 9.332809
55.705 9.388562
55.710 8.9203
55.715 9.166343
55.720 9.590025
55.725 9.867477
55.730 10.055881
55.735 9.715536
55.740 10.212314
55.745 10.527171
55.750 9.990878
55.755 9.891521
55.760 9.814504
55.765 9.793406
55.770 10.069246
55.775 9.933321
55.780 9.316282
55.785 9.249537
55.790 9.167473
55.795 9.144289
55.800 9.17652
55.805 9.274158
55.810 9.479342
55.815 10.010316
55.820 10.272447
55.825 10.242705
55.830 9.849863
55.835 10.107477
55.840 9.998971
55.845 9.933516
55.850 10.096718
55.855 9.90767
55.860 10.289719
55.865 10.669964
55.870 10.252344
55.875 9.952511
55.880 9.784339
55.885 9.475286
55.890 9.502924
55.895 9.451241
55.900 9.775029
55.905 9.853825
55.910 10.030354
55.915 9.818283
55.920 9.797599
55.925 9.501016
55.930 9.313797
55.935 8.671208
55.940 8.436343
55.945 8.447136
55.950 8.622879
55.955 8.719481
55.960 8.562866
55.965 8.35031
55.970 8.406775
55.975 8.294939
55.980 8.390097
55.985 8.530053
55.990 8.253181
55.995 8.076158
56.000 8.28134
56.005 8.092619
56.010 8.321423
56.015 8.151091
56.020 8.090662
56.025 8.230677
56.030 8.582335
56.035 9.11924
56.040 9.816295
56.045 9.800993
56.050 9.96228
56.055 10.023909
56.060 10.3916
56.065 10.319202
56.070 9.889958
56.075 9.472881
56.080 9.215168
56.085 8.921686
56.090 8.974648
56.095 8.683775
56.100 8.683428
56.105 8.599152
56.110 9.169767
56.115 9.281852
56.120 9.479606
56.125 9.789069
56.130 10.144937
56.135 10.217663
56.140 10.312287
56.145 10.687975
56.150 11.063884
56.155 10.937504
56.160 10.60908
56.165 10.399774
56.170 10.046386
56.175 9.759916
56.180 9.383492
56.185 9.248662
56.190 9.210089
56.195 9.451715
56.200 9.318501
56.205 9.463873
56.210 9.144474
56.215 9.372859
56.220 9.545801
56.225 9.875234
56.230 9.897209
56.235 10.468922
56.240 11.141814
56.245 11.760071
56.250 11.955195
56.255 11.633424
56.260 11.255083
56.265 11.393237
56.270 11.274635
56.275 10.850291
56.280 10.656706
56.285 10.398313
56.290 10.765464
56.295 10.818143
56.300 10.419247
56.305 10.348265
56.310 10.272679
56.315 10.53434
56.320 10.2738
56.325 10.177086
56.330 10.114388
56.335 10.09211
56.340 9.89177
56.345 10.204808
56.350 9.552738
56.355 9.383721
56.360 9.127644
56.365 9.037122
56.370 9.075078
56.375 9.561715
56.380 9.51081
56.385 9.743699
56.390 9.500778
56.395 9.470373
56.400 9.833946
56.405 9.796555
56.410 9.369378
56.415 9.078077
56.420 9.90246
56.425 10.879737
56.430 11.151296
56.435 11.087253
56.440 11.244156
56.445 11.427611
56.450 11.759276
56.455 11.09293
56.460 10.449731
56.465 10.28218
56.470 10.135768
56.475 10.451241
56.480 10.379336
56.485 10.331005
56.490 11.024729
56.495 11.332005
56.500 11.175262
56.505 11.134779
56.510 11.338018
56.515 11.235412
56.520 10.988808
56.525 10.865347
56.530 11.019161
56.535 11.231602
56.540 11.289964
56.545 10.918562
56.550 10.583769
56.555 10.546803
56.560 10.222582
56.565 10.141041
56.570 10.121495
56.575 10.550503
56.580 10.611074
56.585 10.889299
56.590 10.932871
56.595 11.103274
56.600 11.074419
56.605 11.171884
56.610 10.96295
56.615 11.223344
56.620 11.305897
56.625 11.391289
56.630 11.4862
56.635 11.174692
56.640 10.933639
56.645 10.491826
56.650 10.480347
56.655 10.717906
56.660 10.671055
56.665 10.789227
56.670 11.233223
56.675 11.710876
56.680 11.779692
56.685 11.552416
56.690 11.516883
56.695 11.42612
56.700 11.142857
56.705 10.736475
56.710 10.121453
56.715 10.26919
56.720 10.493282
56.725 10.589246
56.730 10.179852
56.735 10.185994
56.740 10.28945
56.745 10.345456
56.750 10.214262
56.755 10.050089
56.760 9.937538
56.765 9.905096
56.770 9.627156
56.775 9.496182
56.780 9.604815
56.785 10.022263
56.790 10.091781
56.795 10.103414
56.800 10.443326
56.805 10.5964
56.810 10.587814
56.815 10.434715
56.820 10.188643
56.825 10.096323
56.830 10.310172
56.835 10.449694
56.840 11.071724
56.845 10.98737
56.850 10.401631
56.855 10.009486
56.860 10.164953
56.865 10.282031
56.870 10.113402
56.875 9.347212
56.880 9.237178
56.885 9.606361
56.890 9.611458
56.895 9.331999
56.900 8.781104
56.905 8.779849
56.910 9.018318
56.915 9.344753
56.920 9.534616
56.925 9.670776
56.930 9.500544
56.935 9.843951
56.940 9.928654
56.945 9.906552
56.950 9.730469
56.955 9.731465
56.960 9.843237
56.965 10.351578
56.970 10.211856
56.975 9.806333
56.980 9.737309
56.985 9.633541
56.990 9.530507
56.995 9.268413
57.000 8.767175
57.005 8.66137
57.010 9.088254
57.015 8.957582
57.020 9.236697
57.025 9.060323
57.030 9.034635
57.035 8.838411
57.040 8.625395
57.045 8.834576
57.050 9.181532
57.055 8.944833
57.060 8.853815
57.065 8.967248
57.070 9.434345
57.075 9.218683
57.080 9.165889
57.085 9.401041
57.090 9.722146
57.095 9.406125
57.100 9.268848
57.105 9.448403
57.110 9.682127
57.115 9.648587
57.120 9.140696
57.125 9.035384
57.130 9.362049
57.135 9.323466
57.140 8.964351
57.145 9.170886
57.150 8.960061
57.155 9.103602
57.160 9.584405
57.165 9.981218
57.170 10.379732
57.175 10.240257
57.180 10.02727
57.185 10.16696
57.190 10.778779
57.195 10.482286
57.200 9.892187
57.205 9.951517
57.210 10.566299
57.215 10.110862
57.220 9.872493
57.225 8.945839
57.230 9.086356
57.235 9.510073
57.240 9.415632
57.245 9.006528
57.250 9.377605
57.255 9.811923
57.260 10.076327
57.265 9.933513
57.270 9.710335
57.275 9.35354
57.280 9.71081
57.285 9.810062
57.290 9.295236
57.295 9.09397
57.300 8.887477
57.305 8.659484
57.310 8.740368
57.315 8.399936
57.320 8.810719
57.325 8.554
57.330 8.540376
57.335 8.948356
57.340 9.239745
57.345 9.244181
57.350 8.669689
57.355 7.86944
57.360 7.583973
57.365 7.396744
57.370 7.374824
57.375 7.702149
57.380 7.924029
57.385 8.176574
57.390 8.305041
57.395 8.777925
57.400 8.972993
57.405 8.765462
57.410 8.080217
57.415 8.205646
57.420 8.266888
57.425 8.841065
57.430 8.844103
57.435 8.578116
57.440 8.846166
57.445 9.069682
57.450 9.089035
57.455 9.525834
57.460 9.619167
57.465 9.88555
57.470 10.130097
57.475 10.05013
57.480 9.993996
57.485 9.963849
57.490 9.974972
57.495 10.432047
57.500 10.353072
57.505 10.025148
57.510 10.122236
57.515 10.382464
57.520 10.380439
57.525 9.783558
57.530 9.311191
57.535 9.473424
57.540 9.556025
57.545 9.499997
57.550 9.270418
57.555 9.212387
57.560 9.698679
57.565 9.709212
57.570 9.674168
57.575 9.739378
57.580 9.891088
57.585 9.871834
57.590 9.610833
57.595 9.437288
57.600 9.487821
57.605 9.394633
57.610 9.452179
57.615 9.272845
57.620 9.487414
57.625 9.465823
57.630 8.998803
57.635 9.149093
57.640 9.234143
57.645 9.094006
57.650 9.137428
57.655 9.282096
57.660 9.790947
57.665 9.919792
57.670 9.975436
57.675 10.202914
57.680 10.018397
57.685 10.270223
57.690 9.969055
57.695 10.052281
57.700 10.278039
57.705 10.078317
57.710 10.103688
57.715 10.000081
57.720 9.419263
57.725 9.078247
57.730 9.039558
57.735 8.870375
57.740 9.0889
57.745 8.640754
57.750 8.723372
57.755 9.096981
57.760 9.312103
57.765 9.134097
57.770 8.901267
57.775 8.764374
57.780 9.35679
57.785 9.635511
57.790 9.393583
57.795 9.082585
57.800 8.59709
57.805 8.469233
57.810 8.645712
57.815 8.38636
57.820 8.154028
57.825 8.494279
57.830 9.302123
57.835 10.097748
57.840 10.244313
57.845 10.298092
57.850 10.532398
57.855 11.064296
57.860 11.113323
57.865 10.681071
57.870 10.431731
57.875 9.878129
57.880 9.293263
57.885 9.149584
57.890 8.860184
57.895 8.230762
57.900 7.956392
57.905 8.162189
57.910 8.691378
57.915 9.004836
57.920 9.065265
57.925 9.204955
57.930 9.627043
57.935 9.855543
57.940 9.629232
57.945 9.413846
57.950 9.045382
57.955 8.777933
57.960 8.600634
57.965 8.629715
57.970 8.24649
57.975 8.068227
57.980 8.265853
57.985 8.869941
57.990 9.233466
57.995 9.147538
58.000 9.042494
58.005 9.41832
58.010 9.771872
58.015 9.809514
58.020 9.136345
58.025 9.382028
58.030 9.758676
58.035 10.008454
58.040 9.883334
58.045 9.989614
58.050 10.067196
58.055 9.990031
58.060 9.398206
58.065 9.282609
58.070 8.96462
58.075 8.853301
58.080 8.499587
58.085 8.277186
58.090 8.251457
58.095 8.085447
58.100 8.176283
58.105 8.686216
58.110 9.193262
58.115 9.483921
58.120 9.893731
58.125 10.224124
58.130 10.321034
58.135 10.223087
58.140 10.139897
58.145 9.968871
58.150 9.811311
58.155 9.447242
58.160 9.267214
58.165 9.348585
58.170 9.219554
58.175 8.558159
58.180 8.264435
58.185 8.256045
58.190 8.225478
58.195 8.455432
58.200 8.446379
58.205 8.450242
58.210 9.132027
58.215 9.585066
58.220 9.71751
58.225 9.990003
58.230 10.140494
58.235 10.338927
58.240 10.47138
58.245 10.35123
58.250 10.094359
58.255 10.330696
58.260 10.133787
58.265 9.676077
58.270 9.463171
58.275 9.578836
58.280 9.804585
58.285 9.782832
58.290 9.524261
58.295 9.781023
58.300 10.436802
58.305 10.917656
58.310 11.12164
58.315 10.641109
58.320 10.819227
58.325 10.879963
58.330 10.66643
58.335 9.993975
58.340 9.703638
58.345 9.256288
58.350 9.235212
58.355 9.224448
58.360 9.539865
58.365 9.882912
58.370 10.117751
58.375 10.045296
58.380 10.238664
58.385 10.460941
58.390 10.413883
58.395 10.266472
58.400 10.411488
58.405 10.98851
58.410 11.186034
58.415 10.902424
58.420 10.652854
58.425 10.387358
58.430 10.334195
58.435 9.927028
58.440 9.444147
58.445 9.367499
58.450 9.566517
58.455 10.04589
58.460 10.15734
58.465 10.156799
58.470 10.65113
58.475 10.512642
58.480 10.591894
58.485 10.690324
58.490 10.661886
58.495 10.659327
58.500 10.434129
58.505 10.328149
58.510 10.320148
58.515 10.25602
58.520 10.53966
58.525 10.664894
58.530 10.590261
58.535 10.516383
58.540 9.847785
58.545 9.712549
58.550 9.518248
58.555 9.079113
58.560 8.838976
58.565 8.699922
58.570 8.707682
58.575 8.994695
58.580 8.731917
58.585 8.671171
58.590 8.379569
58.595 8.457468
58.600 8.460748
58.605 8.534697
58.610 8.622835
58.615 9.03397
58.620 9.007155
58.625 9.466968
58.630 9.8556
58.635 10.190819
58.640 10.522509
58.645 10.919524
58.650 11.093908
58.655 11.561285
