!@!!GADDS PLOTSO FILE: Chi integration type
!@!!Title/SampleName: map-16b
!@!!Comment: ?
!@!!User: Bruker Instrument Administrator
!@!!Site: University of Illinois Chicago
!@!!Frame: map-16b_01_000.gfrm
!@!!Wavelengths    1.54184   1.54056   1.54439
!@!!Frame angles: 2Theta: 63.000 Omega: 50.000 Phi: 0.000 Chi: 90.000
!@!!Integration range: 2Theta: 53.000 to 73.000  Gamma: -105.000 to -75.000
!@!!Integration method: bin normalized
!@!N
!@!SS
!@!M
!@!L 0.0 0.0 0.0 0.0
!@!XDegrees
!@!YCounts
53.000 4.157692
53.005 4.281431
53.010 4.226405
53.015 4.282442
53.020 4.344023
53.025 3.945223
53.030 3.961071
53.035 4.095353
53.040 4.176342
53.045 4.375341
53.050 4.247443
53.055 4.077366
53.060 4.184261
53.065 4.161093
53.070 3.970331
53.075 3.924934
53.080 3.775168
53.085 3.679091
53.090 3.862252
53.095 4.076272
53.100 3.985618
53.105 3.937602
53.110 4.124783
53.115 4.307855
53.120 4.425921
53.125 4.238923
53.130 4.113558
53.135 4.391127
53.140 4.427591
53.145 4.389555
53.150 4.211541
53.155 4.101608
53.160 3.91097
53.165 4.014547
53.170 3.969483
53.175 3.923635
53.180 3.814275
53.185 3.556073
53.190 3.299083
53.195 3.439957
53.200 3.37572
53.205 3.283491
53.210 3.51651
53.215 3.627271
53.220 3.983029
53.225 4.288741
53.230 3.976283
53.235 4.114645
53.240 4.052449
53.245 3.90552
53.250 3.870541
53.255 3.644377
53.260 3.530782
53.265 3.632636
53.270 3.373939
53.275 3.089538
53.280 2.971956
53.285 2.859802
53.290 2.95842
53.295 2.934308
53.300 2.853024
53.305 3.214475
53.310 3.222003
53.315 3.231207
53.320 3.552467
53.325 3.819924
53.330 3.881174
53.335 4.012185
53.340 4.088623
53.345 4.322311
53.350 4.48389
53.355 4.43206
53.360 4.19257
53.365 4.067304
53.370 3.967658
53.375 3.802382
53.380 3.772795
53.385 3.485432
53.390 3.383149
53.395 3.415747
53.400 3.461742
53.405 3.140065
53.410 3.241616
53.415 3.30202
53.420 3.50614
53.425 3.3481
53.430 3.247935
53.435 3.390368
53.440 3.852556
53.445 4.0823
53.450 4.223463
53.455 4.056508
53.460 3.945941
53.465 4.001449
53.470 3.746534
53.475 3.796827
53.480 3.428611
53.485 3.316038
53.490 3.477574
53.495 3.723737
53.500 3.972
53.505 4.042264
53.510 3.891939
53.515 4.121083
53.520 4.011412
53.525 4.029535
53.530 3.883639
53.535 3.861189
53.540 3.867882
53.545 3.822471
53.550 3.787822
53.555 3.93645
53.560 4.223201
53.565 4.255898
53.570 4.274072
53.575 4.5603
53.580 4.960748
53.585 5.021125
53.590 4.831461
53.595 5.145532
53.600 5.496196
53.605 5.725564
53.610 5.525485
53.615 5.024627
53.620 5.03429
53.625 4.67331
53.630 4.348906
53.635 4.142634
53.640 3.79909
53.645 3.763682
53.650 3.984922
53.655 3.92158
53.660 4.217221
53.665 4.146918
53.670 3.951774
53.675 4.066092
53.680 3.943985
53.685 3.693381
53.690 3.954724
53.695 3.999245
53.700 3.782881
53.705 3.557414
53.710 3.76676
53.715 3.8176
53.720 4.056264
53.725 4.47244
53.730 4.630139
53.735 4.741919
53.740 4.75585
53.745 4.754819
53.750 4.770743
53.755 4.496356
53.760 4.135083
53.765 4.088256
53.770 4.300456
53.775 4.089859
53.780 4.012926
53.785 4.134935
53.790 4.235303
53.795 4.333995
53.800 4.477358
53.805 4.43746
53.810 4.676455
53.815 4.651908
53.820 4.711007
53.825 4.393462
53.830 3.869791
53.835 3.657136
53.840 3.605229
53.845 3.623428
53.850 3.785923
53.855 3.877476
53.860 4.221992
53.865 4.388629
53.870 4.38703
53.875 4.526433
53.880 4.529757
53.885 4.222163
53.890 3.927739
53.895 3.611398
53.900 3.65231
53.905 3.778854
53.910 3.79444
53.915 3.558937
53.920 3.741118
53.925 3.978074
53.930 4.149901
53.935 4.258846
53.940 4.019282
53.945 3.964393
53.950 4.024837
53.955 3.962507
53.960 3.820635
53.965 3.856014
53.970 3.642115
53.975 3.683554
53.980 3.909472
53.985 4.186539
53.990 4.360551
53.995 4.504135
54.000 4.586533
54.005 4.596596
54.010 4.563065
54.015 4.21171
54.020 4.326815
54.025 4.293002
54.030 4.388719
54.035 4.533251
54.040 4.775715
54.045 4.928582
54.050 4.643594
54.055 4.250027
54.060 4.245548
54.065 3.826481
54.070 3.811084
54.075 3.437297
54.080 3.373684
54.085 3.625321
54.090 3.592651
54.095 3.896064
54.100 4.031258
54.105 4.151035
54.110 4.567358
54.115 4.601183
54.120 4.402044
54.125 4.453619
54.130 4.17347
54.135 3.853242
54.140 3.798565
54.145 3.792354
54.150 4.184109
54.155 4.374289
54.160 4.520294
54.165 4.766364
54.170 4.911462
54.175 4.763025
54.180 4.399287
54.185 4.264376
54.190 4.336677
54.195 4.077444
54.200 4.201228
54.205 4.231713
54.210 4.360417
54.215 4.482263
54.220 4.259936
54.225 4.11998
54.230 3.962692
54.235 3.542166
54.240 3.478822
54.245 3.30926
54.250 3.371031
54.255 3.507197
54.260 3.775702
54.265 4.001935
54.270 4.442212
54.275 4.633288
54.280 4.76883
54.285 4.724196
54.290 4.547044
54.295 4.277818
54.300 4.38252
54.305 4.323919
54.310 4.027597
54.315 4.30002
54.320 4.503254
54.325 4.677882
54.330 4.735796
54.335 4.469764
54.340 4.577124
54.345 4.561271
54.350 4.397535
54.355 4.256822
54.360 4.202291
54.365 4.531602
54.370 4.544055
54.375 4.456368
54.380 4.160882
54.385 3.870588
54.390 3.96043
54.395 3.791397
54.400 3.59156
54.405 3.888404
54.410 4.356985
54.415 4.805766
54.420 4.701514
54.425 4.477087
54.430 4.679879
54.435 4.330926
54.440 3.917952
54.445 3.4147
54.450 3.208535
54.455 3.341452
54.460 3.146582
54.465 3.058835
54.470 3.49818
54.475 3.75595
54.480 3.90695
54.485 3.988504
54.490 4.224643
54.495 4.450501
54.500 4.356097
54.505 3.977299
54.510 3.795973
54.515 3.832721
54.520 3.954452
54.525 3.954812
54.530 4.091421
54.535 4.220055
54.540 4.540183
54.545 4.651435
54.550 4.713959
54.555 4.724371
54.560 4.709205
54.565 4.768548
54.570 4.748095
54.575 4.199804
54.580 4.36411
54.585 4.37462
54.590 4.605731
54.595 4.451446
54.600 4.197558
54.605 4.245379
54.610 4.738004
54.615 4.456639
54.620 4.080472
54.625 3.798919
54.630 3.729483
54.635 4.055265
54.640 4.094054
54.645 3.972644
54.650 4.209876
54.655 4.489396
54.660 4.793408
54.665 4.930956
54.670 4.778118
54.675 4.631735
54.680 4.796556
54.685 4.726135
54.690 4.669256
54.695 4.386562
54.700 4.121543
54.705 4.224366
54.710 4.521138
54.715 4.28005
54.720 4.076252
54.725 3.961314
54.730 4.391067
54.735 4.690444
54.740 4.443552
54.745 4.318082
54.750 4.388257
54.755 4.664724
54.760 4.525202
54.765 4.473458
54.770 4.449347
54.775 4.431961
54.780 4.21208
54.785 4.473846
54.790 4.628174
54.795 4.840995
54.800 4.832686
54.805 5.074483
54.810 5.478622
54.815 5.627561
54.820 5.115586
54.825 4.883169
54.830 4.743354
54.835 4.71799
54.840 4.52668
54.845 4.561622
54.850 4.64776
54.855 4.916554
54.860 4.933032
54.865 4.88855
54.870 4.722265
54.875 4.768477
54.880 4.805318
54.885 4.809307
54.890 4.97071
54.895 5.386726
54.900 5.588368
54.905 5.463677
54.910 5.472898
54.915 5.441943
54.920 5.553713
54.925 5.588032
54.930 5.534451
54.935 5.50234
54.940 5.496698
54.945 5.276529
54.950 5.008521
54.955 4.939094
54.960 4.680469
54.965 4.291679
54.970 3.968719
54.975 3.863646
54.980 4.096821
54.985 4.351345
54.990 4.326084
54.995 4.3295
55.000 4.326937
55.005 4.541196
55.010 4.682141
55.015 4.701052
55.020 4.851856
55.025 4.723251
55.030 5.017257
55.035 5.257556
55.040 5.326812
55.045 5.587162
55.050 5.782632
55.055 5.705407
55.060 5.587644
55.065 5.340465
55.070 5.283048
55.075 5.179523
55.080 4.505548
55.085 4.01403
55.090 4.120578
55.095 4.200206
55.100 4.410009
55.105 4.624656
55.110 4.610536
55.115 4.726877
55.120 4.924252
55.125 5.077203
55.130 5.147584
55.135 5.078825
55.140 5.049164
55.145 5.236165
55.150 5.598585
55.155 5.712982
55.160 5.492899
55.165 5.104903
55.170 4.923597
55.175 5.039651
55.180 5.195392
55.185 4.892107
55.190 4.596465
55.195 5.038469
55.200 5.380124
55.205 5.34679
55.210 5.014533
55.215 4.848933
55.220 5.181949
55.225 5.526044
55.230 5.353436
55.235 5.412546
55.240 5.26211
55.245 5.281671
55.250 5.312849
55.255 5.091393
55.260 4.747244
55.265 4.459223
55.270 4.557354
55.275 4.218741
55.280 4.031164
55.285 3.684912
55.290 3.737757
55.295 4.094958
55.300 4.079122
55.305 4.111553
55.310 5.057681
55.315 5.486838
55.320 5.907053
55.325 5.990899
55.330 5.96847
55.335 6.23081
55.340 5.883694
55.345 5.279059
55.350 5.028136
55.355 5.020984
55.360 5.258812
55.365 5.037457
55.370 5.088527
55.375 5.114175
55.380 5.029857
55.385 4.988922
55.390 4.544906
55.395 4.100132
55.400 4.077206
55.405 4.140055
55.410 4.417668
55.415 4.565977
55.420 4.564613
55.425 4.489241
55.430 4.484409
55.435 4.242382
55.440 3.824671
55.445 3.918052
55.450 3.749238
55.455 3.777006
55.460 3.97153
55.465 4.415905
55.470 4.505608
55.475 4.498237
55.480 4.539093
55.485 4.988977
55.490 4.958861
55.495 4.725958
55.500 4.381998
55.505 4.538489
55.510 4.530697
55.515 4.15587
55.520 4.190984
55.525 4.437362
55.530 4.248754
55.535 4.249721
55.540 4.168139
55.545 4.38593
55.550 4.427152
55.555 4.080573
55.560 4.223747
55.565 4.874723
55.570 5.273348
55.575 5.477111
55.580 5.419091
55.585 5.381491
55.590 5.686792
55.595 5.543003
55.600 5.219645
55.605 5.116954
55.610 4.905948
55.615 4.795149
55.620 4.906119
55.625 4.760295
55.630 4.609084
55.635 4.782731
55.640 4.618282
55.645 4.568509
55.650 4.676716
55.655 4.804929
55.660 4.854007
55.665 4.992289
55.670 5.027616
55.675 5.22489
55.680 5.469599
55.685 5.296092
55.690 5.013171
55.695 4.845339
55.700 4.706611
55.705 4.353235
55.710 4.282012
55.715 4.432944
55.720 4.512498
55.725 4.422932
55.730 4.567301
55.735 4.76104
55.740 4.844206
55.745 4.839628
55.750 4.621859
55.755 4.623099
55.760 4.467027
55.765 4.361581
55.770 4.496217
55.775 4.576279
55.780 4.639676
55.785 4.923057
55.790 5.147784
55.795 5.707832
55.800 5.601267
55.805 5.05026
55.810 4.942078
55.815 4.852215
55.820 4.577256
55.825 4.204824
55.830 4.213772
55.835 4.43347
55.840 4.570899
55.845 4.556691
55.850 4.714839
55.855 4.95818
55.860 5.076254
55.865 4.823311
55.870 4.722255
55.875 4.836948
55.880 5.1762
55.885 5.174905
55.890 5.571676
55.895 5.436416
55.900 5.835157
55.905 6.330844
55.910 6.577916
55.915 6.510021
55.920 6.293943
55.925 6.148713
55.930 6.342683
55.935 6.235313
55.940 5.799933
55.945 5.578001
55.950 5.519424
55.955 5.543507
55.960 5.506166
55.965 5.498276
55.970 5.364742
55.975 5.237436
55.980 5.149891
55.985 4.834832
55.990 4.633422
55.995 4.408393
56.000 4.319449
56.005 4.178437
56.010 4.141164
56.015 4.423383
56.020 4.791148
56.025 5.148456
56.030 5.117049
56.035 5.256219
56.040 5.655194
56.045 5.61878
56.050 5.209234
56.055 5.061038
56.060 4.97137
56.065 5.098836
56.070 4.944796
56.075 4.99165
56.080 5.308391
56.085 5.224004
56.090 5.134733
56.095 5.314941
56.100 5.355014
56.105 5.322468
56.110 5.207132
56.115 5.381862
56.120 5.681602
56.125 5.69615
56.130 5.605472
56.135 5.768525
56.140 5.930795
56.145 6.091112
56.150 5.798111
56.155 5.696888
56.160 6.184552
56.165 6.310485
56.170 5.879378
56.175 5.460414
56.180 5.345695
56.185 5.362799
56.190 5.599564
56.195 5.012146
56.200 4.8661
56.205 5.153033
56.210 5.544325
56.215 5.737919
56.220 5.91307
56.225 5.836499
56.230 6.064878
56.235 6.194991
56.240 6.04969
56.245 5.768034
56.250 5.421047
56.255 5.300921
56.260 5.217345
56.265 5.256532
56.270 5.389249
56.275 5.388352
56.280 5.703584
56.285 5.993871
56.290 6.157813
56.295 6.063512
56.300 5.729965
56.305 5.424691
56.310 5.512698
56.315 5.336964
56.320 5.243228
56.325 4.836923
56.330 5.011587
56.335 5.049563
56.340 5.45
56.345 5.601639
56.350 5.65135
56.355 5.742651
56.360 6.509188
56.365 6.783459
56.370 7.009761
56.375 6.885048
56.380 6.655851
56.385 6.453694
56.390 6.306291
56.395 5.77246
56.400 5.797695
56.405 5.812634
56.410 6.007
56.415 5.911135
56.420 5.943625
56.425 6.417972
56.430 6.42735
56.435 6.167974
56.440 6.040993
56.445 6.292154
56.450 6.78854
56.455 6.882963
56.460 6.255497
56.465 6.096192
56.470 6.319024
56.475 6.233415
56.480 5.982055
56.485 5.748922
56.490 6.173908
56.495 6.684184
56.500 6.691781
56.505 6.43766
56.510 6.65861
56.515 6.573461
56.520 6.563585
56.525 6.081429
56.530 5.583087
56.535 5.437002
56.540 5.598087
56.545 5.481091
56.550 5.72439
56.555 5.453938
56.560 5.449087
56.565 5.882275
56.570 6.060329
56.575 5.857794
56.580 5.776782
56.585 5.588301
56.590 5.660786
56.595 5.551161
56.600 5.362225
56.605 5.31602
56.610 5.244531
56.615 4.843428
56.620 4.86373
56.625 4.976933
56.630 4.99711
56.635 4.982083
56.640 4.883453
56.645 5.129578
56.650 5.469398
56.655 5.369721
56.660 5.067628
56.665 4.905711
56.670 4.817196
56.675 4.882426
56.680 4.783336
56.685 4.967752
56.690 5.353726
56.695 5.826827
56.700 6.185735
56.705 6.210854
56.710 6.603965
56.715 6.649544
56.720 6.35364
56.725 6.068091
56.730 6.377687
56.735 6.71927
56.740 6.477544
56.745 6.441627
56.750 6.378895
56.755 6.357552
56.760 6.258398
56.765 5.887679
56.770 5.443272
56.775 5.768337
56.780 5.583091
56.785 5.58213
56.790 5.842066
56.795 6.101788
56.800 6.157827
56.805 6.168842
56.810 6.178352
56.815 6.059165
56.820 5.935327
56.825 5.649508
56.830 5.474566
56.835 5.251749
56.840 5.131068
56.845 4.78131
56.850 4.827978
56.855 4.937495
56.860 4.916436
56.865 4.893757
56.870 4.890033
56.875 5.078528
56.880 5.17552
56.885 4.964564
56.890 5.12927
56.895 5.021519
56.900 5.065189
56.905 5.360902
56.910 5.376314
56.915 5.533947
56.920 5.797915
56.925 5.880839
56.930 6.142504
56.935 6.168791
56.940 5.881667
56.945 5.917713
56.950 6.06557
56.955 6.16124
56.960 5.881209
56.965 5.997259
56.970 6.542783
56.975 6.655672
56.980 6.38372
56.985 6.381747
56.990 6.362936
56.995 6.584826
57.000 6.099648
57.005 5.824145
57.010 5.568943
57.015 5.691607
57.020 5.457467
57.025 5.16691
57.030 5.206498
57.035 5.284971
57.040 5.138392
57.045 5.101955
57.050 5.079064
57.055 5.273035
57.060 5.356894
57.065 5.595125
57.070 5.73952
57.075 6.132802
57.080 6.26211
57.085 5.981692
57.090 5.866669
57.095 5.617902
57.100 5.345423
57.105 5.274282
57.110 4.940263
57.115 4.93233
57.120 5.299006
57.125 5.59851
57.130 6.009463
57.135 6.078656
57.140 6.027752
57.145 6.172026
57.150 6.183267
57.155 5.97789
57.160 5.939633
57.165 5.87987
57.170 6.155373
57.175 6.189903
57.180 6.144635
57.185 6.257026
57.190 6.452409
57.195 6.242561
57.200 6.068089
57.205 5.759192
57.210 5.956403
57.215 6.219572
57.220 6.208008
57.225 6.437768
57.230 6.681319
57.235 6.625523
57.240 6.681086
57.245 6.217323
57.250 5.980744
57.255 5.835772
57.260 5.459104
57.265 5.33812
57.270 5.416683
57.275 5.433981
57.280 5.488533
57.285 5.270796
57.290 5.134571
57.295 5.211009
57.300 5.343425
57.305 5.343194
57.310 5.561887
57.315 5.70565
57.320 6.250916
57.325 6.548595
57.330 6.488584
57.335 6.301093
57.340 6.111037
57.345 5.807172
57.350 5.641726
57.355 5.265275
57.360 4.96646
57.365 5.17355
57.370 5.418192
57.375 5.589433
57.380 5.595952
57.385 5.684836
57.390 5.918224
57.395 6.255648
57.400 6.051946
57.405 6.13132
57.410 6.113659
57.415 6.0833
57.420 6.352378
57.425 6.19173
57.430 5.786737
57.435 5.482783
57.440 5.2916
57.445 5.305162
57.450 5.424586
57.455 5.583843
57.460 5.589999
57.465 5.534688
57.470 5.629616
57.475 5.463551
57.480 5.665982
57.485 5.727277
57.490 5.795638
57.495 6.226827
57.500 6.614317
57.505 6.806943
57.510 6.996534
57.515 7.139182
57.520 6.611676
57.525 6.425943
57.530 5.958485
57.535 5.546095
57.540 5.201674
57.545 5.077689
57.550 4.835711
57.555 4.926784
57.560 4.886561
57.565 5.095988
57.570 5.433135
57.575 5.762256
57.580 5.869133
57.585 6.081114
57.590 6.06476
57.595 5.967435
57.600 5.790137
57.605 5.374198
57.610 5.045612
57.615 5.224903
57.620 5.450079
57.625 5.614743
57.630 5.790594
57.635 6.12442
57.640 6.387429
57.645 6.398754
57.650 6.439151
57.655 6.561081
57.660 6.700092
57.665 6.72345
57.670 7.085129
57.675 7.312661
57.680 7.261621
57.685 6.965753
57.690 6.385588
57.695 6.358105
57.700 5.915616
57.705 5.456821
57.710 5.521523
57.715 5.660927
57.720 6.035456
57.725 6.236566
57.730 6.205256
57.735 6.656099
57.740 6.825232
57.745 7.158434
57.750 6.9749
57.755 6.726333
57.760 6.764245
57.765 6.839333
57.770 6.669775
57.775 6.60429
57.780 6.068527
57.785 5.903837
57.790 5.797748
57.795 5.77897
57.800 5.527594
57.805 5.728094
57.810 5.798166
57.815 6.079118
57.820 6.509146
57.825 6.611156
57.830 6.592822
57.835 6.426086
57.840 6.090096
57.845 5.995533
57.850 5.87259
57.855 5.642149
57.860 5.520517
57.865 5.772323
57.870 5.775224
57.875 5.732783
57.880 5.643553
57.885 5.46576
57.890 5.565633
57.895 5.74054
57.900 5.964428
57.905 6.647709
57.910 6.891932
57.915 6.85778
57.920 7.188081
57.925 7.422644
57.930 7.19417
57.935 7.062708
57.940 6.740716
57.945 6.899283
57.950 6.829509
57.955 6.527915
57.960 6.101872
57.965 6.24373
57.970 6.367462
57.975 6.503243
57.980 6.430431
57.985 6.539442
57.990 6.764849
57.995 6.843818
58.000 6.769942
58.005 6.841932
58.010 6.568323
58.015 6.513587
58.020 6.610908
58.025 6.686239
58.030 6.507628
58.035 6.380583
58.040 6.159038
58.045 6.287304
58.050 6.418642
58.055 6.409442
58.060 6.408329
58.065 6.788098
58.070 6.573845
58.075 6.456336
58.080 6.258442
58.085 6.042164
58.090 5.725206
58.095 5.351326
58.100 5.516916
58.105 5.781663
58.110 5.627465
58.115 5.936747
58.120 5.994283
58.125 6.332571
58.130 6.633062
58.135 6.675905
58.140 6.847328
58.145 6.908105
58.150 6.549372
58.155 6.53372
58.160 6.173421
58.165 5.809947
58.170 5.190889
58.175 4.933486
58.180 5.17703
58.185 4.864967
58.190 4.983794
58.195 5.005812
58.200 5.076026
58.205 5.4308
58.210 5.41253
58.215 5.468717
58.220 5.802219
58.225 5.834846
58.230 5.900268
58.235 6.168279
58.240 6.057801
58.245 5.631604
58.250 5.610973
58.255 5.506623
58.260 5.723166
58.265 5.826081
58.270 5.668908
58.275 6.057121
58.280 6.323994
58.285 6.345505
58.290 6.547047
58.295 6.326949
58.300 6.069699
58.305 6.426803
58.310 6.310571
58.315 6.440772
58.320 6.467653
58.325 6.247764
58.330 6.302183
58.335 6.756801
58.340 6.639876
58.345 6.141357
58.350 5.935722
58.355 5.508156
58.360 5.512084
58.365 5.490338
58.370 5.115622
58.375 4.937066
58.380 5.253114
58.385 5.514116
58.390 6.030888
58.395 6.157701
58.400 6.188861
58.405 6.329951
58.410 6.341928
58.415 6.344482
58.420 6.193554
58.425 6.173944
58.430 6.571918
58.435 6.7245
58.440 6.892593
58.445 6.739046
58.450 6.488495
58.455 6.506133
58.460 6.732244
58.465 6.525543
58.470 6.259754
58.475 5.751762
58.480 5.780879
58.485 6.033185
58.490 5.747189
58.495 5.633475
58.500 5.45657
58.505 5.70171
58.510 6.178699
58.515 6.110722
58.520 5.85832
58.525 5.908051
58.530 5.762403
58.535 5.813261
58.540 5.715876
58.545 5.386024
58.550 5.36745
58.555 5.467605
58.560 5.383474
58.565 5.236129
58.570 5.638033
58.575 5.668117
58.580 5.754367
58.585 5.709444
58.590 5.473759
58.595 5.430321
58.600 5.628386
58.605 5.512866
58.610 5.64225
58.615 5.587558
58.620 5.675208
58.625 5.700117
58.630 5.887049
58.635 5.84076
58.640 5.723109
58.645 5.568513
58.650 5.908
58.655 6.210621
58.660 6.68516
58.665 6.685869
58.670 6.577393
58.675 6.762072
58.680 6.682582
58.685 6.532296
58.690 6.71515
58.695 7.136342
58.700 6.893713
58.705 6.887583
58.710 6.805581
58.715 6.877361
58.720 6.934954
58.725 6.790641
58.730 6.398153
58.735 6.598541
58.740 6.933764
58.745 6.990914
58.750 7.218952
58.755 6.995931
58.760 7.041768
58.765 6.832606
58.770 7.018276
