!@!!GADDS PLOTSO FILE: Chi integration type
!@!!Title/SampleName: map-184
!@!!Comment: ?
!@!!User: Bruker Instrument Administrator
!@!!Site: University of Illinois Chicago
!@!!Frame: map-184_01_000.gfrm
!@!!Wavelengths    1.54184   1.54056   1.54439
!@!!Frame angles: 2Theta: 63.000 Omega: 50.000 Phi: 0.000 Chi: 90.000
!@!!Integration range: 2Theta: 53.000 to 73.000  Gamma: -105.000 to -75.000
!@!!Integration method: bin normalized
!@!N
!@!SS
!@!M
!@!L 0.0 0.0 0.0 0.0
!@!XDegrees
!@!YCounts
53.000 10.281482
53.005 10.414181
53.010 9.890835
53.015 9.045051
53.020 8.807249
53.025 8.297241
53.030 8.499296
53.035 8.498223
53.040 8.584958
53.045 8.599832
53.050 9.4782
53.055 10.290774
53.060 10.394193
53.065 10.251264
53.070 9.902781
53.075 9.752082
53.080 10.391162
53.085 10.410463
53.090 10.092482
53.095 9.776916
53.100 9.717087
53.105 10.457
53.110 10.532429
53.115 10.254651
53.120 9.704439
53.125 9.475212
53.130 9.780572
53.135 9.736567
53.140 9.163358
53.145 8.920774
53.150 8.975312
53.155 9.802048
53.160 10.119333
53.165 9.850126
53.170 9.626518
53.175 9.60548
53.180 9.819107
53.185 9.768396
53.190 9.349793
53.195 9.44371
53.200 9.431306
53.205 9.550324
53.210 10.169407
53.215 10.153402
53.220 10.175488
53.225 10.229045
53.230 10.387159
53.235 10.772064
53.240 10.507384
53.245 9.839801
53.250 9.600437
53.255 9.802366
53.260 9.860948
53.265 9.224899
53.270 9.260951
53.275 9.606998
53.280 10.017267
53.285 9.529976
53.290 9.175745
53.295 9.239012
53.300 9.402993
53.305 9.495021
53.310 9.263247
53.315 8.870464
53.320 9.029581
53.325 9.157811
53.330 9.530359
53.335 9.700727
53.340 9.674532
53.345 10.280574
53.350 11.088305
53.355 11.450101
53.360 11.495838
53.365 11.687452
53.370 11.829035
53.375 11.644199
53.380 11.003735
53.385 10.801261
53.390 10.500912
53.395 10.147473
53.400 9.458761
53.405 9.033745
53.410 8.982841
53.415 9.155583
53.420 9.185327
53.425 8.951192
53.430 9.162663
53.435 9.799227
53.440 10.473078
53.445 10.636513
53.450 10.547812
53.455 10.624609
53.460 11.196838
53.465 11.394441
53.470 11.089842
53.475 10.52066
53.480 10.410053
53.485 9.972408
53.490 9.654762
53.495 9.137168
53.500 8.378359
53.505 8.462862
53.510 8.99712
53.515 9.065011
53.520 8.769275
53.525 8.810657
53.530 9.509356
53.535 9.919015
53.540 9.858625
53.545 9.706344
53.550 9.839986
53.555 10.264896
53.560 9.810937
53.565 9.293086
53.570 8.838384
53.575 8.572531
53.580 8.284583
53.585 8.236744
53.590 8.40768
53.595 9.225942
53.600 9.931169
53.605 10.142119
53.610 10.432455
53.615 10.437981
53.620 10.939084
53.625 10.964661
53.630 10.662252
53.635 10.621798
53.640 10.543309
53.645 10.443059
53.650 10.147254
53.655 10.205085
53.660 10.027028
53.665 9.598654
53.670 9.106484
53.675 9.077496
53.680 9.026463
53.685 9.065452
53.690 8.917556
53.695 9.299018
53.700 9.830838
53.705 10.287129
53.710 10.964824
53.715 11.500813
53.720 11.784343
53.725 11.862009
53.730 11.984274
53.735 11.847453
53.740 11.320292
53.745 11.192673
53.750 10.950304
53.755 10.493991
53.760 10.916105
53.765 11.515467
53.770 11.804227
53.775 11.814307
53.780 11.568372
53.785 11.600625
53.790 11.625626
53.795 10.520769
53.800 10.617949
53.805 10.235992
53.810 10.006359
53.815 9.649249
53.820 9.68072
53.825 9.919509
53.830 10.03227
53.835 9.764178
53.840 10.573314
53.845 11.35727
53.850 11.470241
53.855 11.865237
53.860 12.118732
53.865 11.790419
53.870 11.454915
53.875 11.366046
53.880 11.219274
53.885 11.039387
53.890 10.863183
53.895 10.617155
53.900 10.641683
53.905 10.88405
53.910 10.59903
53.915 10.242479
53.920 10.238333
53.925 9.850838
53.930 10.017576
53.935 10.014739
53.940 9.889452
53.945 10.038334
53.950 10.289957
53.955 10.63033
53.960 11.321835
53.965 11.507236
53.970 11.855638
53.975 11.684054
53.980 11.559872
53.985 11.816025
53.990 11.378307
53.995 11.079319
54.000 10.521247
54.005 10.35044
54.010 10.656782
54.015 10.376156
54.020 10.252198
54.025 10.025267
54.030 10.0068
54.035 10.174257
54.040 10.203593
54.045 10.363979
54.050 10.345004
54.055 10.407857
54.060 10.514659
54.065 10.441071
54.070 10.113897
54.075 9.640041
54.080 9.532174
54.085 9.554268
54.090 9.536947
54.095 9.664001
54.100 9.932394
54.105 10.434533
54.110 10.609449
54.115 10.708967
54.120 10.705035
54.125 10.601855
54.130 10.514463
54.135 10.364893
54.140 10.534823
54.145 10.791735
54.150 10.85105
54.155 11.174325
54.160 11.569999
54.165 11.781786
54.170 11.770693
54.175 11.426926
54.180 11.141889
54.185 10.748207
54.190 10.945922
54.195 10.748668
54.200 10.446925
54.205 10.44838
54.210 10.257966
54.215 10.675603
54.220 10.628621
54.225 10.08668
54.230 10.290789
54.235 10.786263
54.240 10.711761
54.245 10.700964
54.250 10.729857
54.255 10.794
54.260 10.930923
54.265 10.7045
54.270 10.664759
54.275 11.228977
54.280 11.122502
54.285 10.84775
54.290 10.954381
54.295 10.828883
54.300 10.216958
54.305 10.112145
54.310 9.932828
54.315 10.315072
54.320 10.460772
54.325 10.22594
54.330 10.326395
54.335 10.553108
54.340 10.053395
54.345 10.052408
54.350 10.091724
54.355 10.086537
54.360 10.362081
54.365 10.535783
54.370 11.127637
54.375 11.161819
54.380 10.95731
54.385 10.744834
54.390 10.782752
54.395 10.500602
54.400 10.61834
54.405 10.439257
54.410 10.909829
54.415 10.86871
54.420 10.662861
54.425 10.774816
54.430 10.640437
54.435 10.713019
54.440 10.75702
54.445 10.835689
54.450 11.487953
54.455 11.83099
54.460 11.610194
54.465 11.492611
54.470 11.368003
54.475 11.378788
54.480 10.951091
54.485 10.800179
54.490 10.584451
54.495 10.666942
54.500 10.394081
54.505 10.278529
54.510 10.39853
54.515 10.380439
54.520 10.120805
54.525 10.18499
54.530 10.755773
54.535 11.102586
54.540 10.659919
54.545 10.3427
54.550 10.920212
54.555 10.98401
54.560 11.053418
54.565 11.022456
54.570 10.964622
54.575 11.008082
54.580 10.757183
54.585 10.667194
54.590 10.555638
54.595 10.335816
54.600 10.198424
54.605 10.472869
54.610 10.614572
54.615 10.736093
54.620 10.795727
54.625 11.246985
54.630 11.458457
54.635 11.362942
54.640 11.241232
54.645 11.278481
54.650 11.246608
54.655 10.929676
54.660 10.525405
54.665 10.347344
54.670 10.372959
54.675 10.622596
54.680 10.938428
54.685 10.577005
54.690 10.198936
54.695 9.970871
54.700 9.941917
54.705 9.933559
54.710 10.122008
54.715 10.080392
54.720 10.712178
54.725 10.941658
54.730 10.765938
54.735 10.763888
54.740 10.800641
54.745 10.717979
54.750 11.143658
54.755 11.080685
54.760 11.231661
54.765 11.821889
54.770 11.767575
54.775 11.7946
54.780 11.940513
54.785 11.821465
54.790 11.906808
54.795 12.052529
54.800 12.09584
54.805 12.00909
54.810 11.736997
54.815 11.415757
54.820 11.501626
54.825 11.585709
54.830 11.184706
54.835 11.111498
54.840 11.709024
54.845 11.824489
54.850 11.910699
54.855 11.535503
54.860 11.05705
54.865 11.242172
54.870 11.041083
54.875 10.829423
54.880 11.042577
54.885 10.798607
54.890 10.847764
54.895 10.919225
54.900 11.0616
54.905 11.268778
54.910 11.090645
54.915 10.652617
54.920 10.7257
54.925 10.9159
54.930 11.03669
54.935 11.164512
54.940 10.718426
54.945 11.23882
54.950 11.768993
54.955 11.911582
54.960 12.075747
54.965 12.290167
54.970 12.351139
54.975 12.531171
54.980 12.815001
54.985 12.835086
54.990 12.721585
54.995 12.530874
55.000 12.406901
55.005 12.440267
55.010 12.268864
55.015 11.906461
55.020 12.17892
55.025 12.815143
55.030 12.839779
55.035 13.404049
55.040 13.276738
55.045 13.133085
55.050 12.626528
55.055 12.454175
55.060 12.342949
55.065 12.313605
55.070 11.87097
55.075 12.179353
55.080 13.093804
55.085 13.398543
55.090 12.993797
55.095 13.36131
55.100 13.471027
55.105 13.478059
55.110 12.955999
55.115 12.351964
55.120 12.321023
55.125 12.250168
55.130 12.074437
55.135 11.963387
55.140 11.997185
55.145 12.258806
55.150 12.257351
55.155 11.924666
55.160 11.482967
55.165 10.773707
55.170 10.456782
55.175 10.076004
55.180 9.588253
55.185 9.389918
55.190 10.001243
55.195 10.470516
55.200 10.989625
55.205 11.530391
55.210 11.755388
55.215 11.888122
55.220 11.514056
55.225 10.93388
55.230 10.889103
55.235 10.689377
55.240 10.435701
55.245 10.58497
55.250 10.653985
55.255 11.307125
55.260 11.82924
55.265 11.985834
55.270 12.232684
55.275 12.160431
55.280 11.735377
55.285 11.342972
55.290 10.916135
55.295 10.701024
55.300 10.295299
55.305 9.81531
55.310 9.879914
55.315 10.577855
55.320 10.926517
55.325 10.816637
55.330 11.192053
55.335 11.72597
55.340 12.107253
55.345 12.211569
55.350 12.735184
55.355 13.425567
55.360 13.781795
55.365 13.273525
55.370 12.857196
55.375 13.131629
55.380 13.036167
55.385 12.50531
55.390 12.072863
55.395 12.113706
55.400 12.534821
55.405 12.757958
55.410 12.680031
55.415 12.44262
55.420 12.04638
55.425 11.753656
55.430 11.645206
55.435 11.25351
55.440 10.850897
55.445 10.223785
55.450 10.114052
55.455 10.246021
55.460 10.217812
55.465 10.375007
55.470 10.49398
55.475 10.670351
55.480 11.621564
55.485 12.291546
55.490 12.402802
55.495 12.929029
55.500 12.959641
55.505 13.170771
55.510 13.071275
55.515 12.595064
55.520 12.117361
55.525 11.926676
55.530 11.755255
55.535 11.590834
55.540 11.768945
55.545 11.738733
55.550 11.611864
55.555 11.953237
55.560 12.02869
55.565 12.14869
55.570 12.093721
55.575 11.569803
55.580 11.354301
55.585 11.145555
55.590 10.891103
55.595 10.724386
55.600 10.496903
55.605 10.632221
55.610 10.843843
55.615 10.979221
55.620 11.024827
55.625 11.025987
55.630 11.357369
55.635 11.561868
55.640 11.115798
55.645 10.832764
55.650 10.976487
55.655 11.501684
55.660 11.626586
55.665 11.158119
55.670 10.919199
55.675 11.155277
55.680 10.894572
55.685 10.540175
55.690 10.243439
55.695 10.14133
55.700 9.985721
55.705 10.140165
55.710 10.234345
55.715 10.652264
55.720 10.847838
55.725 11.264661
55.730 11.537467
55.735 11.746391
55.740 11.591515
55.745 11.668447
55.750 11.84147
55.755 11.479913
55.760 11.219401
55.765 10.974669
55.770 11.126855
55.775 11.585103
55.780 11.614458
55.785 11.714697
55.790 11.879069
55.795 12.002117
55.800 12.075066
55.805 12.005307
55.810 12.363773
55.815 12.498013
55.820 12.54397
55.825 12.406894
55.830 12.295506
55.835 12.926735
55.840 13.231188
55.845 13.061978
55.850 12.781677
55.855 12.391222
55.860 12.427843
55.865 12.063829
55.870 11.402718
55.875 10.932467
55.880 10.712631
55.885 11.045787
55.890 11.498948
55.895 11.809164
55.900 11.622082
55.905 11.750257
55.910 11.921908
55.915 11.741412
55.920 11.726768
55.925 11.421384
55.930 11.641274
55.935 12.047613
55.940 12.381206
55.945 13.142796
55.950 13.346088
55.955 13.538995
55.960 13.390271
55.965 12.861567
55.970 12.593469
55.975 11.636861
55.980 11.561894
55.985 11.570464
55.990 11.665577
55.995 11.788427
56.000 12.094427
56.005 12.234035
56.010 12.470084
56.015 11.766057
56.020 11.954893
56.025 12.318649
56.030 12.721898
56.035 13.082603
56.040 12.860948
56.045 12.961233
56.050 12.787934
56.055 12.292587
56.060 11.893656
56.065 11.36519
56.070 11.269905
56.075 11.629554
56.080 12.354254
56.085 12.495749
56.090 12.657151
56.095 12.610722
56.100 12.727786
56.105 12.70972
56.110 12.468334
56.115 11.99904
56.120 11.853992
56.125 11.582898
56.130 11.906676
56.135 11.984645
56.140 11.880576
56.145 12.182308
56.150 12.456541
56.155 12.999247
56.160 13.180565
56.165 12.810034
56.170 12.549723
56.175 12.318382
56.180 11.988625
56.185 11.822942
56.190 11.759343
56.195 11.847234
56.200 11.756003
56.205 11.733348
56.210 11.790004
56.215 12.412249
56.220 12.850211
56.225 12.537649
56.230 12.313294
56.235 12.594222
56.240 12.621005
56.245 12.344881
56.250 11.445387
56.255 11.184219
56.260 11.521563
56.265 11.398713
56.270 10.852676
56.275 11.240765
56.280 11.546574
56.285 11.353172
56.290 11.240154
56.295 11.443523
56.300 11.506028
56.305 12.366701
56.310 12.608146
56.315 12.957686
56.320 13.061224
56.325 12.807213
56.330 12.499513
56.335 12.99822
56.340 12.334292
56.345 12.014093
56.350 11.69836
56.355 11.838442
56.360 12.10459
56.365 11.906975
56.370 11.698842
56.375 11.856112
56.380 11.775997
56.385 11.894961
56.390 11.928733
56.395 12.333392
56.400 12.662276
56.405 12.827832
56.410 12.498748
56.415 12.457334
56.420 12.533922
56.425 12.223015
56.430 12.018274
56.435 11.966345
56.440 11.731616
56.445 12.413463
56.450 12.821738
56.455 13.093098
56.460 13.970656
56.465 14.318552
56.470 14.238491
56.475 14.181464
56.480 13.403425
56.485 13.021986
56.490 12.530907
56.495 12.074469
56.500 12.1784
56.505 12.613145
56.510 12.918428
56.515 13.469161
56.520 13.864279
56.525 14.337214
56.530 14.44107
56.535 14.00084
56.540 13.685258
56.545 13.6565
56.550 13.328512
56.555 13.102319
56.560 12.9416
56.565 12.716777
56.570 13.142819
56.575 13.421738
56.580 13.577423
56.585 13.387816
56.590 13.447885
56.595 13.898464
56.600 13.963808
56.605 14.093877
56.610 13.970546
56.615 14.131826
56.620 14.411981
56.625 14.45769
56.630 14.260076
56.635 14.116317
56.640 14.00123
56.645 13.882372
56.650 13.421513
56.655 13.324835
56.660 13.120819
56.665 13.051568
56.670 12.82797
56.675 12.936725
56.680 13.143603
56.685 13.045644
56.690 12.873223
56.695 13.035693
56.700 13.338187
56.705 13.607686
56.710 12.988486
56.715 12.756515
56.720 12.979952
56.725 13.214882
56.730 13.113925
56.735 13.040962
56.740 13.032329
56.745 13.190948
56.750 13.688468
56.755 13.722051
56.760 13.590328
56.765 13.457771
56.770 13.560673
56.775 13.506042
56.780 13.388297
56.785 13.078637
56.790 13.421646
56.795 13.707447
56.800 13.770525
56.805 13.48665
56.810 13.842581
56.815 13.921737
56.820 13.673274
56.825 12.951729
56.830 12.628651
56.835 12.944084
56.840 12.982408
56.845 12.892551
56.850 12.877138
56.855 12.912864
56.860 13.052143
56.865 13.189198
56.870 12.806841
56.875 12.58722
56.880 12.762745
56.885 13.166914
56.890 13.242709
56.895 13.095824
56.900 12.826875
56.905 12.382778
56.910 12.106005
56.915 11.685799
56.920 11.124213
56.925 11.009235
56.930 11.143394
56.935 11.208506
56.940 11.446282
56.945 11.574052
56.950 11.793706
56.955 12.004648
56.960 11.819955
56.965 11.847356
56.970 11.699875
56.975 11.927918
56.980 12.278057
56.985 12.280414
56.990 12.461085
56.995 13.070019
57.000 13.078204
57.005 13.285702
57.010 13.236306
57.015 12.559779
57.020 12.437669
57.025 12.564423
57.030 12.087126
57.035 12.44122
57.040 12.882367
57.045 12.999202
57.050 13.320989
57.055 13.422562
57.060 13.317634
57.065 13.917171
57.070 13.479257
57.075 12.9938
57.080 12.499385
57.085 12.637835
57.090 12.724815
57.095 12.576781
57.100 12.072274
57.105 11.966453
57.110 12.348823
57.115 12.473491
57.120 11.966312
57.125 11.832987
57.130 12.026135
57.135 12.293372
57.140 12.391266
57.145 12.324176
57.150 12.095077
57.155 12.183352
57.160 12.396904
57.165 12.379021
57.170 11.879279
57.175 11.764669
57.180 11.767818
57.185 12.351912
57.190 12.632598
57.195 12.384425
57.200 12.215406
57.205 12.744398
57.210 12.892219
57.215 13.287909
57.220 13.828452
57.225 14.201671
57.230 14.59877
57.235 14.888617
57.240 14.987406
57.245 14.612107
57.250 14.299814
57.255 13.922312
57.260 14.289106
57.265 14.232759
57.270 14.33602
57.275 14.44621
57.280 14.501508
57.285 14.926684
57.290 14.497378
57.295 13.741541
57.300 14.018991
57.305 13.9866
57.310 13.976992
57.315 14.90202
57.320 14.58215
57.325 14.918332
57.330 14.584118
57.335 14.030496
57.340 13.756523
57.345 13.473122
57.350 12.852378
57.355 12.492049
57.360 12.365634
57.365 12.778786
57.370 12.687359
57.375 12.341249
57.380 12.627204
57.385 13.331268
57.390 13.427678
57.395 13.914032
57.400 13.965147
57.405 14.215452
57.410 14.749307
57.415 14.127601
57.420 13.570587
57.425 13.26782
57.430 13.079831
57.435 13.215333
57.440 12.868943
57.445 12.47366
57.450 12.051504
57.455 11.552976
57.460 11.936798
57.465 11.645101
57.470 11.614478
57.475 11.715302
57.480 12.073377
57.485 12.102739
57.490 12.554323
57.495 12.127913
57.500 12.017226
57.505 12.001919
57.510 12.135688
57.515 12.366974
57.520 12.653804
57.525 12.302566
57.530 12.474944
57.535 12.559654
57.540 12.436937
57.545 12.335892
57.550 12.182356
57.555 12.339325
57.560 12.746664
57.565 12.905041
57.570 13.322167
57.575 13.342747
57.580 13.366744
57.585 13.322524
57.590 13.730319
57.595 13.242859
57.600 13.131912
57.605 12.556793
57.610 12.77832
57.615 12.960095
57.620 13.18097
57.625 13.146163
57.630 13.891934
57.635 14.01547
57.640 14.135537
57.645 13.957093
57.650 13.73537
57.655 13.657179
57.660 13.501035
57.665 13.246743
57.670 13.237361
57.675 12.908767
57.680 12.600574
57.685 12.400676
57.690 12.486196
57.695 12.546316
57.700 12.307966
57.705 12.653469
57.710 13.008246
57.715 13.525323
57.720 13.82752
57.725 13.593904
57.730 13.262106
57.735 13.490857
57.740 13.378441
57.745 13.621695
57.750 13.760403
57.755 13.340605
57.760 13.518915
57.765 13.594413
57.770 13.2529
57.775 13.291568
57.780 13.486571
57.785 13.688153
57.790 14.214124
57.795 13.789949
57.800 13.86251
57.805 13.906382
57.810 13.891416
57.815 13.676814
57.820 13.312041
57.825 13.179543
57.830 13.276378
57.835 13.267948
57.840 13.663547
57.845 13.828794
57.850 13.46862
57.855 13.174229
57.860 13.067252
57.865 13.247869
57.870 13.089338
57.875 12.452995
57.880 12.234965
57.885 12.575081
57.890 12.987002
57.895 12.923342
57.900 13.172021
57.905 13.402703
57.910 13.487605
57.915 13.484712
57.920 13.225095
57.925 13.144291
57.930 13.170804
57.935 13.054561
57.940 13.153731
57.945 13.145597
57.950 12.511335
57.955 12.335541
57.960 12.265145
57.965 12.223474
57.970 12.529303
57.975 12.60295
57.980 12.663136
57.985 13.272667
57.990 13.595383
57.995 13.814246
58.000 13.64943
58.005 13.262111
58.010 13.245993
58.015 12.875956
58.020 12.589202
58.025 12.372561
58.030 12.503455
58.035 12.577397
58.040 12.925598
58.045 13.077671
58.050 13.483791
58.055 13.786764
58.060 13.516623
58.065 13.320291
58.070 13.565234
58.075 13.706102
58.080 13.87616
58.085 14.19582
58.090 14.110975
58.095 14.311723
58.100 14.336676
58.105 14.181067
58.110 14.112894
58.115 13.865447
58.120 13.600665
58.125 13.380005
58.130 13.613497
58.135 13.393436
58.140 13.540743
58.145 13.292081
58.150 13.710147
58.155 13.851904
58.160 14.209534
58.165 13.881752
58.170 14.192361
58.175 14.018477
58.180 13.656458
58.185 13.185616
58.190 13.181818
58.195 13.462413
58.200 13.587828
58.205 13.104122
58.210 13.118233
58.215 13.700828
58.220 14.060953
58.225 13.670915
58.230 13.213813
58.235 13.510215
58.240 13.649917
58.245 13.526436
58.250 13.214744
58.255 13.26474
58.260 13.194714
58.265 13.538713
58.270 13.288461
58.275 13.376649
58.280 13.358367
58.285 13.172624
58.290 12.824214
58.295 13.022017
58.300 12.997201
58.305 12.95594
58.310 13.416872
58.315 13.299084
58.320 13.444889
58.325 13.552643
58.330 13.067178
58.335 12.978702
58.340 12.680511
58.345 12.523675
58.350 13.98081
58.355 14.476423
58.360 14.977641
58.365 15.744236
58.370 16.09285
58.375 16.320276
58.380 16.196726
58.385 14.580265
58.390 14.382494
58.395 14.466609
58.400 14.265499
58.405 13.546248
58.410 13.621924
58.415 13.707639
58.420 14.569788
58.425 14.679713
58.430 14.683728
58.435 14.629074
58.440 15.404505
58.445 15.511563
58.450 15.041615
58.455 14.600457
58.460 14.586368
58.465 14.613507
58.470 14.802622
