!@!!GADDS PLOTSO FILE: Chi integration type
!@!!Title/SampleName: map-44
!@!!Comment: ?
!@!!User: Bruker Instrument Administrator
!@!!Site: University of Illinois Chicago
!@!!Frame: map-44_01_000.gfrm
!@!!Wavelengths    1.54184   1.54056   1.54439
!@!!Frame angles: 2Theta: 63.000 Omega: 50.000 Phi: 0.000 Chi: 90.000
!@!!Integration range: 2Theta: 53.000 to 73.000  Gamma: -105.000 to -75.000
!@!!Integration method: bin normalized
!@!N
!@!SS
!@!M
!@!L 0.0 0.0 0.0 0.0
!@!XDegrees
!@!YCounts
53.000 8.474277
53.005 8.496561
53.010 8.677657
53.015 8.593094
53.020 8.537561
53.025 8.645768
53.030 8.652998
53.035 8.582597
53.040 8.936786
53.045 8.906608
53.050 8.739154
53.055 8.96761
53.060 9.066367
53.065 9.487182
53.070 9.507071
53.075 9.083432
53.080 8.974177
53.085 8.874629
53.090 9.070282
53.095 9.296041
53.100 9.229243
53.105 8.728626
53.110 8.3846
53.115 8.637651
53.120 8.253525
53.125 7.64198
53.130 7.41631
53.135 7.088677
53.140 7.070007
53.145 7.176582
53.150 6.97981
53.155 7.138161
53.160 7.150991
53.165 6.925344
53.170 7.128109
53.175 7.531836
53.180 7.527845
53.185 7.37128
53.190 7.493632
53.195 7.85867
53.200 8.147944
53.205 8.115674
53.210 7.8223
53.215 8.385777
53.220 8.613865
53.225 8.793922
53.230 8.823407
53.235 8.970813
53.240 9.087461
53.245 9.330799
53.250 9.152104
53.255 9.365063
53.260 9.542936
53.265 9.677411
53.270 9.88664
53.275 9.969026
53.280 9.888538
53.285 9.880401
53.290 9.302124
53.295 8.891364
53.300 8.566755
53.305 8.173646
53.310 8.346031
53.315 8.199296
53.320 8.506192
53.325 8.993057
53.330 8.913406
53.335 8.986546
53.340 9.463735
53.345 9.060369
53.350 8.832785
53.355 8.603323
53.360 8.440115
53.365 8.539795
53.370 8.482125
53.375 8.307007
53.380 8.594604
53.385 8.913043
53.390 8.580729
53.395 8.699492
53.400 8.29439
53.405 8.350179
53.410 8.284299
53.415 8.040474
53.420 7.884164
53.425 8.297204
53.430 8.537268
53.435 9.096564
53.440 9.266449
53.445 8.971378
53.450 9.233943
53.455 9.31395
53.460 8.803363
53.465 8.91752
53.470 7.931684
53.475 7.719715
53.480 8.247089
53.485 7.5708
53.490 7.10949
53.495 7.128891
53.500 7.212608
53.505 7.565127
53.510 7.514098
53.515 7.411836
53.520 8.118525
53.525 8.750631
53.530 9.090113
53.535 9.453162
53.540 9.707044
53.545 9.824311
53.550 9.879804
53.555 9.720492
53.560 9.515161
53.565 9.439438
53.570 9.107969
53.575 9.035107
53.580 8.999138
53.585 8.885055
53.590 9.064615
53.595 8.700206
53.600 8.459009
53.605 8.96061
53.610 8.810702
53.615 9.019353
53.620 9.549179
53.625 10.05959
53.630 10.241356
53.635 9.872704
53.640 9.166719
53.645 9.122195
53.650 8.984728
53.655 7.904614
53.660 7.737335
53.665 7.836344
53.670 8.206264
53.675 8.832036
53.680 9.045042
53.685 9.452794
53.690 10.023857
53.695 9.845147
53.700 10.114939
53.705 10.102403
53.710 9.950865
53.715 9.703659
53.720 9.871954
53.725 10.045986
53.730 10.019639
53.735 10.011508
53.740 10.224753
53.745 10.685274
53.750 10.84845
53.755 10.179832
53.760 10.098194
53.765 9.822561
53.770 9.842365
53.775 9.384904
53.780 8.707921
53.785 8.350684
53.790 8.564333
53.795 8.388695
53.800 8.658913
53.805 8.262933
53.810 8.500352
53.815 8.653993
53.820 8.799508
53.825 9.021079
53.830 9.321506
53.835 9.352941
53.840 9.684352
53.845 9.941051
53.850 10.20671
53.855 10.363307
53.860 10.319802
53.865 10.368078
53.870 10.610986
53.875 10.605816
53.880 10.405064
53.885 10.244223
53.890 9.887494
53.895 9.867435
53.900 9.476523
53.905 9.012342
53.910 9.155565
53.915 9.385496
53.920 9.421634
53.925 9.512858
53.930 9.508761
53.935 9.283019
53.940 9.428529
53.945 8.9279
53.950 8.491829
53.955 8.505606
53.960 8.279471
53.965 8.357984
53.970 8.581404
53.975 8.401288
53.980 8.516143
53.985 8.668766
53.990 8.78721
53.995 8.496207
54.000 8.89443
54.005 9.20862
54.010 9.460519
54.015 9.482836
54.020 9.757912
54.025 10.379002
54.030 10.749545
54.035 10.48109
54.040 10.081397
54.045 9.964502
54.050 10.171741
54.055 9.557366
54.060 9.047379
54.065 9.044951
54.070 8.857728
54.075 9.265033
54.080 9.366765
54.085 9.406327
54.090 9.814468
54.095 10.21234
54.100 10.375194
54.105 10.668665
54.110 10.423435
54.115 10.412301
54.120 10.250464
54.125 10.025946
54.130 10.083222
54.135 9.818804
54.140 9.643458
54.145 10.1171
54.150 9.8918
54.155 10.026624
54.160 9.909446
54.165 9.638151
54.170 9.756471
54.175 9.798876
54.180 9.799352
54.185 9.888807
54.190 9.930155
54.195 10.189086
54.200 10.352094
54.205 10.395816
54.210 10.319231
54.215 10.419679
54.220 10.332867
54.225 10.075232
54.230 10.293434
54.235 10.569339
54.240 10.344456
54.245 10.273952
54.250 9.995516
54.255 10.32586
54.260 10.446534
54.265 9.881847
54.270 9.899569
54.275 9.989157
54.280 10.725144
54.285 10.843031
54.290 10.671455
54.295 10.773751
54.300 10.902593
54.305 10.506844
54.310 10.036416
54.315 9.627265
54.320 9.850466
54.325 9.906625
54.330 9.818849
54.335 9.809715
54.340 10.06905
54.345 10.499196
54.350 10.246258
54.355 9.955866
54.360 10.134614
54.365 10.524096
54.370 10.749966
54.375 10.555052
54.380 9.825974
54.385 9.788324
54.390 9.795938
54.395 9.670859
54.400 9.370204
54.405 9.205308
54.410 9.225413
54.415 9.774763
54.420 9.683225
54.425 9.161745
54.430 8.973892
54.435 9.077273
54.440 9.05743
54.445 8.829523
54.450 8.697752
54.455 9.019697
54.460 9.326381
54.465 8.97288
54.470 9.117846
54.475 9.230823
54.480 9.524612
54.485 10.026424
54.490 9.908466
54.495 10.047726
54.500 10.422548
54.505 10.727454
54.510 10.952451
54.515 10.435241
54.520 10.368277
54.525 10.453974
54.530 10.190877
54.535 10.249931
54.540 10.309925
54.545 10.651192
54.550 10.975711
54.555 10.979307
54.560 11.727391
54.565 12.000484
54.570 11.460746
54.575 11.278972
54.580 11.054078
54.585 11.221086
54.590 11.5216
54.595 10.895
54.600 10.565919
54.605 10.956087
54.610 11.059945
54.615 10.951813
54.620 10.73572
54.625 10.302999
54.630 10.612168
54.635 10.85335
54.640 10.167695
54.645 9.646727
54.650 9.627612
54.655 9.518413
54.660 9.209328
54.665 8.7489
54.670 8.963137
54.675 9.431586
54.680 9.633652
54.685 9.590318
54.690 9.592863
54.695 9.94893
54.700 10.210989
54.705 10.193883
54.710 10.178372
54.715 10.565907
54.720 10.984272
54.725 10.92411
54.730 10.752506
54.735 10.204338
54.740 10.004335
54.745 9.72398
54.750 9.536124
54.755 9.162141
54.760 9.416533
54.765 9.775984
54.770 10.407398
54.775 10.693307
54.780 10.435167
54.785 10.229089
54.790 10.139117
54.795 9.695142
54.800 9.797054
54.805 9.615687
54.810 9.638991
54.815 9.768946
54.820 9.93113
54.825 10.290655
54.830 10.484399
54.835 10.150534
54.840 10.379897
54.845 10.792959
54.850 11.534572
54.855 11.741634
54.860 11.970092
54.865 12.015951
54.870 12.170223
54.875 11.999201
54.880 11.383924
54.885 10.797347
54.890 10.748108
54.895 10.539449
54.900 10.338751
54.905 10.401402
54.910 10.264598
54.915 10.628801
54.920 10.309396
54.925 10.095286
54.930 10.12018
54.935 10.074098
54.940 10.093996
54.945 10.102331
54.950 10.23786
54.955 10.451233
54.960 10.237597
54.965 10.617253
54.970 10.850574
54.975 11.114801
54.980 10.602186
54.985 10.628701
54.990 10.589618
54.995 10.393178
55.000 10.185126
55.005 9.79563
55.010 9.681966
55.015 10.543086
55.020 10.732218
55.025 10.851205
55.030 11.128233
55.035 11.198848
55.040 11.459707
55.045 11.40328
55.050 11.384277
55.055 10.794919
55.060 11.164843
55.065 11.352691
55.070 11.30586
55.075 11.321439
55.080 10.948208
55.085 10.448157
55.090 10.576735
55.095 9.48642
55.100 9.495042
55.105 9.773371
55.110 10.093946
55.115 10.055684
55.120 10.149198
55.125 10.368422
55.130 10.914025
55.135 10.599431
55.140 10.002174
55.145 9.933378
55.150 10.214329
55.155 10.287054
55.160 10.229227
55.165 9.864651
55.170 9.995426
55.175 9.99976
55.180 9.742867
55.185 10.276316
55.190 10.60322
55.195 10.797852
55.200 10.913835
55.205 10.881825
55.210 11.249318
55.215 11.143019
55.220 11.04146
55.225 11.148175
55.230 11.179501
55.235 11.884124
55.240 12.400265
55.245 12.110361
55.250 11.829103
55.255 11.356281
55.260 11.11119
55.265 11.182222
55.270 11.055159
55.275 10.902658
55.280 11.122583
55.285 11.358138
55.290 10.903923
55.295 10.919808
55.300 11.311522
55.305 11.04652
55.310 10.861556
55.315 10.902331
55.320 11.235139
55.325 11.559837
55.330 11.303716
55.335 10.816178
55.340 10.544291
55.345 10.335934
55.350 10.469002
55.355 10.610551
55.360 11.19477
55.365 11.461309
55.370 11.467721
55.375 11.691034
55.380 11.532688
55.385 11.819083
55.390 11.653348
55.395 11.747068
55.400 11.669968
55.405 11.949209
55.410 12.34634
55.415 12.723299
55.420 12.513285
55.425 11.802387
55.430 11.399818
55.435 11.776652
55.440 11.761298
55.445 11.766758
55.450 11.705976
55.455 11.989874
55.460 12.535395
55.465 12.234288
55.470 11.832684
55.475 11.218369
55.480 11.126934
55.485 10.986805
55.490 10.551214
55.495 11.009169
55.500 11.368817
55.505 11.562555
55.510 11.918782
55.515 12.079964
55.520 12.027845
55.525 11.785461
55.530 11.134951
55.535 11.602991
55.540 11.530681
55.545 11.212409
55.550 11.655116
55.555 12.368342
55.560 12.561099
55.565 12.382368
55.570 11.680815
55.575 12.139994
55.580 12.666647
55.585 12.873162
55.590 13.171006
55.595 13.340565
55.600 13.310082
55.605 12.98148
55.610 12.87008
55.615 12.334132
55.620 11.450053
55.625 10.620875
55.630 10.482771
55.635 10.524239
55.640 10.963242
55.645 10.822512
55.650 10.939891
55.655 11.167409
55.660 11.27029
55.665 11.492837
55.670 11.600919
55.675 11.600824
55.680 11.734042
55.685 12.07804
55.690 12.392515
55.695 12.478054
55.700 12.067417
55.705 11.867605
55.710 11.826614
55.715 12.081555
55.720 11.913647
55.725 11.944172
55.730 12.085501
55.735 12.400463
55.740 12.48157
55.745 12.147487
55.750 11.880724
55.755 11.705971
55.760 11.50125
55.765 11.288813
55.770 12.195598
55.775 12.70544
55.780 12.618469
55.785 12.46895
55.790 11.858214
55.795 11.99926
55.800 11.655966
55.805 10.447327
55.810 10.079703
55.815 10.482124
55.820 10.590219
55.825 10.562189
55.830 10.376325
55.835 11.123607
55.840 11.731114
55.845 11.742276
55.850 11.331646
55.855 11.894842
55.860 12.70709
55.865 13.04766
55.870 12.794844
55.875 13.477784
55.880 13.235189
55.885 13.209719
55.890 12.93222
55.895 12.581937
55.900 12.729241
55.905 12.369303
55.910 12.190476
55.915 12.445951
55.920 12.136058
55.925 11.799984
55.930 11.965871
55.935 11.879807
55.940 11.711626
55.945 11.845956
55.950 12.272003
55.955 12.490218
55.960 12.540557
55.965 12.291698
55.970 12.337873
55.975 12.263776
55.980 11.998819
55.985 11.519384
55.990 11.203891
55.995 11.248314
56.000 11.345
56.005 11.191644
56.010 11.5983
56.015 11.197714
56.020 11.558083
56.025 12.021253
56.030 11.996567
56.035 11.619829
56.040 11.159512
56.045 10.763699
56.050 10.979567
56.055 10.677476
56.060 10.25324
56.065 10.234858
56.070 10.932811
56.075 11.220366
56.080 11.398837
56.085 11.179281
56.090 11.072625
56.095 10.972738
56.100 10.61288
56.105 10.439851
56.110 10.356627
56.115 10.49775
56.120 11.154393
56.125 11.568123
56.130 11.659479
56.135 11.871202
56.140 11.844206
56.145 12.231909
56.150 12.599864
56.155 12.703294
56.160 12.68949
56.165 13.029523
56.170 13.307041
56.175 13.415001
56.180 13.186935
56.185 12.780722
56.190 12.959794
56.195 13.419219
56.200 13.707561
56.205 13.779734
56.210 13.970751
56.215 14.43266
56.220 14.146595
56.225 13.71874
56.230 13.252994
56.235 13.317235
56.240 13.301508
56.245 13.297887
56.250 12.969861
56.255 12.649919
56.260 12.762923
56.265 12.643996
56.270 11.906047
56.275 11.858444
56.280 11.722556
56.285 11.91103
56.290 12.409686
56.295 12.712112
56.300 13.062437
56.305 13.301526
56.310 13.297809
56.315 13.050889
56.320 12.958668
56.325 13.111464
56.330 12.720231
56.335 12.969399
56.340 13.253696
56.345 13.312246
56.350 13.232463
56.355 13.180383
56.360 13.211746
56.365 13.409574
56.370 13.242807
56.375 13.26609
56.380 13.589055
56.385 14.017851
56.390 13.844395
56.395 13.371101
56.400 13.428401
56.405 13.51888
56.410 13.695627
56.415 13.505214
56.420 13.545893
56.425 13.692427
56.430 13.466856
56.435 13.223236
56.440 13.179775
56.445 12.840093
56.450 12.643535
56.455 12.636345
56.460 12.847826
56.465 12.846763
56.470 12.819189
56.475 12.539812
56.480 11.85955
56.485 11.732462
56.490 12.158023
56.495 12.089809
56.500 11.929047
56.505 11.765429
56.510 12.030106
56.515 12.444902
56.520 12.046351
56.525 11.444749
56.530 11.349396
56.535 11.553714
56.540 11.691192
56.545 11.777467
56.550 12.247151
56.555 12.457482
56.560 12.777553
56.565 13.059562
56.570 12.916509
56.575 12.438416
56.580 12.342495
56.585 11.640473
56.590 11.357156
56.595 11.137741
56.600 11.15379
56.605 11.67481
56.610 11.932269
56.615 11.968371
56.620 12.756113
56.625 13.143131
56.630 13.424861
56.635 13.153963
56.640 12.832951
56.645 12.910105
56.650 12.73772
56.655 12.855976
56.660 12.646334
56.665 12.512333
56.670 13.012523
56.675 13.017809
56.680 13.009175
56.685 13.18288
56.690 12.651716
56.695 12.533092
56.700 12.581457
56.705 12.629068
56.710 13.132024
56.715 13.416838
56.720 13.536674
56.725 13.930161
56.730 13.977345
56.735 13.427916
56.740 13.185597
56.745 13.36186
56.750 13.438965
56.755 13.12476
56.760 12.773544
56.765 13.130734
56.770 13.30086
56.775 12.808215
56.780 12.241243
56.785 11.691095
56.790 11.928741
56.795 11.847541
56.800 12.180413
56.805 12.881313
56.810 13.289401
56.815 13.229867
56.820 13.311976
56.825 13.624469
56.830 13.939585
56.835 13.580647
56.840 13.510083
56.845 13.538309
56.850 13.637708
56.855 13.735757
56.860 13.762256
56.865 13.604562
56.870 13.783703
56.875 13.659568
56.880 13.625011
56.885 13.974648
56.890 13.755109
56.895 13.652455
56.900 13.60513
56.905 13.915165
56.910 14.010369
56.915 13.44895
56.920 13.183878
56.925 13.666807
56.930 13.77548
56.935 13.359364
56.940 13.060712
56.945 13.382731
56.950 13.649384
56.955 14.245228
56.960 14.382939
56.965 14.612202
56.970 15.102003
56.975 14.801566
56.980 15.147927
56.985 15.616647
56.990 14.87737
56.995 14.447103
57.000 14.264492
57.005 13.983517
57.010 13.964258
57.015 13.437404
57.020 13.00779
57.025 13.239161
57.030 13.272335
57.035 13.607721
57.040 13.453781
57.045 13.17011
57.050 13.479388
57.055 13.646254
57.060 13.651911
57.065 13.755816
57.070 13.157192
57.075 13.456641
57.080 13.295943
57.085 12.928827
57.090 12.909497
57.095 12.94355
57.100 12.591514
57.105 12.206394
57.110 12.243082
57.115 12.007119
57.120 11.855667
57.125 11.848345
57.130 11.55296
57.135 11.465682
57.140 11.712532
57.145 11.418059
57.150 11.668427
57.155 11.80038
57.160 12.211243
57.165 13.001105
57.170 13.368979
57.175 13.465165
57.180 13.758514
57.185 13.929494
57.190 13.721374
57.195 13.384196
57.200 12.800961
57.205 12.87465
57.210 12.939834
57.215 13.099667
57.220 13.210662
57.225 13.074425
57.230 12.711433
57.235 12.839158
57.240 12.840206
57.245 12.733482
57.250 12.462595
57.255 11.709179
57.260 11.673686
57.265 11.942014
57.270 12.250503
57.275 12.25005
57.280 12.357185
57.285 12.373821
57.290 12.533628
57.295 12.757666
57.300 12.363495
57.305 11.755604
57.310 11.482521
57.315 11.473258
57.320 11.950063
57.325 12.336633
57.330 12.77354
57.335 13.189196
57.340 13.645283
57.345 14.294871
57.350 14.279946
57.355 14.381422
57.360 14.44218
57.365 14.451716
57.370 14.555014
57.375 14.508217
57.380 14.270596
57.385 14.121598
57.390 13.906027
57.395 14.096223
57.400 14.35723
57.405 14.710067
57.410 14.80634
57.415 14.495481
57.420 14.465424
57.425 14.625045
57.430 14.473024
57.435 14.07731
57.440 13.437769
57.445 13.582509
57.450 14.237372
57.455 14.846215
57.460 14.756852
57.465 14.703724
57.470 14.577901
57.475 14.775651
57.480 14.448477
57.485 13.932719
57.490 13.282804
57.495 13.284644
57.500 13.462181
57.505 13.380932
57.510 13.101154
57.515 13.083609
57.520 13.396418
57.525 13.146204
57.530 12.446692
57.535 12.091714
57.540 12.372965
57.545 12.480618
57.550 12.406591
57.555 12.300788
57.560 12.535237
57.565 12.926458
57.570 13.765593
57.575 13.975747
57.580 13.942171
57.585 13.489106
57.590 13.238174
57.595 13.171729
57.600 13.069984
57.605 12.585992
57.610 12.707679
57.615 12.66268
57.620 13.206106
57.625 13.291261
57.630 13.32581
57.635 13.104788
57.640 12.783882
57.645 12.134955
57.650 12.3476
57.655 12.732347
57.660 13.616545
57.665 13.454826
57.670 13.116635
57.675 13.277468
57.680 13.635722
57.685 13.222913
57.690 12.816399
57.695 12.215022
57.700 12.842039
57.705 13.748587
57.710 13.419068
57.715 13.486391
57.720 13.986247
57.725 14.382538
57.730 14.220882
57.735 13.631832
57.740 13.236547
57.745 13.630215
57.750 14.082132
57.755 14.414203
57.760 14.327233
57.765 14.844829
57.770 14.907473
57.775 14.917039
57.780 14.584182
57.785 13.847487
57.790 13.372113
57.795 13.117408
57.800 13.016829
57.805 13.141372
57.810 13.130851
57.815 13.323426
57.820 13.255625
57.825 13.609654
57.830 13.920504
57.835 13.835165
57.840 13.884159
57.845 14.510952
57.850 14.784908
57.855 14.970259
57.860 14.491787
57.865 14.428605
57.870 14.60773
57.875 14.264099
57.880 13.837071
57.885 13.763532
57.890 13.819406
57.895 13.670771
57.900 13.483825
57.905 13.275612
57.910 13.356846
57.915 12.9581
57.920 12.684237
57.925 12.591221
57.930 12.575749
57.935 12.31041
57.940 12.565202
57.945 13.100367
57.950 13.131135
57.955 12.934813
57.960 12.604909
57.965 12.657932
57.970 12.814308
57.975 13.110882
57.980 13.378688
57.985 13.936857
57.990 14.426348
57.995 14.764338
58.000 14.627522
58.005 14.336724
58.010 14.375603
58.015 14.052496
58.020 13.69068
58.025 13.774854
58.030 14.387547
58.035 14.977736
58.040 14.984943
58.045 14.763281
58.050 14.776917
58.055 14.77442
58.060 14.665294
58.065 14.336947
58.070 14.498724
58.075 14.819957
58.080 14.817263
58.085 14.801277
58.090 15.024053
58.095 15.175993
58.100 15.164255
58.105 15.349339
58.110 15.427681
58.115 15.787429
58.120 16.414391
58.125 16.692492
58.130 16.645777
58.135 16.710323
58.140 16.24144
58.145 16.042608
58.150 14.987619
58.155 13.778846
58.160 13.051718
58.165 12.980923
58.170 13.107532
58.175 13.135281
58.180 13.165443
58.185 13.756136
58.190 14.490792
58.195 14.615761
58.200 14.355689
58.205 14.258072
58.210 13.87761
58.215 14.288091
58.220 14.56662
58.225 14.966719
58.230 15.399946
58.235 15.490912
58.240 15.844653
58.245 16.393698
58.250 15.931039
58.255 15.652281
58.260 15.313321
58.265 15.025776
58.270 14.752331
58.275 14.423632
58.280 13.789479
58.285 14.107473
58.290 14.514647
58.295 14.753984
58.300 14.7376
58.305 14.736717
58.310 14.73497
58.315 14.925609
58.320 14.331786
58.325 14.014131
58.330 13.663206
58.335 13.545541
58.340 13.990597
58.345 14.073332
58.350 13.769645
58.355 14.104677
58.360 14.305339
58.365 14.634581
58.370 14.807649
58.375 14.921369
58.380 14.91846
58.385 15.138366
58.390 14.637107
58.395 14.112439
58.400 13.884911
58.405 13.722709
58.410 13.449159
58.415 13.248869
58.420 14.332001
58.425 14.598051
58.430 14.756112
58.435 14.905484
58.440 15.025744
58.445 15.410355
58.450 15.490841
58.455 14.806074
58.460 15.058368
58.465 15.127721
58.470 15.307933
58.475 15.48196
58.480 15.404924
58.485 15.536772
58.490 15.671794
58.495 15.673825
58.500 15.663392
58.505 15.796566
58.510 15.663394
58.515 15.382175
