!@!!GADDS PLOTSO FILE: Chi integration type
!@!!Title/SampleName: map-129
!@!!Comment: ?
!@!!User: Bruker Instrument Administrator
!@!!Site: University of Illinois Chicago
!@!!Frame: map-129_01_000.gfrm
!@!!Wavelengths    1.54184   1.54056   1.54439
!@!!Frame angles: 2Theta: 63.000 Omega: 50.000 Phi: 0.000 Chi: 90.000
!@!!Integration range: 2Theta: 53.000 to 73.000  Gamma: -105.000 to -75.000
!@!!Integration method: bin normalized
!@!N
!@!SS
!@!M
!@!L 0.0 0.0 0.0 0.0
!@!XDegrees
!@!YCounts
53.000 5.067943
53.005 5.074655
53.010 5.254664
53.015 5.549421
53.020 5.834317
53.025 5.411823
53.030 5.276688
53.035 5.157268
53.040 5.2055
53.045 5.293592
53.050 5.302016
53.055 5.205181
53.060 5.16223
53.065 5.147098
53.070 5.593524
53.075 6.045105
53.080 5.942904
53.085 5.582869
53.090 5.736758
53.095 5.984873
53.100 5.893641
53.105 5.516581
53.110 4.9428
53.115 4.781947
53.120 4.75314
53.125 4.616634
53.130 4.704663
53.135 4.799801
53.140 4.753941
53.145 4.927575
53.150 4.835152
53.155 5.028969
53.160 5.488845
53.165 5.689042
53.170 5.804025
53.175 5.990786
53.180 6.269248
53.185 6.507689
53.190 6.501412
53.195 6.35414
53.200 6.017531
53.205 6.050434
53.210 6.086675
53.215 6.015422
53.220 6.052238
53.225 6.014573
53.230 5.886219
53.235 5.973599
53.240 5.854242
53.245 5.54236
53.250 5.306258
53.255 4.997025
53.260 5.048745
53.265 5.143668
53.270 5.428828
53.275 5.61639
53.280 5.910019
53.285 6.378813
53.290 6.298491
53.295 6.297371
53.300 6.449302
53.305 6.277598
53.310 5.928206
53.315 5.774741
53.320 5.773837
53.325 5.848827
53.330 5.895908
53.335 5.490819
53.340 5.619986
53.345 5.77997
53.350 5.750562
53.355 5.441871
53.360 5.456498
53.365 5.496746
53.370 5.450018
53.375 5.441066
53.380 5.401235
53.385 5.557861
53.390 5.840935
53.395 5.526168
53.400 5.209918
53.405 5.36936
53.410 5.472229
53.415 5.280348
53.420 5.175998
53.425 5.107314
53.430 5.123985
53.435 5.502237
53.440 5.456938
53.445 5.34945
53.450 5.62188
53.455 5.498697
53.460 5.474405
53.465 5.695167
53.470 5.38566
53.475 5.231917
53.480 5.277247
53.485 5.27033
53.490 5.550538
53.495 5.683097
53.500 5.887619
53.505 5.905822
53.510 6.119394
53.515 6.279583
53.520 5.949875
53.525 5.682111
53.530 5.22961
53.535 5.050514
53.540 4.982664
53.545 5.010638
53.550 4.825863
53.555 4.865459
53.560 5.214656
53.565 5.388721
53.570 5.427006
53.575 5.419213
53.580 5.481942
53.585 5.733522
53.590 5.70526
53.595 5.620149
53.600 5.594403
53.605 6.04924
53.610 6.21568
53.615 5.736067
53.620 5.382297
53.625 5.261247
53.630 5.084223
53.635 5.274315
53.640 4.785609
53.645 5.063179
53.650 5.287035
53.655 5.719859
53.660 6.23061
53.665 6.303706
53.670 6.197441
53.675 6.287451
53.680 6.353157
53.685 6.379136
53.690 5.686333
53.695 5.18863
53.700 5.021325
53.705 4.805301
53.710 4.584196
53.715 4.503129
53.720 4.526209
53.725 4.679009
53.730 4.919416
53.735 5.135529
53.740 5.241346
53.745 5.376043
53.750 5.444911
53.755 5.677527
53.760 5.639264
53.765 5.728696
53.770 5.644735
53.775 5.623314
53.780 5.27153
53.785 4.880341
53.790 5.216932
53.795 5.365114
53.800 4.984386
53.805 5.168911
53.810 5.130762
53.815 5.430395
53.820 5.923635
53.825 6.183249
53.830 6.614856
53.835 6.992782
53.840 6.894616
53.845 6.920111
53.850 6.68727
53.855 6.102125
53.860 5.741275
53.865 5.452943
53.870 5.336161
53.875 5.351779
53.880 5.473869
53.885 5.879508
53.890 6.016085
53.895 5.786275
53.900 5.627585
53.905 5.824423
53.910 5.59454
53.915 5.251325
53.920 4.901554
53.925 4.656337
53.930 4.647498
53.935 4.539351
53.940 4.502151
53.945 4.451548
53.950 4.559617
53.955 4.745568
53.960 4.798172
53.965 4.765929
53.970 4.614041
53.975 4.782339
53.980 4.809846
53.985 4.617455
53.990 4.844587
53.995 5.353883
54.000 5.623864
54.005 5.641982
54.010 5.790378
54.015 6.201361
54.020 6.478655
54.025 6.204663
54.030 6.170312
54.035 6.186418
54.040 6.289164
54.045 6.033392
54.050 5.945271
54.055 5.810696
54.060 5.762434
54.065 5.64685
54.070 5.632189
54.075 5.733147
54.080 6.006752
54.085 6.156695
54.090 6.376143
54.095 6.046612
54.100 6.053507
54.105 6.017714
54.110 6.111669
54.115 5.983349
54.120 5.912398
54.125 5.772152
54.130 5.825089
54.135 5.799004
54.140 5.835457
54.145 5.489263
54.150 5.336563
54.155 5.446393
54.160 5.68801
54.165 5.930929
54.170 5.895956
54.175 5.867609
54.180 5.899967
54.185 5.775179
54.190 5.776488
54.195 5.535282
54.200 5.221319
54.205 4.861872
54.210 4.876233
54.215 4.944705
54.220 4.733762
54.225 4.58192
54.230 4.754893
54.235 4.981351
54.240 5.134882
54.245 5.160784
54.250 5.385133
54.255 5.653631
54.260 5.915807
54.265 5.99322
54.270 6.121894
54.275 6.009055
54.280 5.612226
54.285 5.705045
54.290 5.525387
54.295 5.263638
54.300 5.427126
54.305 5.903108
54.310 6.467944
54.315 6.860286
54.320 6.974665
54.325 6.992667
54.330 7.082902
54.335 6.826349
54.340 6.326249
54.345 6.085654
54.350 5.557352
54.355 5.364089
54.360 5.481786
54.365 5.314747
54.370 5.436053
54.375 5.272707
54.380 5.213208
54.385 5.226757
54.390 5.371934
54.395 5.406871
54.400 5.383083
54.405 5.260643
54.410 5.430707
54.415 5.447124
54.420 5.620493
54.425 5.369591
54.430 5.245987
54.435 5.377911
54.440 5.286233
54.445 5.381337
54.450 5.628129
54.455 5.396479
54.460 5.664127
54.465 5.737364
54.470 5.912676
54.475 6.06376
54.480 5.812833
54.485 5.683876
54.490 5.681787
54.495 5.57189
54.500 5.46584
54.505 5.609029
54.510 5.39156
54.515 5.507361
54.520 5.330651
54.525 5.390449
54.530 5.417229
54.535 5.33204
54.540 5.100376
54.545 5.223403
54.550 5.487195
54.555 5.264689
54.560 5.170703
54.565 5.091284
54.570 5.218539
54.575 5.207438
54.580 5.021034
54.585 4.832792
54.590 4.927075
54.595 4.933411
54.600 4.882983
54.605 4.818367
54.610 5.207615
54.615 5.445486
54.620 5.586432
54.625 5.566826
54.630 5.654062
54.635 5.784781
54.640 5.420313
54.645 5.241942
54.650 5.289871
54.655 5.389378
54.660 5.70927
54.665 5.795338
54.670 5.906056
54.675 6.093874
54.680 5.788982
54.685 5.784178
54.690 5.725937
54.695 5.801797
54.700 5.558856
54.705 5.612606
54.710 5.729368
54.715 5.709591
54.720 5.843709
54.725 6.007615
54.730 5.865144
54.735 5.592238
54.740 5.193161
54.745 5.21812
54.750 5.40129
54.755 5.4328
54.760 5.666027
54.765 6.401062
54.770 6.914492
54.775 7.258665
54.780 7.262437
54.785 6.943262
54.790 6.85289
54.795 6.372467
54.800 5.676347
54.805 5.490332
54.810 5.103469
54.815 4.66198
54.820 4.915402
54.825 4.739718
54.830 4.76316
54.835 5.041641
54.840 5.080183
54.845 5.219771
54.850 5.276357
54.855 5.122169
54.860 5.005816
54.865 5.05531
54.870 5.32234
54.875 5.734873
54.880 5.884546
54.885 5.890204
54.890 6.005287
54.895 6.092771
54.900 6.119442
54.905 5.990067
54.910 5.722012
54.915 5.833746
54.920 5.970292
54.925 5.73583
54.930 5.726469
54.935 5.468836
54.940 5.430092
54.945 5.758203
54.950 5.923034
54.955 6.032645
54.960 5.895141
54.965 5.880634
54.970 5.842317
54.975 5.787362
54.980 5.509363
54.985 5.1617
54.990 5.343491
54.995 5.584024
55.000 5.816924
55.005 5.835188
55.010 5.74525
55.015 5.680258
55.020 5.767718
55.025 5.833216
55.030 5.529663
55.035 5.397936
55.040 5.309885
55.045 5.606957
55.050 5.877513
55.055 5.585964
55.060 5.803197
55.065 6.216618
55.070 6.098239
55.075 6.125899
55.080 5.899669
55.085 5.614931
55.090 5.472144
55.095 5.444662
55.100 5.4751
55.105 5.779626
55.110 5.741842
55.115 5.745879
55.120 6.168973
55.125 6.174334
55.130 5.848996
55.135 5.696409
55.140 5.758463
55.145 6.052873
55.150 6.003512
55.155 6.27318
55.160 6.434332
55.165 6.487748
55.170 6.729954
55.175 6.541193
55.180 6.30055
55.185 6.671576
55.190 6.786836
55.195 6.76984
55.200 6.588609
55.205 6.554604
55.210 7.086962
55.215 7.092744
55.220 6.710216
55.225 6.025461
55.230 6.00932
55.235 6.254775
55.240 6.005175
55.245 5.813854
55.250 5.762067
55.255 6.024953
55.260 6.314655
55.265 6.039542
55.270 6.055994
55.275 6.033104
55.280 5.850381
55.285 5.798523
55.290 5.852585
55.295 5.786154
55.300 5.840387
55.305 5.653578
55.310 5.490515
55.315 5.384006
55.320 5.561724
55.325 5.269812
55.330 5.478302
55.335 5.502423
55.340 5.650632
55.345 5.755922
55.350 5.902552
55.355 6.061985
55.360 6.236498
55.365 5.987552
55.370 5.891724
55.375 6.000681
55.380 6.185263
55.385 6.098468
55.390 5.689575
55.395 5.718896
55.400 5.986325
55.405 6.043885
55.410 5.732441
55.415 5.588052
55.420 5.585505
55.425 5.806072
55.430 6.28098
55.435 6.727283
55.440 6.884375
55.445 7.233496
55.450 7.319209
55.455 7.282802
55.460 7.266228
55.465 6.867335
55.470 6.440284
55.475 6.164333
55.480 6.114027
55.485 6.019839
55.490 5.86324
55.495 5.446888
55.500 5.379785
55.505 5.538876
55.510 5.469078
55.515 5.67729
55.520 5.961243
55.525 5.915981
55.530 5.698915
55.535 5.588603
55.540 5.761665
55.545 5.847215
55.550 5.687063
55.555 5.667801
55.560 5.788377
55.565 6.213117
55.570 6.07888
55.575 5.936556
55.580 5.881842
55.585 5.958062
55.590 5.854199
55.595 5.769442
55.600 5.669038
55.605 5.83955
55.610 5.98118
55.615 5.941819
55.620 5.896556
55.625 5.910397
55.630 5.861194
55.635 6.068126
55.640 6.118933
55.645 6.162497
55.650 6.247246
55.655 6.356849
55.660 6.29259
55.665 6.461833
55.670 6.132689
55.675 5.71397
55.680 5.588299
55.685 5.461998
55.690 5.570784
55.695 5.760166
55.700 5.783189
55.705 5.705931
55.710 5.5367
55.715 5.37033
55.720 5.106193
55.725 4.744827
55.730 4.912969
55.735 5.053673
55.740 5.360996
55.745 5.975217
55.750 6.379909
55.755 6.687056
55.760 6.591624
55.765 6.202693
55.770 6.153447
55.775 6.187253
55.780 6.239316
55.785 6.249468
55.790 6.42245
55.795 6.692117
55.800 6.771418
55.805 6.568025
55.810 6.53782
55.815 6.360678
55.820 6.457863
55.825 6.284614
55.830 6.251864
55.835 6.651828
55.840 6.804523
55.845 6.609804
55.850 6.715092
55.855 6.45602
55.860 6.243774
55.865 6.238902
55.870 6.372459
55.875 6.880813
55.880 6.935651
55.885 6.631721
55.890 6.397933
55.895 6.629284
55.900 6.644707
55.905 6.077059
55.910 5.657465
55.915 5.472955
55.920 5.716355
55.925 6.124993
55.930 6.103804
55.935 6.517289
55.940 6.901816
55.945 7.270887
55.950 7.441665
55.955 7.231746
55.960 7.049506
55.965 7.00446
55.970 6.643847
55.975 6.135988
55.980 5.602444
55.985 5.516086
55.990 5.405445
55.995 5.459002
56.000 5.402898
56.005 5.626529
56.010 5.692675
56.015 6.02455
56.020 6.353094
56.025 6.552007
56.030 6.488441
56.035 6.294434
56.040 5.924107
56.045 6.009513
56.050 5.691278
56.055 5.503709
56.060 5.429424
56.065 5.160994
56.070 5.265772
56.075 5.534719
56.080 5.614753
56.085 5.924669
56.090 5.998448
56.095 6.070399
56.100 6.048588
56.105 6.198591
56.110 6.293023
56.115 6.521125
56.120 6.376911
56.125 6.439916
56.130 6.393684
56.135 6.670649
56.140 6.955129
56.145 6.901947
56.150 6.811674
56.155 6.931279
56.160 6.795012
56.165 6.932372
56.170 6.88521
56.175 6.486309
56.180 6.665314
56.185 6.547821
56.190 6.316344
56.195 6.353301
56.200 6.253398
56.205 6.239108
56.210 6.424689
56.215 6.537135
56.220 6.535496
56.225 6.693983
56.230 6.678725
56.235 7.037739
56.240 7.098827
56.245 6.850842
56.250 6.916409
56.255 7.020246
56.260 6.855266
56.265 6.682906
56.270 6.617525
56.275 6.819969
56.280 6.924178
56.285 6.759784
56.290 6.825381
56.295 7.029053
56.300 6.772102
56.305 6.211721
56.310 5.825159
56.315 5.731036
56.320 5.641317
56.325 5.330926
56.330 5.248254
56.335 5.678248
56.340 5.881845
56.345 5.74558
56.350 5.613779
56.355 6.065606
56.360 6.545858
56.365 6.993681
56.370 7.498806
56.375 7.482097
56.380 7.649688
56.385 7.776571
56.390 7.113903
56.395 6.930129
56.400 6.510308
56.405 6.127546
56.410 6.419345
56.415 6.299369
56.420 6.470259
56.425 7.145018
56.430 7.196725
56.435 7.301345
56.440 7.386292
56.445 6.972135
56.450 7.001601
56.455 6.848788
56.460 6.57429
56.465 6.291816
56.470 5.913321
56.475 5.956243
56.480 6.313832
56.485 6.331798
56.490 6.620866
56.495 6.64695
56.500 6.915148
56.505 6.735593
56.510 6.593224
56.515 6.395538
56.520 6.471982
56.525 6.498352
56.530 6.463568
56.535 6.343347
56.540 6.372261
56.545 6.445697
56.550 6.418294
56.555 6.19142
56.560 5.907873
56.565 5.798308
56.570 5.682416
56.575 5.872447
56.580 5.836751
56.585 5.782113
56.590 5.555076
56.595 5.654799
56.600 5.71209
56.605 6.089555
56.610 6.024294
56.615 6.106034
56.620 6.332027
56.625 6.522287
56.630 6.614475
56.635 6.523931
56.640 6.173197
56.645 6.065489
56.650 5.85017
56.655 5.858412
56.660 5.884341
56.665 5.581681
56.670 5.779547
56.675 5.937646
56.680 6.076116
56.685 6.315938
56.690 6.259871
56.695 6.667078
56.700 6.622823
56.705 6.595391
56.710 6.665001
56.715 6.620028
56.720 6.457159
56.725 6.92727
56.730 6.881073
56.735 6.98887
56.740 7.328905
56.745 7.298057
56.750 7.631261
56.755 7.604677
56.760 7.43062
56.765 7.476338
56.770 7.851139
56.775 7.578256
56.780 7.408057
56.785 6.946136
56.790 6.90547
56.795 6.604912
56.800 6.624634
56.805 6.216382
56.810 6.345962
56.815 6.580502
56.820 6.982056
56.825 7.004908
56.830 7.089879
56.835 6.832947
56.840 7.018016
56.845 7.339611
56.850 7.07843
56.855 6.970939
56.860 7.052651
56.865 6.970311
56.870 6.984963
56.875 6.575491
56.880 6.071765
56.885 6.203777
56.890 6.008157
56.895 5.988069
56.900 6.033773
56.905 6.031617
56.910 6.063751
56.915 6.050823
56.920 6.011148
56.925 6.485094
56.930 6.655486
56.935 6.653639
56.940 7.032997
56.945 7.287044
56.950 7.484329
56.955 7.268405
56.960 6.976402
56.965 6.709488
56.970 6.828752
56.975 6.464252
56.980 6.201105
56.985 6.160414
56.990 6.536102
56.995 6.540385
57.000 6.579378
57.005 6.871206
57.010 6.972226
57.015 7.31392
57.020 7.266447
57.025 7.39631
57.030 7.425897
57.035 7.38338
57.040 7.319673
57.045 7.018884
57.050 7.176513
57.055 7.015343
57.060 6.666996
57.065 6.857751
57.070 6.815089
57.075 7.03072
57.080 7.153722
57.085 6.667829
57.090 6.432082
57.095 6.38019
57.100 6.672544
57.105 6.761993
57.110 6.494959
57.115 6.500699
57.120 6.828773
57.125 7.189176
57.130 7.187281
57.135 6.986675
57.140 6.699483
57.145 6.479428
57.150 6.525318
57.155 6.297204
57.160 6.390207
57.165 6.162305
57.170 6.046562
57.175 6.485175
57.180 7.237893
57.185 7.457546
57.190 7.615515
57.195 7.550169
57.200 7.602199
57.205 7.721187
57.210 7.559808
57.215 7.377832
57.220 7.562753
57.225 7.442771
57.230 7.596205
57.235 7.804644
57.240 7.736542
57.245 7.442398
57.250 6.936971
57.255 7.198472
57.260 7.28886
57.265 7.087252
57.270 6.996478
57.275 6.965591
57.280 7.346339
57.285 7.509439
57.290 7.070427
57.295 6.768008
57.300 6.530226
57.305 6.330118
57.310 6.515501
57.315 5.953776
57.320 5.657773
57.325 5.936138
57.330 6.34673
57.335 6.749979
57.340 7.026821
57.345 7.110787
57.350 7.993299
57.355 8.253038
57.360 8.24022
57.365 8.391542
57.370 8.107796
57.375 8.003917
57.380 8.046427
57.385 7.713629
57.390 8.184074
57.395 7.991275
57.400 7.895877
57.405 8.075908
57.410 8.048518
57.415 7.887607
57.420 7.755636
57.425 7.296589
57.430 7.216414
57.435 7.208747
57.440 7.040155
57.445 6.679833
57.450 6.840095
57.455 6.885038
57.460 7.088179
57.465 7.20917
57.470 7.202942
57.475 7.607488
57.480 7.81733
57.485 7.592049
57.490 7.367625
57.495 7.510126
57.500 7.555023
57.505 7.523678
57.510 7.254725
57.515 7.329285
57.520 7.477693
57.525 7.38026
57.530 7.136195
57.535 7.109982
57.540 7.345092
57.545 7.385324
57.550 7.455218
57.555 7.608712
57.560 7.853911
57.565 8.183873
57.570 8.100212
57.575 8.196712
57.580 7.992914
57.585 7.822263
57.590 7.282183
57.595 7.263494
57.600 7.284616
57.605 6.982265
57.610 6.548738
57.615 6.53865
57.620 6.622898
57.625 7.004251
57.630 6.484417
57.635 5.839484
57.640 5.770433
57.645 6.376739
57.650 6.600998
57.655 6.740744
57.660 7.191061
57.665 7.646215
57.670 8.221886
57.675 8.839519
57.680 9.209819
57.685 9.453357
57.690 9.025169
57.695 8.512208
57.700 8.175407
57.705 7.95829
57.710 7.413141
57.715 6.713871
57.720 6.650488
57.725 6.765159
57.730 7.022709
57.735 7.180717
57.740 7.308723
57.745 7.61405
57.750 7.690714
57.755 7.406712
57.760 7.22716
57.765 7.186696
57.770 7.148583
57.775 7.08152
57.780 6.803942
57.785 7.118202
57.790 7.202038
57.795 7.824859
57.800 7.843186
57.805 7.919296
57.810 8.156808
57.815 8.343222
57.820 8.319254
57.825 8.290359
57.830 8.365253
57.835 8.442049
57.840 8.555679
57.845 8.409158
57.850 8.074652
57.855 7.859149
57.860 7.748861
57.865 7.700899
57.870 7.732116
57.875 7.68725
57.880 7.393517
57.885 7.709081
57.890 7.842962
57.895 7.871984
57.900 7.825231
57.905 8.372876
57.910 8.75537
57.915 8.917922
57.920 8.952119
57.925 9.070339
57.930 9.314125
57.935 9.137614
57.940 8.781204
57.945 8.669724
57.950 8.627743
57.955 8.712852
57.960 8.546568
57.965 8.60309
57.970 8.700955
57.975 8.397285
57.980 8.470679
57.985 8.614563
57.990 8.254769
57.995 8.263932
58.000 8.124273
58.005 7.631584
58.010 8.041688
58.015 7.887727
58.020 7.750873
58.025 7.991589
58.030 8.314261
58.035 8.121796
58.040 8.165397
58.045 7.887065
58.050 7.74584
58.055 7.54417
58.060 7.094264
58.065 6.375222
58.070 6.295933
58.075 6.395048
58.080 6.29617
58.085 6.489585
58.090 6.768334
58.095 6.957788
58.100 7.458447
58.105 7.705355
58.110 7.923322
58.115 7.689497
58.120 7.704087
58.125 7.584312
58.130 7.788424
58.135 7.832695
58.140 7.870992
58.145 7.832432
58.150 7.947577
58.155 8.277408
58.160 8.361738
58.165 8.428208
58.170 8.457419
58.175 8.327652
58.180 8.12384
58.185 8.310329
58.190 8.065052
58.195 7.566748
58.200 7.658195
58.205 7.6732
58.210 8.075191
58.215 8.387569
58.220 8.132038
58.225 8.026649
58.230 8.314342
58.235 8.032478
58.240 8.412566
58.245 8.444092
58.250 8.6752
58.255 8.869358
58.260 9.056079
58.265 8.667898
58.270 8.398373
58.275 8.116727
58.280 7.690125
58.285 7.207355
58.290 7.08778
58.295 7.308269
58.300 7.844359
58.305 8.118048
58.310 7.769257
58.315 8.056603
58.320 8.222667
58.325 8.353112
58.330 8.195475
58.335 8.286051
58.340 8.577236
58.345 8.930575
58.350 8.978037
58.355 8.917034
58.360 8.817547
58.365 8.684292
58.370 8.658137
58.375 8.380295
58.380 8.078395
58.385 7.870257
58.390 8.200346
58.395 8.460362
58.400 8.37722
58.405 8.181829
58.410 8.055526
58.415 8.221932
58.420 8.94758
58.425 8.860314
58.430 8.927815
58.435 9.249463
58.440 9.436947
58.445 9.80972
58.450 9.860376
58.455 9.554459
58.460 10.086312
58.465 10.445081
58.470 10.71837
58.475 10.701076
58.480 10.760402
58.485 10.908945
58.490 11.119562
58.495 10.822064
58.500 10.593837
58.505 10.789394
58.510 11.080558
58.515 10.878687
58.520 10.739429
58.525 10.634741
58.530 10.887663
58.535 10.760165
58.540 10.592093
58.545 11.003733
58.550 11.430982
58.555 11.79972
58.560 12.121109
58.565 11.759246
58.570 11.590858
58.575 11.455726
58.580 11.887878
58.585 12.0681
58.590 12.325775
58.595 12.043749
58.600 12.716153
58.605 13.670444
58.610 14.089721
58.615 13.718308
58.620 13.594396
58.625 13.840899
58.630 14.903468
58.635 14.879126
58.640 14.819864
58.645 14.870947
58.650 14.713033
58.655 14.9078
58.660 15.028976
58.665 15.60806
58.670 15.707895
58.675 15.654039
58.680 15.733672
58.685 16.084087
58.690 16.321018
58.695 16.577482
58.700 16.396664
58.705 16.386475
58.710 16.367785
58.715 16.117128
58.720 15.795987
58.725 15.281342
58.730 14.699471
58.735 14.300762
58.740 15.090384
58.745 15.216073
