!@!!GADDS PLOTSO FILE: Chi integration type
!@!!Title/SampleName: map-65
!@!!Comment: ?
!@!!User: Bruker Instrument Administrator
!@!!Site: University of Illinois Chicago
!@!!Frame: map-65_01_000.gfrm
!@!!Wavelengths    1.54184   1.54056   1.54439
!@!!Frame angles: 2Theta: 63.000 Omega: 50.000 Phi: 0.000 Chi: 90.000
!@!!Integration range: 2Theta: 53.000 to 73.000  Gamma: -105.000 to -75.000
!@!!Integration method: bin normalized
!@!N
!@!SS
!@!M
!@!L 0.0 0.0 0.0 0.0
!@!XDegrees
!@!YCounts
53.000 9.639687
53.005 9.593317
53.010 9.795179
53.015 9.643171
53.020 9.920078
53.025 9.898759
53.030 9.94768
53.035 10.41693
53.040 10.199079
53.045 10.216418
53.050 10.31184
53.055 9.864222
53.060 9.983428
53.065 10.504077
53.070 10.558559
53.075 10.544736
53.080 10.236213
53.085 10.229318
53.090 10.616698
53.095 10.310106
53.100 9.829416
53.105 9.861264
53.110 10.029166
53.115 10.080662
53.120 10.155958
53.125 10.355498
53.130 10.742475
53.135 11.166291
53.140 11.285698
53.145 11.471279
53.150 11.506478
53.155 11.023492
53.160 10.816528
53.165 10.675973
53.170 10.02065
53.175 9.717941
53.180 9.523089
53.185 9.953074
53.190 10.368629
53.195 10.435131
53.200 10.71996
53.205 11.101431
53.210 11.42883
53.215 11.104
53.220 10.818206
53.225 10.674415
53.230 10.828082
53.235 10.458821
53.240 10.453015
53.245 10.627877
53.250 10.548954
53.255 10.284056
53.260 10.254072
53.265 10.227588
53.270 9.913988
53.275 9.583993
53.280 9.540326
53.285 9.560102
53.290 9.388017
53.295 9.41966
53.300 9.666713
53.305 10.31486
53.310 10.751011
53.315 10.796985
53.320 10.612265
53.325 10.913086
53.330 11.015935
53.335 10.687776
53.340 10.336983
53.345 10.100202
53.350 10.26145
53.355 10.776364
53.360 10.787679
53.365 10.009335
53.370 9.864805
53.375 9.691352
53.380 9.6183
53.385 9.513585
53.390 9.316748
53.395 9.261161
53.400 9.951913
53.405 10.574448
53.410 11.01107
53.415 10.935938
53.420 11.165027
53.425 11.652149
53.430 11.915277
53.435 11.642282
53.440 11.606792
53.445 11.186636
53.450 11.545865
53.455 11.482986
53.460 10.574062
53.465 10.18287
53.470 10.339442
53.475 10.682007
53.480 10.908437
53.485 11.305523
53.490 11.398594
53.495 11.895476
53.500 12.037637
53.505 11.725673
53.510 11.5014
53.515 11.479613
53.520 11.684591
53.525 11.650961
53.530 11.720512
53.535 12.087564
53.540 12.22638
53.545 12.119648
53.550 11.664506
53.555 10.961361
53.560 11.34784
53.565 11.354169
53.570 11.305362
53.575 10.88589
53.580 10.60051
53.585 10.923857
53.590 10.990038
53.595 10.961015
53.600 10.592175
53.605 10.580799
53.610 10.670941
53.615 11.018983
53.620 10.714174
53.625 10.360976
53.630 10.591868
53.635 10.343028
53.640 10.514577
53.645 10.84729
53.650 10.227839
53.655 10.323508
53.660 10.401363
53.665 10.470733
53.670 10.406437
53.675 10.316153
53.680 10.524007
53.685 11.02659
53.690 11.081635
53.695 11.205159
53.700 11.116888
53.705 11.239713
53.710 10.694545
53.715 10.56709
53.720 10.832546
53.725 10.928442
53.730 10.911896
53.735 10.960862
53.740 11.115782
53.745 11.442111
53.750 11.29716
53.755 10.982512
53.760 10.844729
53.765 10.879352
53.770 11.28764
53.775 11.43468
53.780 11.168658
53.785 10.985139
53.790 11.190153
53.795 11.630394
53.800 11.482513
53.805 11.088613
53.810 11.103719
53.815 11.152349
53.820 11.425
53.825 11.234925
53.830 10.961753
53.835 10.986437
53.840 10.980645
53.845 11.022844
53.850 11.77894
53.855 12.075247
53.860 12.166723
53.865 12.012162
53.870 12.029277
53.875 11.78194
53.880 11.509762
53.885 10.899462
53.890 10.397764
53.895 9.984983
53.900 10.107301
53.905 10.326234
53.910 10.886005
53.915 11.069078
53.920 11.255801
53.925 11.407531
53.930 11.79388
53.935 12.213769
53.940 12.425662
53.945 12.092022
53.950 11.833117
53.955 11.45431
53.960 11.406451
53.965 11.661901
53.970 11.754519
53.975 11.771872
53.980 12.052004
53.985 12.068771
53.990 12.437054
53.995 12.230657
54.000 11.922646
54.005 12.039891
54.010 12.055217
54.015 11.866175
54.020 11.71115
54.025 11.590779
54.030 11.754019
54.035 11.648552
54.040 11.234167
54.045 10.969521
54.050 11.209146
54.055 11.480793
54.060 11.375026
54.065 10.645249
54.070 10.254091
54.075 10.118772
54.080 10.335893
54.085 10.226964
54.090 10.23228
54.095 10.306437
54.100 10.936093
54.105 11.087519
54.110 11.053849
54.115 11.066796
54.120 11.136853
54.125 11.259323
54.130 11.957675
54.135 12.37157
54.140 12.678539
54.145 13.096026
54.150 12.757192
54.155 12.441592
54.160 12.049755
54.165 11.02008
54.170 10.907499
54.175 10.84926
54.180 10.842082
54.185 11.300942
54.190 11.606221
54.195 11.976838
54.200 12.699619
54.205 12.543887
54.210 12.541823
54.215 12.296756
54.220 12.293657
54.225 12.485225
54.230 12.645135
54.235 12.438444
54.240 12.959005
54.245 13.414376
54.250 13.565594
54.255 13.737887
54.260 13.658411
54.265 13.09966
54.270 12.660344
54.275 11.724352
54.280 11.493224
54.285 11.303072
54.290 11.274671
54.295 11.548068
54.300 12.019428
54.305 12.130745
54.310 12.624289
54.315 12.091765
54.320 11.837004
54.325 11.402122
54.330 11.127666
54.335 11.01166
54.340 10.983349
54.345 11.23169
54.350 12.348783
54.355 12.679035
54.360 12.930264
54.365 13.148194
54.370 12.969218
54.375 12.966895
54.380 12.398386
54.385 11.311941
54.390 10.974944
54.395 10.908806
54.400 10.903956
54.405 11.130059
54.410 11.196497
54.415 11.495479
54.420 12.081826
54.425 12.264963
54.430 12.393323
54.435 12.527053
54.440 12.817298
54.445 13.004561
54.450 13.156749
54.455 13.330171
54.460 13.694508
54.465 13.378798
54.470 12.82229
54.475 12.136341
54.480 12.329389
54.485 12.175294
54.490 11.736579
54.495 11.186455
54.500 11.293987
54.505 11.534985
54.510 11.399472
54.515 11.318557
54.520 11.241577
54.525 11.490705
54.530 11.785341
54.535 12.178335
54.540 12.858309
54.545 12.907207
54.550 12.195719
54.555 12.338367
54.560 12.651993
54.565 12.559184
54.570 12.030936
54.575 11.897113
54.580 12.073541
54.585 12.833097
54.590 12.299337
54.595 11.885378
54.600 11.716288
54.605 12.231219
54.610 12.081514
54.615 11.923382
54.620 11.687939
54.625 11.741316
54.630 11.914109
54.635 11.926658
54.640 11.204443
54.645 10.796458
54.650 10.850765
54.655 11.230415
54.660 11.254345
54.665 10.897864
54.670 11.177954
54.675 11.717911
54.680 11.91645
54.685 12.087025
54.690 12.073358
54.695 12.660045
54.700 13.281917
54.705 13.37018
54.710 13.369692
54.715 13.699507
54.720 13.272168
54.725 12.97342
54.730 12.522653
54.735 12.184327
54.740 12.313352
54.745 11.823748
54.750 11.010751
54.755 10.974852
54.760 10.815683
54.765 10.766434
54.770 10.797668
54.775 10.578157
54.780 11.281114
54.785 11.972548
54.790 12.646412
54.795 13.459146
54.800 13.588889
54.805 13.769998
54.810 13.600246
54.815 13.395839
54.820 13.338885
54.825 12.776432
54.830 12.165741
54.835 11.868527
54.840 11.923503
54.845 12.173673
54.850 12.675655
54.855 12.539074
54.860 12.579194
54.865 12.469789
54.870 12.385058
54.875 12.340926
54.880 12.449368
54.885 11.837384
54.890 11.478655
54.895 11.814189
54.900 12.382634
54.905 12.31783
54.910 11.969949
54.915 12.182291
54.920 12.337389
54.925 12.278004
54.930 12.220247
54.935 12.663254
54.940 13.096757
54.945 13.451114
54.950 13.53484
54.955 13.874297
54.960 13.842924
54.965 13.755918
54.970 13.379818
54.975 13.190235
54.980 12.890971
54.985 12.618094
54.990 12.70627
54.995 12.55855
55.000 12.338297
55.005 12.32459
55.010 12.35679
55.015 12.623602
55.020 12.846334
55.025 12.966268
55.030 12.692023
55.035 12.748906
55.040 12.470132
55.045 12.141063
55.050 11.4136
55.055 11.630258
55.060 12.215178
55.065 12.887732
55.070 12.768618
55.075 12.869773
55.080 13.00011
55.085 12.96677
55.090 12.669991
55.095 12.580767
55.100 12.412115
55.105 12.18799
55.110 11.920395
55.115 11.936982
55.120 12.06902
55.125 11.755332
55.130 11.405544
55.135 11.313909
55.140 11.819091
55.145 12.374208
55.150 12.441857
55.155 12.68264
55.160 12.672379
55.165 12.301869
55.170 12.302391
55.175 12.34967
55.180 12.004506
55.185 12.135431
55.190 12.112633
55.195 11.964894
55.200 12.185059
55.205 12.153182
55.210 11.597929
55.215 11.809938
55.220 11.869793
55.225 11.851862
55.230 11.982471
55.235 12.157673
55.240 12.342478
55.245 12.680705
55.250 12.293528
55.255 12.254263
55.260 12.227522
55.265 12.215532
55.270 12.133996
55.275 11.779358
55.280 11.86192
55.285 11.76679
55.290 11.769887
55.295 11.538887
55.300 11.570354
55.305 11.594549
55.310 11.941156
55.315 12.015889
55.320 11.979181
55.325 11.64857
55.330 12.049477
55.335 11.919323
55.340 11.608983
55.345 11.77048
55.350 12.162131
55.355 12.688253
55.360 13.462055
55.365 13.120377
55.370 13.188122
55.375 13.017046
55.380 12.786338
55.385 12.300242
55.390 11.800264
55.395 11.648317
55.400 11.876068
55.405 12.155204
55.410 12.462153
55.415 12.08936
55.420 12.643217
55.425 12.501143
55.430 12.621325
55.435 12.889074
55.440 12.958656
55.445 13.489146
55.450 13.90416
55.455 13.721324
55.460 13.819865
55.465 14.036371
55.470 13.995859
55.475 14.012115
55.480 13.721993
55.485 13.660268
55.490 13.742881
55.495 13.606096
55.500 13.386662
55.505 13.424516
55.510 13.414233
55.515 13.787638
55.520 13.906237
55.525 14.013631
55.530 13.833432
55.535 13.515553
55.540 13.331907
55.545 13.488456
55.550 13.203561
55.555 13.078428
55.560 13.167646
55.565 13.755459
55.570 14.055626
55.575 13.887783
55.580 13.504928
55.585 13.586816
55.590 13.839127
55.595 13.890048
55.600 13.713847
55.605 13.732011
55.610 13.843716
55.615 13.645037
55.620 13.392137
55.625 13.31307
55.630 13.645018
55.635 13.562107
55.640 13.400761
55.645 13.515388
55.650 13.606882
55.655 13.557323
55.660 12.890203
55.665 13.050601
55.670 12.807469
55.675 12.682816
55.680 12.557677
55.685 12.604733
55.690 13.090041
55.695 13.721181
55.700 13.365339
55.705 13.710131
55.710 13.402047
55.715 13.576942
55.720 13.149979
55.725 12.634631
55.730 12.583238
55.735 13.016028
55.740 12.891984
55.745 12.928876
55.750 13.164108
55.755 13.222125
55.760 13.441167
55.765 13.170224
55.770 12.777591
55.775 13.226573
55.780 13.487913
55.785 13.232191
55.790 12.795417
55.795 12.734721
55.800 12.786333
55.805 12.650594
55.810 12.10938
55.815 12.175511
55.820 12.955648
55.825 13.440355
55.830 13.456062
55.835 13.723643
55.840 14.089192
55.845 14.133287
55.850 14.340407
55.855 13.866844
55.860 13.813835
55.865 13.604131
55.870 13.041026
55.875 12.85098
55.880 13.22661
55.885 12.974402
55.890 12.854255
55.895 12.745643
55.900 12.791132
55.905 13.141762
55.910 13.254297
55.915 12.670868
55.920 12.46281
55.925 12.243502
55.930 12.46931
55.935 12.788064
55.940 12.575497
55.945 13.019253
55.950 13.388741
55.955 13.458126
55.960 14.172722
55.965 13.853278
55.970 13.302532
55.975 13.198587
55.980 12.986292
55.985 12.957707
55.990 12.689686
55.995 12.617618
56.000 12.538935
56.005 12.573714
56.010 12.686106
56.015 12.639753
56.020 12.86919
56.025 12.980016
56.030 13.260238
56.035 13.610445
56.040 14.016621
56.045 13.981153
56.050 14.01497
56.055 13.914914
56.060 13.549811
56.065 13.326823
56.070 13.419693
56.075 13.466792
56.080 13.353479
56.085 13.295797
56.090 13.215591
56.095 13.264298
56.100 13.010933
56.105 12.788431
56.110 12.699151
56.115 12.486867
56.120 12.752499
56.125 13.180772
56.130 13.173453
56.135 12.612334
56.140 12.674798
56.145 12.859416
56.150 13.092193
56.155 12.823341
56.160 12.807448
56.165 13.423353
56.170 14.128613
56.175 14.319261
56.180 14.073524
56.185 13.830668
56.190 13.831943
56.195 13.317442
56.200 12.928328
56.205 12.377151
56.210 12.330997
56.215 12.581331
56.220 12.970447
56.225 13.42913
56.230 13.560671
56.235 13.877156
56.240 13.912663
56.245 13.926925
56.250 13.858385
56.255 13.767352
56.260 13.647874
56.265 13.411522
56.270 12.993048
56.275 12.874894
56.280 12.591488
56.285 12.510031
56.290 12.286062
56.295 12.567839
56.300 13.088012
56.305 13.846447
56.310 13.859431
56.315 14.003902
56.320 14.123916
56.325 14.366487
56.330 14.787942
56.335 14.981767
56.340 14.727478
56.345 14.849743
56.350 14.855178
56.355 14.643056
56.360 14.355569
56.365 13.816207
56.370 13.279013
56.375 13.255953
56.380 13.053063
56.385 13.036473
56.390 13.351994
56.395 13.33813
56.400 13.304756
56.405 13.742563
56.410 13.760153
56.415 13.925089
56.420 13.903782
56.425 13.754746
56.430 13.978354
56.435 14.302982
56.440 13.967012
56.445 14.017897
56.450 14.310197
56.455 14.776827
56.460 14.447536
56.465 14.248007
56.470 14.381961
56.475 14.801557
56.480 14.841464
56.485 14.852811
56.490 14.779789
56.495 14.852826
56.500 14.609315
56.505 14.096269
56.510 13.952444
56.515 14.20431
56.520 14.503402
56.525 14.615259
56.530 14.342842
56.535 14.25814
56.540 14.737503
56.545 14.436976
56.550 14.046607
56.555 13.783493
56.560 13.882104
56.565 13.927919
56.570 13.935091
56.575 13.407694
56.580 13.97681
56.585 13.556005
56.590 13.23672
56.595 13.587049
56.600 13.948401
56.605 14.22416
56.610 14.626618
56.615 14.490245
56.620 14.799786
56.625 14.934173
56.630 14.513894
56.635 14.260847
56.640 13.860341
56.645 13.177792
56.650 13.066231
56.655 13.519419
56.660 13.364818
56.665 13.073635
56.670 13.350625
56.675 13.880699
56.680 14.633496
56.685 14.575531
56.690 14.394841
56.695 14.553362
56.700 15.184676
56.705 15.053197
56.710 14.840538
56.715 14.628049
56.720 14.24546
56.725 13.827796
56.730 13.827642
56.735 13.303364
56.740 12.88317
56.745 12.674554
56.750 13.128889
56.755 13.65661
56.760 13.963061
56.765 14.605813
56.770 14.70466
56.775 15.112395
56.780 15.048233
56.785 14.735075
56.790 14.351983
56.795 14.137332
56.800 13.170214
56.805 13.250976
56.810 13.398965
56.815 13.74623
56.820 13.811601
56.825 14.147279
56.830 14.604954
56.835 14.825148
56.840 14.856943
56.845 14.154646
56.850 14.133459
56.855 14.140207
56.860 13.857341
56.865 13.853475
56.870 14.101033
56.875 13.644705
56.880 13.778165
56.885 13.745093
56.890 14.005836
56.895 13.660061
56.900 13.418937
56.905 13.34542
56.910 13.597089
56.915 13.769586
56.920 13.803924
56.925 14.234516
56.930 14.657612
56.935 15.184675
56.940 15.013954
56.945 15.08964
56.950 14.81047
56.955 14.44001
56.960 14.171307
56.965 13.881672
56.970 14.179371
56.975 14.981075
56.980 14.99328
56.985 15.123229
56.990 15.248588
56.995 15.253815
57.000 15.092356
57.005 14.325274
57.010 14.165483
57.015 14.700773
57.020 14.8974
57.025 14.553842
57.030 14.117431
57.035 14.384816
57.040 14.695477
57.045 14.93625
57.050 14.596251
57.055 14.181052
57.060 14.767304
57.065 15.083871
57.070 14.437757
57.075 14.280721
57.080 13.676714
57.085 13.75817
57.090 13.695073
57.095 13.559
57.100 13.535096
57.105 13.873326
57.110 14.060897
57.115 13.799391
57.120 13.424772
57.125 13.582601
57.130 14.173701
57.135 14.238471
57.140 14.435899
57.145 14.139202
57.150 14.469465
57.155 14.947573
57.160 14.561836
57.165 13.883782
57.170 14.433149
57.175 14.312193
57.180 14.54523
57.185 14.472263
57.190 14.526379
57.195 15.115146
57.200 14.912594
57.205 14.812401
57.210 15.139483
57.215 15.422543
57.220 15.508162
57.225 14.882438
57.230 14.774774
57.235 14.819407
57.240 14.607911
57.245 14.837881
57.250 14.345051
57.255 14.215844
57.260 14.905322
57.265 15.53723
57.270 15.9188
57.275 15.634854
57.280 14.630664
57.285 14.557876
57.290 14.528106
57.295 13.859774
57.300 13.556007
57.305 13.435882
57.310 13.665281
57.315 14.559209
57.320 15.171889
57.325 16.008261
57.330 16.856508
57.335 16.437677
57.340 16.15897
57.345 16.108522
57.350 16.390724
57.355 15.78114
57.360 15.066253
57.365 14.73232
57.370 14.72903
57.375 14.993328
57.380 14.888522
57.385 14.727486
57.390 15.396728
57.395 15.189022
57.400 14.828753
57.405 14.710767
57.410 14.329196
57.415 14.281837
57.420 14.599243
57.425 14.607246
57.430 14.784007
57.435 15.127315
57.440 15.749727
57.445 16.299173
57.450 16.959707
57.455 17.124323
57.460 17.853527
57.465 17.926674
57.470 17.601963
57.475 17.143854
57.480 16.986244
57.485 16.346308
57.490 15.386352
57.495 14.694765
57.500 14.830003
57.505 15.037667
57.510 15.697092
57.515 16.092075
57.520 16.15839
57.525 16.59024
57.530 17.186903
57.535 17.29945
57.540 17.197166
57.545 16.629812
57.550 15.982768
57.555 15.957506
57.560 15.820178
57.565 15.485461
57.570 15.179027
57.575 15.561939
57.580 15.782342
57.585 16.519596
57.590 16.92296
57.595 16.572485
57.600 17.090481
57.605 17.421036
57.610 17.110193
57.615 16.961058
57.620 16.696241
57.625 16.330544
57.630 16.438881
57.635 15.773316
57.640 15.56904
57.645 15.949058
57.650 15.845582
57.655 15.526055
57.660 15.015191
57.665 15.21575
57.670 15.734783
57.675 15.744276
57.680 15.874111
57.685 16.511627
57.690 16.97447
57.695 18.230034
57.700 18.440113
57.705 18.071705
57.710 18.022835
57.715 17.726789
57.720 17.483067
57.725 17.235826
57.730 16.984186
57.735 16.953974
57.740 17.545807
57.745 17.372374
57.750 17.712158
57.755 17.744564
57.760 17.791006
57.765 17.329235
57.770 17.044851
57.775 16.956772
57.780 17.25518
57.785 16.857119
57.790 16.694845
57.795 16.929291
57.800 16.821814
57.805 16.876293
57.810 17.101185
57.815 16.960241
57.820 16.881901
57.825 16.730293
57.830 16.782871
57.835 17.183071
57.840 16.625097
57.845 16.657602
57.850 17.518866
57.855 17.634207
57.860 17.905127
57.865 18.094486
57.870 18.590145
57.875 19.57295
57.880 18.928282
57.885 18.121983
57.890 18.219093
57.895 18.12018
57.900 17.577139
57.905 16.91378
57.910 17.149281
57.915 17.74651
57.920 18.176756
57.925 18.023815
57.930 18.189554
57.935 18.264637
57.940 18.02186
57.945 17.143465
57.950 17.010204
57.955 16.907042
57.960 16.710075
57.965 16.809002
57.970 17.30106
57.975 17.801466
57.980 17.843721
57.985 17.862844
57.990 18.033211
57.995 18.748919
58.000 18.227253
58.005 17.633955
58.010 17.272011
58.015 17.215033
58.020 16.831995
58.025 16.88438
58.030 17.009033
58.035 17.386005
58.040 18.427931
58.045 18.326084
58.050 18.532925
58.055 18.863865
58.060 18.436056
58.065 18.139486
58.070 17.916822
58.075 17.295441
58.080 17.970543
58.085 17.58008
58.090 17.41457
58.095 17.445278
58.100 17.902933
58.105 18.669151
58.110 19.025705
58.115 19.357664
58.120 19.483206
58.125 19.781914
58.130 19.857246
58.135 19.059116
58.140 18.284111
58.145 17.904593
58.150 17.193747
58.155 17.616615
58.160 17.213255
58.165 17.261578
58.170 17.932497
58.175 18.427654
58.180 18.333282
58.185 18.231518
58.190 18.269432
58.195 18.585604
58.200 19.425621
58.205 19.844208
58.210 19.788548
58.215 20.086859
58.220 20.363701
58.225 20.062101
58.230 20.521542
58.235 19.626532
58.240 19.465767
58.245 19.742613
58.250 20.04126
58.255 20.729628
58.260 21.080587
58.265 20.763958
58.270 21.041401
58.275 21.202795
58.280 21.364607
58.285 21.753275
58.290 21.325745
58.295 21.103662
58.300 21.866396
58.305 22.337681
58.310 22.111929
58.315 21.815212
58.320 21.867949
58.325 23.037138
58.330 23.859816
58.335 23.996414
58.340 23.564056
58.345 24.088301
58.350 24.995808
58.355 25.015715
58.360 25.220936
58.365 25.153622
58.370 25.260912
58.375 26.499407
58.380 26.515446
58.385 26.521568
58.390 26.50729
58.395 26.339453
58.400 26.148876
58.405 26.337
58.410 26.361532
58.415 26.542818
58.420 26.75844
58.425 26.637384
58.430 26.915482
58.435 27.425316
58.440 27.105755
58.445 27.102108
58.450 28.097685
