!@!!GADDS PLOTSO FILE: Chi integration type
!@!!Title/SampleName: map-11f
!@!!Comment: ?
!@!!User: Bruker Instrument Administrator
!@!!Site: University of Illinois Chicago
!@!!Frame: map-11f_01_000.gfrm
!@!!Wavelengths    1.54184   1.54056   1.54439
!@!!Frame angles: 2Theta: 63.000 Omega: 50.000 Phi: 0.000 Chi: 90.000
!@!!Integration range: 2Theta: 53.000 to 73.000  Gamma: -105.000 to -75.000
!@!!Integration method: bin normalized
!@!N
!@!SS
!@!M
!@!L 0.0 0.0 0.0 0.0
!@!XDegrees
!@!YCounts
53.000 5.189744
53.005 5.328436
53.010 4.99172
53.015 4.72087
53.020 4.665841
53.025 5.015321
53.030 5.440119
53.035 5.380524
53.040 5.362344
53.045 5.712036
53.050 5.739408
53.055 5.609
53.060 5.606941
53.065 5.527149
53.070 5.443353
53.075 5.36379
53.080 5.559512
53.085 6.030694
53.090 5.836141
53.095 5.581041
53.100 5.513634
53.105 5.539896
53.110 5.469156
53.115 4.949108
53.120 4.882774
53.125 4.99677
53.130 5.181555
53.135 5.40907
53.140 5.498593
53.145 5.511727
53.150 5.57054
53.155 5.762257
53.160 5.904073
53.165 5.659163
53.170 5.325223
53.175 5.134693
53.180 5.225215
53.185 5.249431
53.190 5.184373
53.195 5.383057
53.200 5.689297
53.205 5.850341
53.210 5.610786
53.215 5.347373
53.220 5.223667
53.225 4.834734
53.230 4.62079
53.235 4.358951
53.240 4.458423
53.245 4.669373
53.250 4.480773
53.255 4.664427
53.260 5.005662
53.265 5.570307
53.270 5.870674
53.275 5.796942
53.280 5.808877
53.285 5.896812
53.290 5.74516
53.295 5.640652
53.300 5.251636
53.305 5.186843
53.310 5.164407
53.315 5.263088
53.320 5.151667
53.325 5.090021
53.330 4.976942
53.335 5.051197
53.340 5.240224
53.345 5.349325
53.350 5.456753
53.355 5.757286
53.360 5.708822
53.365 5.644319
53.370 5.535715
53.375 5.570222
53.380 5.675949
53.385 6.134805
53.390 6.07094
53.395 6.308646
53.400 6.503393
53.405 6.304205
53.410 6.085716
53.415 6.033543
53.420 5.393116
53.425 5.714236
53.430 5.582073
53.435 5.577171
53.440 5.788918
53.445 5.937655
53.450 5.98986
53.455 5.905899
53.460 5.190127
53.465 4.901155
53.470 4.830781
53.475 4.691546
53.480 4.884973
53.485 5.053101
53.490 5.367905
53.495 5.929345
53.500 6.704421
53.505 6.910518
53.510 7.026487
53.515 6.646654
53.520 6.722216
53.525 6.96376
53.530 6.675438
53.535 6.6006
53.540 6.685323
53.545 6.70413
53.550 6.918856
53.555 6.455702
53.560 6.111248
53.565 5.91242
53.570 5.519564
53.575 5.208703
53.580 5.11248
53.585 4.705219
53.590 4.736198
53.595 4.611372
53.600 4.748654
53.605 4.807563
53.610 4.971282
53.615 5.214693
53.620 5.613923
53.625 6.206902
53.630 6.52114
53.635 6.298563
53.640 6.479068
53.645 6.230606
53.650 5.992353
53.655 5.785454
53.660 5.709605
53.665 5.706844
53.670 5.700589
53.675 5.455836
53.680 5.749637
53.685 5.982759
53.690 5.7779
53.695 5.429758
53.700 5.469536
53.705 5.693769
53.710 5.700032
53.715 5.662121
53.720 5.834109
53.725 6.368523
53.730 6.484348
53.735 6.621864
53.740 7.002861
53.745 7.169763
53.750 7.475784
53.755 7.260657
53.760 7.057517
53.765 6.751629
53.770 6.593215
53.775 6.064454
53.780 6.05302
53.785 5.873355
53.790 5.80967
53.795 5.768192
53.800 5.794282
53.805 5.80285
53.810 5.886465
53.815 5.563438
53.820 5.395024
53.825 5.527335
53.830 5.752853
53.835 6.023471
53.840 6.048923
53.845 6.140256
53.850 6.396248
53.855 6.274703
53.860 6.111627
53.865 6.052495
53.870 6.092166
53.875 6.618682
53.880 6.464146
53.885 6.314065
53.890 6.485042
53.895 6.548559
53.900 6.423598
53.905 6.26466
53.910 6.146162
53.915 6.137514
53.920 6.202221
53.925 6.450386
53.930 6.840046
53.935 6.734654
53.940 6.293676
53.945 6.278762
53.950 6.393014
53.955 6.576281
53.960 6.049349
53.965 5.962936
53.970 6.030212
53.975 5.885367
53.980 5.474192
53.985 5.380715
53.990 5.650773
53.995 6.359023
54.000 6.675524
54.005 6.762673
54.010 6.716951
54.015 6.843373
54.020 7.036551
54.025 6.808083
54.030 6.194013
54.035 6.00582
54.040 6.074274
54.045 6.375424
54.050 6.434375
54.055 6.084812
54.060 5.606417
54.065 5.509716
54.070 5.722808
54.075 5.944967
54.080 6.052683
54.085 6.459015
54.090 6.557359
54.095 6.461475
54.100 6.314332
54.105 6.373116
54.110 6.431976
54.115 6.237655
54.120 6.061345
54.125 6.12503
54.130 6.110076
54.135 6.273992
54.140 6.112807
54.145 6.097985
54.150 5.969723
54.155 6.065612
54.160 6.556525
54.165 6.905542
54.170 7.071023
54.175 7.00903
54.180 7.037832
54.185 7.011793
54.190 6.754461
54.195 6.571005
54.200 6.797415
54.205 6.877341
54.210 6.724581
54.215 7.144203
54.220 7.277725
54.225 7.799119
54.230 7.736452
54.235 7.438689
54.240 7.222863
54.245 7.137639
54.250 6.868693
54.255 6.641776
54.260 6.498045
54.265 6.121908
54.270 5.775319
54.275 6.033113
54.280 6.242917
54.285 6.24408
54.290 5.972274
54.295 6.053869
54.300 6.314523
54.305 6.179727
54.310 5.723527
54.315 5.236026
54.320 5.478949
54.325 5.352478
54.330 5.372304
54.335 5.544289
54.340 5.617711
54.345 5.900314
54.350 6.585952
54.355 6.735216
54.360 6.732593
54.365 6.802901
54.370 6.877995
54.375 6.792824
54.380 6.44851
54.385 6.00947
54.390 6.308138
54.395 6.164213
54.400 6.039513
54.405 6.168871
54.410 6.278294
54.415 6.68222
54.420 7.089779
54.425 6.684752
54.430 6.81304
54.435 6.975354
54.440 7.02442
54.445 6.991488
54.450 6.388852
54.455 5.846107
54.460 5.7125
54.465 5.675004
54.470 5.420943
54.475 5.615453
54.480 5.895113
54.485 6.131824
54.490 6.214133
54.495 6.493459
54.500 6.57822
54.505 6.646983
54.510 6.314567
54.515 6.64577
54.520 6.844426
54.525 6.947303
54.530 6.886456
54.535 6.817108
54.540 6.958584
54.545 7.037265
54.550 6.500588
54.555 6.372025
54.560 6.084593
54.565 5.908338
54.570 5.602424
54.575 5.376298
54.580 5.264985
54.585 5.658074
54.590 6.025878
54.595 6.441592
54.600 6.829701
54.605 7.342975
54.610 7.171283
54.615 7.078409
54.620 6.713358
54.625 6.421658
54.630 6.350258
54.635 6.284064
54.640 6.261161
54.645 6.931301
54.650 6.908036
54.655 7.306324
54.660 7.25445
54.665 6.936222
54.670 6.715092
54.675 6.661367
54.680 6.58466
54.685 6.678106
54.690 6.97361
54.695 7.229814
54.700 7.359325
54.705 7.506293
54.710 7.633931
54.715 7.541542
54.720 7.160847
54.725 6.715264
54.730 6.656846
54.735 6.616378
54.740 6.597356
54.745 6.504606
54.750 6.807204
54.755 7.140524
54.760 7.0766
54.765 7.274925
54.770 7.432635
54.775 7.275123
54.780 6.856693
54.785 6.656679
54.790 6.443634
54.795 6.579931
54.800 6.492396
54.805 6.243855
54.810 6.132497
54.815 6.182699
54.820 6.313426
54.825 6.51928
54.830 6.402781
54.835 6.421871
54.840 6.397766
54.845 6.760307
54.850 6.982194
54.855 7.149966
54.860 7.176738
54.865 7.279176
54.870 7.376753
54.875 7.608134
54.880 7.364562
54.885 6.99749
54.890 6.484009
54.895 6.347383
54.900 6.396865
54.905 6.346835
54.910 6.631705
54.915 6.979422
54.920 7.181506
54.925 7.42712
54.930 7.36401
54.935 7.778562
54.940 7.906961
54.945 7.792161
54.950 7.707735
54.955 7.571208
54.960 7.653746
54.965 7.419822
54.970 7.132498
54.975 7.065878
54.980 7.189196
54.985 6.840572
54.990 6.62484
54.995 6.499402
55.000 6.760933
55.005 6.82919
55.010 6.608344
55.015 6.31603
55.020 6.730772
55.025 7.218594
55.030 7.493217
55.035 7.408249
55.040 7.295021
55.045 7.444759
55.050 7.919599
55.055 7.797109
55.060 7.588307
55.065 7.231846
55.070 7.021235
55.075 6.992724
55.080 6.572537
55.085 6.094539
55.090 6.134158
55.095 6.2555
55.100 6.475573
55.105 6.208105
55.110 6.364133
55.115 6.21223
55.120 6.335489
55.125 6.386391
55.130 6.50171
55.135 7.046465
55.140 7.130498
55.145 7.153388
55.150 7.718191
55.155 8.155486
55.160 8.118824
55.165 8.08346
55.170 7.790141
55.175 7.820244
55.180 7.560082
55.185 7.217836
55.190 7.242026
55.195 7.173896
55.200 6.999141
55.205 7.057905
55.210 7.239528
55.215 7.664661
55.220 7.830412
55.225 7.729439
55.230 7.72876
55.235 7.76055
55.240 7.739823
55.245 7.599011
55.250 7.402573
55.255 7.27259
55.260 7.454481
55.265 7.584302
55.270 8.18549
55.275 8.268169
55.280 8.388621
55.285 8.180093
55.290 8.201573
55.295 8.228274
55.300 7.895668
55.305 7.175272
55.310 7.021444
55.315 7.002274
55.320 7.345123
55.325 7.044918
55.330 7.024815
55.335 7.732535
55.340 8.041183
55.345 7.812102
55.350 7.479033
55.355 7.383573
55.360 7.721731
55.365 7.330234
55.370 6.777569
55.375 6.419624
55.380 6.64395
55.385 7.02757
55.390 6.652834
55.395 6.533352
55.400 6.392845
55.405 6.146089
55.410 6.006503
55.415 5.703044
55.420 5.392691
55.425 5.435493
55.430 5.88549
55.435 6.086154
55.440 6.413106
55.445 6.742229
55.450 6.991429
55.455 7.042877
55.460 6.545396
55.465 6.506547
55.470 6.732086
55.475 7.070989
55.480 7.183215
55.485 7.444629
55.490 7.96918
55.495 8.263082
55.500 8.166966
55.505 8.227487
55.510 8.189367
55.515 8.133689
55.520 7.629155
55.525 7.179168
55.530 6.740473
55.535 6.618402
55.540 6.276402
55.545 5.700563
55.550 5.676111
55.555 5.832392
55.560 5.998236
55.565 5.839213
55.570 5.495207
55.575 5.694536
55.580 5.789789
55.585 5.971022
55.590 5.7856
55.595 5.916204
55.600 6.333629
55.605 6.480997
55.610 6.525203
55.615 6.635198
55.620 6.766604
55.625 6.810365
55.630 6.830432
55.635 6.707167
55.640 6.972225
55.645 7.243467
55.650 7.169929
55.655 7.091833
55.660 7.394961
55.665 7.382002
55.670 7.278671
55.675 7.179341
55.680 7.217496
55.685 7.446995
55.690 7.59085
55.695 7.801046
55.700 8.387263
55.705 8.268585
55.710 7.975982
55.715 7.787378
55.720 7.739676
55.725 7.481449
55.730 7.046901
55.735 6.433576
55.740 6.761285
55.745 7.089939
55.750 7.015643
55.755 6.961934
55.760 7.176789
55.765 7.381162
55.770 7.428844
55.775 7.174095
55.780 7.321218
55.785 7.423786
55.790 7.43401
55.795 7.351451
55.800 7.125054
55.805 7.28486
55.810 7.591282
55.815 7.460542
55.820 7.701145
55.825 7.470836
55.830 7.270268
55.835 7.421515
55.840 7.436075
55.845 7.086837
55.850 7.009312
55.855 6.94517
55.860 6.906462
55.865 7.008557
55.870 6.963401
55.875 6.851299
55.880 6.844828
55.885 7.165364
55.890 6.852703
55.895 6.930468
55.900 7.072273
55.905 6.892871
55.910 7.132049
55.915 6.88801
55.920 6.723775
55.925 6.932252
55.930 7.044529
55.935 7.045757
55.940 7.458535
55.945 7.739299
55.950 7.967995
55.955 7.979965
55.960 7.937946
55.965 7.749938
55.970 7.686202
55.975 6.791814
55.980 6.426838
55.985 6.634501
55.990 6.531954
55.995 6.815825
56.000 7.215369
56.005 7.364001
56.010 7.710634
56.015 7.696953
56.020 7.466525
56.025 7.494155
56.030 7.242867
56.035 7.434295
56.040 7.775225
56.045 8.000502
56.050 7.900199
56.055 7.721765
56.060 7.511868
56.065 7.269268
56.070 7.167717
56.075 7.042829
56.080 6.912201
56.085 6.7694
56.090 7.076149
56.095 7.450996
56.100 7.264962
56.105 7.039539
56.110 6.763895
56.115 7.083564
56.120 7.152183
56.125 6.833004
56.130 6.750247
56.135 7.070974
56.140 7.146971
56.145 7.335742
56.150 7.121334
56.155 7.713746
56.160 8.367044
56.165 8.518814
56.170 8.320954
56.175 8.681409
56.180 8.513815
56.185 8.385653
56.190 7.906475
56.195 7.426688
56.200 7.446747
56.205 7.502371
56.210 7.471782
56.215 7.629267
56.220 7.629197
56.225 7.788299
56.230 8.013309
56.235 8.049666
56.240 8.289184
56.245 8.208323
56.250 8.484537
56.255 8.462847
56.260 8.285786
56.265 7.818488
56.270 7.44005
56.275 6.957241
56.280 6.897667
56.285 6.601181
56.290 6.517237
56.295 6.573695
56.300 6.870063
56.305 7.494671
56.310 7.917718
56.315 7.992722
56.320 8.258008
56.325 8.344284
56.330 8.599351
56.335 8.774194
56.340 8.448301
56.345 8.333495
56.350 8.398721
56.355 8.563895
56.360 8.541397
56.365 8.759675
56.370 8.91764
56.375 8.733666
56.380 8.602942
56.385 8.014139
56.390 7.599226
56.395 7.787025
56.400 7.806867
56.405 7.669129
56.410 7.884013
56.415 7.675683
56.420 8.062504
56.425 8.363874
56.430 8.325016
56.435 7.955604
56.440 7.866044
56.445 7.912505
56.450 7.947656
56.455 7.738542
56.460 7.592199
56.465 7.432465
56.470 7.727751
56.475 7.419798
56.480 7.138258
56.485 7.47881
56.490 7.82799
56.495 8.197987
56.500 7.92358
56.505 7.932558
56.510 8.174232
56.515 8.455698
56.520 8.722708
56.525 8.777429
56.530 8.382437
56.535 8.488362
56.540 8.365388
56.545 8.637851
56.550 8.398383
56.555 8.074423
56.560 8.223425
56.565 8.463147
56.570 8.450779
56.575 8.203367
56.580 8.205023
56.585 8.295954
56.590 7.757354
56.595 7.732272
56.600 8.03517
56.605 8.06205
56.610 8.175304
56.615 8.207353
56.620 7.907905
56.625 8.345972
56.630 8.133486
56.635 7.840567
56.640 7.636558
56.645 7.35042
56.650 7.290652
56.655 7.571219
56.660 7.113864
56.665 7.278076
56.670 7.511425
56.675 7.934081
56.680 8.423906
56.685 8.4713
56.690 8.519562
56.695 8.647195
56.700 8.724994
56.705 8.421336
56.710 8.101566
56.715 8.09898
56.720 8.051873
56.725 8.185019
56.730 8.322269
56.735 8.54609
56.740 8.775252
56.745 8.970997
56.750 8.391774
56.755 8.62978
56.760 8.705958
56.765 8.237838
56.770 7.828247
56.775 8.033323
56.780 8.280159
56.785 8.545323
56.790 8.26756
56.795 8.177793
56.800 8.377962
56.805 8.189242
56.810 7.792046
56.815 7.449308
56.820 7.278213
56.825 7.188163
56.830 7.050834
56.835 6.688195
56.840 6.769614
56.845 6.764278
56.850 7.067842
56.855 7.105078
56.860 7.137414
56.865 7.235047
56.870 7.570798
56.875 7.599817
56.880 7.952784
56.885 7.97414
56.890 8.079405
56.895 8.653652
56.900 8.9587
56.905 9.142285
56.910 8.982997
56.915 8.75103
56.920 9.072994
56.925 9.07827
56.930 8.386374
56.935 7.827003
56.940 7.601826
56.945 8.055361
56.950 8.573914
56.955 8.429003
56.960 8.378998
56.965 8.887846
56.970 9.256456
56.975 9.32895
56.980 8.641652
56.985 7.902042
56.990 7.834091
56.995 8.205213
57.000 8.083756
57.005 8.247981
57.010 8.103524
57.015 7.765668
57.020 7.53613
57.025 7.686706
57.030 7.506086
57.035 7.558273
57.040 7.72876
57.045 8.189638
57.050 8.654372
57.055 8.732313
57.060 8.789865
57.065 8.801837
57.070 8.417066
57.075 8.321004
57.080 8.155046
57.085 7.900312
57.090 7.887774
57.095 7.659864
57.100 8.15431
57.105 8.876354
57.110 9.05399
57.115 8.769657
57.120 8.608219
57.125 8.712647
57.130 8.221241
57.135 7.771338
57.140 7.211233
57.145 6.874534
57.150 7.433945
57.155 7.810856
57.160 7.884946
57.165 8.235616
57.170 7.685991
57.175 7.585517
57.180 7.410625
57.185 7.100041
57.190 7.218745
57.195 7.240016
57.200 7.167268
57.205 7.828489
57.210 8.275419
57.215 8.064741
57.220 7.884052
57.225 7.950634
57.230 8.107458
57.235 8.161441
57.240 7.764904
57.245 7.931723
57.250 8.654451
57.255 8.9674
57.260 8.794933
57.265 8.869783
57.270 9.082629
57.275 9.103225
57.280 8.45561
57.285 8.456383
57.290 8.534899
57.295 8.486889
57.300 8.148415
57.305 8.271067
57.310 8.549609
57.315 8.840907
57.320 8.905833
57.325 9.096651
57.330 9.091898
57.335 9.560538
57.340 9.434109
57.345 9.342493
57.350 9.456621
57.355 9.315642
57.360 9.572955
57.365 9.894832
57.370 9.990709
57.375 10.457384
57.380 10.289687
57.385 10.058567
57.390 9.678119
57.395 9.5238
57.400 9.461136
57.405 9.121459
57.410 8.958704
57.415 9.085272
57.420 9.265452
57.425 9.310732
57.430 9.326221
57.435 9.10752
57.440 9.049009
57.445 9.004956
57.450 9.473323
57.455 9.743226
57.460 10.218904
57.465 10.218226
57.470 10.443213
57.475 10.520477
57.480 10.146212
57.485 9.613027
57.490 9.336665
57.495 8.973159
57.500 8.595567
57.505 8.219453
57.510 8.039826
57.515 8.463236
57.520 8.782434
57.525 8.779376
57.530 8.917798
57.535 9.2005
57.540 9.079936
57.545 9.059403
57.550 9.051558
57.555 9.066814
57.560 8.737505
57.565 8.447289
57.570 8.418885
57.575 8.743787
57.580 9.026899
57.585 8.829274
57.590 8.839335
57.595 8.960478
57.600 9.169638
57.605 9.3263
57.610 9.459552
57.615 9.225538
57.620 9.048309
57.625 8.962241
57.630 8.722654
57.635 8.035763
57.640 7.721365
57.645 7.188792
57.650 7.468693
57.655 7.789212
57.660 7.946027
57.665 8.546756
57.670 8.972272
57.675 9.121296
57.680 9.495408
57.685 8.998261
57.690 8.953504
57.695 8.893057
57.700 8.973872
57.705 9.113057
57.710 9.155977
57.715 9.072055
57.720 9.589581
57.725 9.388062
57.730 9.327861
57.735 9.006856
57.740 8.88028
57.745 8.934383
57.750 9.144114
57.755 8.791617
57.760 8.842375
57.765 8.683468
57.770 8.431135
57.775 8.483208
57.780 8.817198
57.785 8.422812
57.790 8.758494
57.795 8.902218
57.800 8.927438
57.805 9.257939
57.810 9.239216
57.815 9.103862
57.820 9.29711
57.825 9.251335
57.830 9.44289
57.835 9.367728
57.840 9.275989
57.845 9.519745
57.850 9.501099
57.855 9.675327
57.860 9.729671
57.865 9.682178
57.870 10.050442
57.875 10.26651
57.880 9.756639
57.885 9.622337
57.890 9.392461
57.895 8.88931
57.900 8.569048
57.905 8.391003
57.910 8.060668
57.915 8.156968
57.920 8.293172
57.925 8.11594
57.930 8.275729
57.935 8.718437
57.940 9.046022
57.945 9.615121
57.950 9.711744
57.955 9.453964
57.960 9.466214
57.965 9.392351
57.970 9.011614
57.975 8.528754
57.980 8.318306
57.985 8.935132
57.990 9.539447
57.995 9.903354
58.000 10.502603
58.005 10.780106
58.010 11.13467
58.015 11.587215
58.020 11.060463
58.025 10.714523
58.030 10.605252
58.035 10.135302
58.040 10.423273
58.045 10.515674
58.050 10.06152
58.055 9.85532
58.060 10.130933
58.065 9.982987
58.070 9.924022
58.075 9.502055
58.080 9.140115
58.085 9.06945
58.090 8.930228
58.095 9.063727
58.100 9.243877
58.105 9.288627
58.110 8.772566
58.115 8.50329
58.120 8.599392
58.125 8.825897
58.130 8.802783
58.135 8.894761
58.140 9.019133
58.145 9.585339
58.150 9.784183
58.155 9.591951
58.160 9.497453
58.165 9.180064
58.170 9.210404
58.175 9.447522
58.180 9.702589
58.185 9.977036
58.190 9.922423
58.195 9.629646
58.200 9.553454
58.205 9.451151
58.210 9.542886
58.215 9.199713
58.220 8.917709
58.225 8.942824
58.230 9.663754
58.235 10.002765
58.240 9.817353
58.245 10.04426
58.250 10.584915
58.255 11.092866
58.260 11.375582
58.265 10.943109
58.270 10.962557
58.275 11.064634
58.280 11.015453
58.285 10.986207
58.290 11.153292
58.295 11.21962
58.300 11.696542
58.305 11.558203
58.310 11.74807
58.315 11.903249
58.320 11.791212
58.325 11.578568
58.330 11.953531
58.335 12.058969
58.340 12.146541
58.345 11.98266
58.350 11.796593
58.355 11.876696
58.360 11.937363
58.365 11.661272
58.370 11.713502
58.375 12.322452
58.380 12.182015
58.385 11.918876
58.390 12.054238
58.395 12.577668
58.400 12.917351
58.405 12.655167
58.410 12.536982
58.415 13.153857
58.420 14.434605
58.425 15.003469
58.430 15.323977
58.435 15.456825
58.440 15.837179
58.445 15.921924
58.450 15.557853
58.455 14.444351
58.460 14.08303
58.465 14.036176
58.470 14.423364
58.475 14.60338
58.480 14.6591
58.485 15.396823
58.490 16.118008
58.495 16.162233
58.500 15.611873
58.505 15.143177
58.510 14.526697
58.515 15.034777
58.520 14.402731
58.525 14.58066
58.530 14.980918
58.535 15.372047
58.540 15.876881
58.545 16.214434
58.550 15.717704
58.555 16.279327
58.560 15.759104
58.565 15.151166
58.570 14.867719
58.575 14.833799
58.580 15.27638
58.585 15.435163
58.590 15.396751
58.595 15.854086
58.600 16.67074
58.605 17.043682
58.610 17.11363
58.615 16.504225
58.620 16.257196
58.625 16.01536
58.630 15.659678
58.635 14.719743
58.640 14.027638
58.645 13.714937
58.650 13.476048
58.655 13.74862
58.660 13.412539
58.665 13.533351
58.670 14.050781
58.675 14.232871
58.680 14.394838
58.685 14.74306
58.690 14.595001
58.695 14.608012
58.700 14.43199
58.705 13.908473
58.710 13.938316
58.715 13.998137
58.720 14.367295
58.725 14.045792
58.730 13.630916
