!@!!GADDS PLOTSO FILE: Chi integration type
!@!!Title/SampleName: map-b4
!@!!Comment: ?
!@!!User: Bruker Instrument Administrator
!@!!Site: University of Illinois Chicago
!@!!Frame: map-b4_01_000.gfrm
!@!!Wavelengths    1.54184   1.54056   1.54439
!@!!Frame angles: 2Theta: 63.000 Omega: 50.000 Phi: 0.000 Chi: 90.000
!@!!Integration range: 2Theta: 53.000 to 73.000  Gamma: -105.000 to -75.000
!@!!Integration method: bin normalized
!@!N
!@!SS
!@!M
!@!L 0.0 0.0 0.0 0.0
!@!XDegrees
!@!YCounts
53.000 9.035815
53.005 9.06102
53.010 9.338895
53.015 9.087782
53.020 8.695211
53.025 8.670341
53.030 8.767957
53.035 8.925806
53.040 8.872679
53.045 8.536429
53.050 8.159309
53.055 8.159633
53.060 8.067759
53.065 7.972085
53.070 7.784928
53.075 7.825967
53.080 8.099929
53.085 8.780464
53.090 8.815372
53.095 8.914469
53.100 8.981277
53.105 9.165433
53.110 9.211132
53.115 9.731343
53.120 9.680929
53.125 9.713227
53.130 9.192728
53.135 8.983843
53.140 9.054277
53.145 8.962916
53.150 8.086181
53.155 7.48893
53.160 7.809897
53.165 8.318957
53.170 8.875246
53.175 8.976045
53.180 8.381545
53.185 8.533048
53.190 8.558661
53.195 8.13737
53.200 7.907384
53.205 7.18091
53.210 7.053478
53.215 7.18692
53.220 7.366481
53.225 7.758186
53.230 8.028035
53.235 8.34683
53.240 8.136393
53.245 8.045553
53.250 8.131145
53.255 8.208226
53.260 8.129823
53.265 7.764939
53.270 7.396117
53.275 7.866334
53.280 8.373169
53.285 8.742534
53.290 8.457371
53.295 8.552477
53.300 8.69387
53.305 8.923103
53.310 8.770649
53.315 8.258667
53.320 8.164423
53.325 8.068335
53.330 7.719808
53.335 7.750057
53.340 7.475336
53.345 7.416812
53.350 7.60934
53.355 7.84265
53.360 8.027214
53.365 8.284456
53.370 8.673681
53.375 9.31865
53.380 9.489577
53.385 9.29348
53.390 9.108905
53.395 8.912446
53.400 9.004054
53.405 8.644007
53.410 8.342047
53.415 8.55051
53.420 8.912007
53.425 9.096039
53.430 9.079109
53.435 8.893144
53.440 9.243073
53.445 9.365504
53.450 8.833485
53.455 8.494552
53.460 8.372309
53.465 8.375777
53.470 8.04598
53.475 7.793186
53.480 7.660737
53.485 8.008148
53.490 8.41114
53.495 8.440093
53.500 8.570657
53.505 8.461763
53.510 8.397684
53.515 8.779665
53.520 8.338621
53.525 8.534374
53.530 8.739375
53.535 9.195794
53.540 9.180918
53.545 8.970055
53.550 8.925601
53.555 9.091858
53.560 8.708889
53.565 8.463975
53.570 8.695065
53.575 9.112789
53.580 9.086301
53.585 8.905816
53.590 9.16923
53.595 9.177413
53.600 8.978892
53.605 8.885767
53.610 9.137365
53.615 9.27605
53.620 9.090724
53.625 8.908674
53.630 8.901579
53.635 8.729018
53.640 8.482628
53.645 8.128328
53.650 8.299489
53.655 8.133764
53.660 8.20759
53.665 8.266879
53.670 8.359133
53.675 8.335747
53.680 8.210809
53.685 8.193525
53.690 8.429303
53.695 8.70883
53.700 8.727955
53.705 8.629644
53.710 8.321404
53.715 8.155938
53.720 7.987456
53.725 7.880591
53.730 7.426993
53.735 7.719775
53.740 8.208929
53.745 8.56375
53.750 8.987947
53.755 9.483279
53.760 9.77267
53.765 10.389157
53.770 10.117055
53.775 10.123972
53.780 10.401084
53.785 9.953425
53.790 10.073577
53.795 9.630177
53.800 9.325356
53.805 9.385746
53.810 8.841721
53.815 8.923028
53.820 8.735311
53.825 8.535278
53.830 8.541259
53.835 8.492674
53.840 8.527872
53.845 8.307432
53.850 8.351537
53.855 8.652692
53.860 8.686852
53.865 8.79614
53.870 8.775744
53.875 8.595979
53.880 8.902367
53.885 8.840533
53.890 8.607952
53.895 8.900392
53.900 8.815811
53.905 8.980044
53.910 9.509058
53.915 9.58292
53.920 10.026217
53.925 10.015638
53.930 10.438196
53.935 10.194076
53.940 9.827256
53.945 9.409722
53.950 9.13181
53.955 8.839598
53.960 9.310262
53.965 9.219869
53.970 9.148312
53.975 9.358942
53.980 9.536734
53.985 9.277351
53.990 8.954774
53.995 8.170805
54.000 7.742016
54.005 7.952974
54.010 8.275257
54.015 8.599365
54.020 9.071306
54.025 9.19214
54.030 9.510283
54.035 9.9132
54.040 10.152477
54.045 9.842983
54.050 9.646642
54.055 9.379116
54.060 9.310553
54.065 9.235763
54.070 9.177623
54.075 9.152981
54.080 9.585943
54.085 9.730708
54.090 9.594421
54.095 9.365355
54.100 9.83449
54.105 9.815453
54.110 9.603576
54.115 9.434039
54.120 9.980297
54.125 10.623055
54.130 11.244112
54.135 11.052209
54.140 11.295115
54.145 11.497758
54.150 11.358792
54.155 10.980476
54.160 10.90853
54.165 10.509477
54.170 10.44334
54.175 10.089522
54.180 9.577975
54.185 9.438375
54.190 9.462174
54.195 9.259902
54.200 8.725818
54.205 8.189773
54.210 8.40755
54.215 8.433327
54.220 8.611575
54.225 9.388846
54.230 9.945278
54.235 10.666481
54.240 11.446581
54.245 11.268963
54.250 11.352664
54.255 10.75484
54.260 10.226336
54.265 10.118965
54.270 9.938228
54.275 9.686432
54.280 9.705298
54.285 10.045239
54.290 10.150367
54.295 9.788502
54.300 9.480741
54.305 10.042083
54.310 10.175899
54.315 10.493972
54.320 10.405879
54.325 10.20335
54.330 10.267503
54.335 10.217946
54.340 9.994398
54.345 9.689635
54.350 9.540786
54.355 9.26953
54.360 9.222755
54.365 9.221866
54.370 8.684793
54.375 8.724557
54.380 8.659796
54.385 8.738115
54.390 8.908507
54.395 8.74931
54.400 8.859805
54.405 9.353765
54.410 9.498608
54.415 9.727059
54.420 9.901668
54.425 10.263762
54.430 10.228036
54.435 10.357752
54.440 9.795005
54.445 9.269169
54.450 8.759783
54.455 8.491036
54.460 8.455347
54.465 9.073494
54.470 9.126547
54.475 9.50783
54.480 9.815405
54.485 10.163485
54.490 10.061247
54.495 10.059518
54.500 9.899705
54.505 9.593283
54.510 9.725707
54.515 9.701413
54.520 9.886595
54.525 10.006169
54.530 9.89066
54.535 9.822136
54.540 10.100494
54.545 10.032278
54.550 10.100098
54.555 10.245345
54.560 10.174112
54.565 10.677929
54.570 10.851202
54.575 10.601639
54.580 10.363815
54.585 10.345729
54.590 10.21796
54.595 10.253496
54.600 9.598351
54.605 9.367143
54.610 9.789099
54.615 9.856339
54.620 9.653634
54.625 9.817741
54.630 10.045691
54.635 10.689151
54.640 10.571657
54.645 10.738141
54.650 10.767151
54.655 10.609846
54.660 10.916327
54.665 10.725094
54.670 10.714766
54.675 10.454638
54.680 10.578456
54.685 10.417653
54.690 10.404155
54.695 9.773551
54.700 9.477546
54.705 9.694227
54.710 9.717043
54.715 9.434307
54.720 9.726858
54.725 9.761966
54.730 10.147985
54.735 10.441505
54.740 10.107563
54.745 9.87542
54.750 9.922868
54.755 9.737177
54.760 9.77716
54.765 9.63981
54.770 9.658203
54.775 9.708375
54.780 10.33057
54.785 10.485206
54.790 10.633481
54.795 10.879977
54.800 10.744759
54.805 10.891633
54.810 11.327665
54.815 11.631131
54.820 11.812895
54.825 11.548533
54.830 11.528357
54.835 11.394676
54.840 11.095693
54.845 10.199735
54.850 9.999851
54.855 10.339696
54.860 10.820247
54.865 11.077888
54.870 11.386745
54.875 11.398613
54.880 11.975851
54.885 11.509467
54.890 11.160325
54.895 10.714272
54.900 9.701513
54.905 9.569333
54.910 9.370485
54.915 9.694589
54.920 9.838801
54.925 9.478663
54.930 9.647577
54.935 10.008214
54.940 10.399428
54.945 10.288302
54.950 10.100062
54.955 9.764277
54.960 9.613755
54.965 10.216067
54.970 10.475268
54.975 10.181299
54.980 10.40897
54.985 10.327758
54.990 10.604901
54.995 10.891767
55.000 10.594906
55.005 11.019082
55.010 11.126176
55.015 11.141724
55.020 11.366566
55.025 11.338962
55.030 11.295299
55.035 11.610253
55.040 11.643119
55.045 11.791205
55.050 11.471999
55.055 11.18147
55.060 11.003064
55.065 10.927024
55.070 10.282632
55.075 10.061703
55.080 10.289035
55.085 10.299808
55.090 10.666456
55.095 10.930265
55.100 10.529428
55.105 10.494163
55.110 10.049562
55.115 9.805458
55.120 9.9171
55.125 9.492855
55.130 9.550611
55.135 9.780749
55.140 9.714385
55.145 9.940949
55.150 10.058704
55.155 10.002873
55.160 10.326471
55.165 10.644427
55.170 11.187583
55.175 11.294187
55.180 11.658771
55.185 12.214163
55.190 12.686068
55.195 12.689216
55.200 12.066629
55.205 11.732699
55.210 11.85506
55.215 11.364782
55.220 11.183244
55.225 10.654054
55.230 10.454103
55.235 10.31996
55.240 10.189391
55.245 10.410263
55.250 10.292826
55.255 9.651963
55.260 10.07759
55.265 10.528775
55.270 11.040099
55.275 11.370819
55.280 11.374753
55.285 11.286736
55.290 11.44905
55.295 11.371696
55.300 11.492363
55.305 11.48856
55.310 10.960923
55.315 10.703305
55.320 11.059229
55.325 11.178201
55.330 10.966596
55.335 10.549698
55.340 10.27712
55.345 10.627456
55.350 10.837602
55.355 11.129158
55.360 11.558055
55.365 11.688913
55.370 11.899773
55.375 11.735111
55.380 11.74206
55.385 11.360185
55.390 10.535144
55.395 9.921748
55.400 9.794148
55.405 9.795345
55.410 10.437407
55.415 10.360958
55.420 10.590259
55.425 10.944697
55.430 10.635313
55.435 10.715425
55.440 10.746335
55.445 10.254369
55.450 10.342399
55.455 10.022363
55.460 9.800097
55.465 10.602295
55.470 10.873855
55.475 10.544077
55.480 10.909616
55.485 11.224963
55.490 12.011315
55.495 12.633139
55.500 12.707855
55.505 12.384339
55.510 12.480479
55.515 12.299647
55.520 12.101428
55.525 11.377958
55.530 10.812592
55.535 10.491345
55.540 10.840885
55.545 11.000998
55.550 11.086661
55.555 11.614804
55.560 12.195545
55.565 12.68425
55.570 12.422536
55.575 12.332688
55.580 12.79406
55.585 12.58789
55.590 11.986997
55.595 12.283163
55.600 12.003192
55.605 12.242143
55.610 12.154193
55.615 11.594246
55.620 11.558751
55.625 11.612088
55.630 10.639678
55.635 10.883097
55.640 10.631283
55.645 10.786483
55.650 10.632651
55.655 10.495377
55.660 10.473555
55.665 10.91983
55.670 10.669678
55.675 10.248937
55.680 9.442339
55.685 9.727803
55.690 9.757859
55.695 9.498636
55.700 9.394279
55.705 9.695524
55.710 10.17357
55.715 11.035776
55.720 11.055747
55.725 11.1289
55.730 10.838923
55.735 11.019601
55.740 11.144334
55.745 11.16275
55.750 10.86611
55.755 10.648521
55.760 10.881149
55.765 11.056187
55.770 10.371529
55.775 10.098728
55.780 9.9978
55.785 9.781817
55.790 10.009139
55.795 10.244895
55.800 10.453816
55.805 10.868997
55.810 10.820027
55.815 10.974087
55.820 11.413799
55.825 10.914922
55.830 10.98254
55.835 11.333845
55.840 11.567814
55.845 11.787068
55.850 12.051188
55.855 12.190599
55.860 12.757328
55.865 12.83997
55.870 12.998137
55.875 13.262558
55.880 13.14824
55.885 12.590522
55.890 12.667467
55.895 12.598364
55.900 12.769819
55.905 12.033709
55.910 11.693421
55.915 11.87105
55.920 11.893514
55.925 11.641777
55.930 11.662105
55.935 11.673517
55.940 11.944732
55.945 12.32169
55.950 12.590045
55.955 12.656237
55.960 12.201649
55.965 11.660909
55.970 11.386831
55.975 11.287259
55.980 10.436635
55.985 9.995243
55.990 9.650124
55.995 9.68259
56.000 9.574918
56.005 9.657396
56.010 9.807321
56.015 10.039987
56.020 10.410108
56.025 10.842972
56.030 10.694461
56.035 10.809036
56.040 11.225124
56.045 11.322917
56.050 11.45834
56.055 11.647209
56.060 11.737847
56.065 11.802962
56.070 11.714307
56.075 11.323639
56.080 11.664136
56.085 11.477885
56.090 11.156322
56.095 11.440143
56.100 11.496107
56.105 11.455943
56.110 11.627983
56.115 11.439405
56.120 11.565391
56.125 11.336553
56.130 11.478229
56.135 11.987329
56.140 11.892607
56.145 11.510038
56.150 11.5234
56.155 11.644244
56.160 11.968424
56.165 11.824845
56.170 11.977227
56.175 11.709068
56.180 11.606752
56.185 11.46909
56.190 11.473545
56.195 11.516198
56.200 11.790882
56.205 11.742229
56.210 12.288965
56.215 12.869648
56.220 12.649997
56.225 12.712381
56.230 13.086767
56.235 12.987725
56.240 13.182524
56.245 13.078873
56.250 12.653029
56.255 12.667302
56.260 12.912774
56.265 12.722794
56.270 12.536984
56.275 12.496696
56.280 12.063292
56.285 12.194721
56.290 12.377147
56.295 12.062772
56.300 12.410973
56.305 12.808293
56.310 12.552202
56.315 12.776471
56.320 12.833858
56.325 12.977856
56.330 12.855078
56.335 12.180336
56.340 11.747564
56.345 11.955854
56.350 12.597851
56.355 12.418694
56.360 11.689005
56.365 11.185955
56.370 11.17986
56.375 11.338597
56.380 10.767942
56.385 10.089024
56.390 10.63174
56.395 11.07352
56.400 11.765119
56.405 11.915094
56.410 11.686688
56.415 11.992675
56.420 12.170118
56.425 12.078462
56.430 12.702182
56.435 12.598463
56.440 12.670104
56.445 12.923814
56.450 13.079124
56.455 12.832885
56.460 12.497476
56.465 11.94241
56.470 11.517715
56.475 11.58442
56.480 11.606819
56.485 11.72082
56.490 12.341829
56.495 12.62421
56.500 13.401354
56.505 14.122237
56.510 13.513551
56.515 13.334535
56.520 13.430766
56.525 13.783893
56.530 13.65576
56.535 13.246335
56.540 12.788358
56.545 12.928424
56.550 13.247712
56.555 13.433534
56.560 13.374352
56.565 12.935363
56.570 12.404806
56.575 12.615008
56.580 12.755304
56.585 12.188266
56.590 11.551576
56.595 11.093637
56.600 11.385979
56.605 11.933847
56.610 11.949359
56.615 11.963059
56.620 12.635384
56.625 13.090794
56.630 12.994421
56.635 12.642067
56.640 12.257586
56.645 12.395464
56.650 12.144431
56.655 11.383167
56.660 11.441897
56.665 11.533334
56.670 12.180894
56.675 12.944239
56.680 13.420967
56.685 14.005564
56.690 14.067903
56.695 14.264241
56.700 14.660765
56.705 14.264167
56.710 13.614986
56.715 13.306735
56.720 13.09676
56.725 13.438659
56.730 13.71749
56.735 13.761095
56.740 13.592739
56.745 13.577896
56.750 13.626214
56.755 13.598475
56.760 13.165854
56.765 12.246062
56.770 12.267241
56.775 12.656713
56.780 12.779357
56.785 12.524995
56.790 12.68401
56.795 12.87106
56.800 13.186264
56.805 12.923923
56.810 12.560369
56.815 12.349312
56.820 12.19528
56.825 12.008743
56.830 12.141656
56.835 12.221055
56.840 12.506349
56.845 12.916522
56.850 13.115564
56.855 13.440677
56.860 13.466573
56.865 13.322112
56.870 13.11831
56.875 12.594957
56.880 12.181956
56.885 12.481563
56.890 12.161083
56.895 11.589876
56.900 11.194315
56.905 11.168633
56.910 11.657924
56.915 11.750063
56.920 11.244503
56.925 11.518015
56.930 11.659251
56.935 11.820536
56.940 12.102204
56.945 12.180381
56.950 12.235965
56.955 12.380673
56.960 12.893057
56.965 13.20169
56.970 13.26895
56.975 13.12651
56.980 12.950077
56.985 12.808946
56.990 13.234494
56.995 13.063601
57.000 13.34803
57.005 13.488351
57.010 13.383589
57.015 14.016595
57.020 14.166444
57.025 13.968015
57.030 13.802181
57.035 13.649007
57.040 13.930563
57.045 13.752664
57.050 13.485368
57.055 13.527033
57.060 13.146155
57.065 13.067537
57.070 13.065032
57.075 13.196275
57.080 12.953868
57.085 13.099503
57.090 12.988219
57.095 13.248389
57.100 13.354407
57.105 13.404082
57.110 13.301879
57.115 13.749885
57.120 13.246766
57.125 13.34826
57.130 13.853973
57.135 13.813432
57.140 13.742823
57.145 13.357285
57.150 13.307053
57.155 13.460821
57.160 13.13804
57.165 13.190691
57.170 13.138005
57.175 12.97121
57.180 12.903993
57.185 12.853303
57.190 13.2415
57.195 13.275721
57.200 13.101617
57.205 12.89212
57.210 12.796374
57.215 12.805925
57.220 12.604363
57.225 12.388586
57.230 12.303499
57.235 12.103541
57.240 12.487072
57.245 12.761741
57.250 12.73358
57.255 13.072215
57.260 13.349576
57.265 13.835082
57.270 14.115104
57.275 14.048129
57.280 14.238145
57.285 14.745619
57.290 14.278954
57.295 14.03263
57.300 13.399688
57.305 13.187915
57.310 13.017302
57.315 12.896783
57.320 12.935273
57.325 13.27199
57.330 12.854012
57.335 12.568769
57.340 12.394233
57.345 12.513995
57.350 12.712431
57.355 12.575459
57.360 12.541824
57.365 13.399348
57.370 13.746076
57.375 13.896389
57.380 13.688464
57.385 13.72915
57.390 14.221713
57.395 14.758317
57.400 14.720519
57.405 14.875349
57.410 15.253313
57.415 15.633284
57.420 15.012418
57.425 14.414479
57.430 13.712701
57.435 13.133516
57.440 12.762337
57.445 12.760017
57.450 12.731228
57.455 13.077171
57.460 13.107598
57.465 13.46164
57.470 13.695484
57.475 13.806926
57.480 13.607332
57.485 13.655434
57.490 13.917408
57.495 13.930881
57.500 13.650964
57.505 13.777803
57.510 13.771251
57.515 13.512762
57.520 13.228565
57.525 13.017757
57.530 12.92262
57.535 13.030803
57.540 12.855764
57.545 12.965775
57.550 12.898245
57.555 13.047428
57.560 13.153826
57.565 13.104719
57.570 12.795353
57.575 12.870929
57.580 12.814943
57.585 12.982938
57.590 12.986614
57.595 13.529509
57.600 14.044132
57.605 14.297409
57.610 14.48581
57.615 14.339752
57.620 14.143767
57.625 13.541756
57.630 12.529411
57.635 12.095349
57.640 12.209119
57.645 12.335104
57.650 12.598222
57.655 13.345403
57.660 13.770669
57.665 14.211899
57.670 14.545897
57.675 14.601166
57.680 14.631004
57.685 14.533843
57.690 14.778373
57.695 15.209269
57.700 15.128001
57.705 15.026625
57.710 14.961848
57.715 15.046632
57.720 14.897623
57.725 14.063836
57.730 13.642349
57.735 13.591858
57.740 13.771498
57.745 13.818845
57.750 13.748315
57.755 13.604318
57.760 13.422337
57.765 13.683053
57.770 13.608109
57.775 13.491948
57.780 13.440354
57.785 13.255511
57.790 13.68373
57.795 14.661814
57.800 14.968702
57.805 14.832603
57.810 14.614218
57.815 14.482345
57.820 14.596368
57.825 14.713291
57.830 14.22037
57.835 13.840142
57.840 13.846025
57.845 13.925786
57.850 14.299247
57.855 14.418085
57.860 13.64676
57.865 13.359012
57.870 13.524246
57.875 14.223558
57.880 14.50007
57.885 14.421198
57.890 14.801527
57.895 15.104994
57.900 15.2184
57.905 15.289253
57.910 14.786304
57.915 14.961236
57.920 14.740885
57.925 14.723648
57.930 15.405068
57.935 15.83772
57.940 15.666759
57.945 15.447049
57.950 15.851269
57.955 15.961896
57.960 15.484653
57.965 15.109212
57.970 15.119803
57.975 15.162828
57.980 15.400439
57.985 14.818391
57.990 14.578266
57.995 15.147584
58.000 15.051098
58.005 14.83919
58.010 15.282102
58.015 15.591872
58.020 15.999918
58.025 16.032251
58.030 16.1541
58.035 16.172243
58.040 16.248367
58.045 16.060312
58.050 15.868953
58.055 15.732167
58.060 15.91734
58.065 15.681981
58.070 15.551785
58.075 15.563915
58.080 15.937328
58.085 15.886004
58.090 15.642189
58.095 15.712107
58.100 15.753174
58.105 16.253994
58.110 16.370665
58.115 15.654941
58.120 15.223698
58.125 15.263756
58.130 15.0511
58.135 15.454916
58.140 15.272399
58.145 15.122341
58.150 15.851459
58.155 16.48702
58.160 16.711143
58.165 16.222137
58.170 15.795844
58.175 15.737332
58.180 16.031668
58.185 15.905772
58.190 15.498209
58.195 15.674
58.200 16.188383
58.205 16.030106
58.210 15.806411
58.215 14.776111
58.220 14.322576
58.225 14.007867
58.230 13.914991
58.235 13.859262
58.240 14.115459
58.245 14.631592
58.250 15.348289
58.255 15.829849
58.260 16.309061
58.265 16.623245
58.270 16.911488
58.275 16.555782
58.280 16.431986
58.285 16.811827
58.290 17.159454
58.295 17.164812
58.300 16.382566
58.305 15.954715
58.310 15.922883
58.315 15.384738
58.320 15.352435
58.325 15.256515
58.330 15.649064
58.335 16.270542
58.340 16.705381
58.345 17.078552
58.350 17.537275
58.355 17.482918
58.360 17.866741
58.365 17.832588
58.370 17.810905
58.375 18.05204
58.380 18.319345
58.385 18.422981
58.390 18.821854
58.395 18.454533
58.400 18.502937
58.405 18.277088
58.410 18.794909
58.415 18.661402
58.420 18.444183
58.425 18.268803
58.430 18.51458
58.435 18.518747
58.440 18.603539
58.445 18.219431
58.450 17.912931
58.455 18.574711
58.460 18.396166
58.465 18.564363
58.470 18.890436
58.475 18.455076
58.480 18.196371
58.485 19.0138
58.490 19.204824
58.495 19.351898
58.500 19.226767
58.505 19.758909
58.510 20.487806
58.515 20.956167
58.520 20.339485
58.525 20.105595
58.530 20.391708
