!@!!GADDS PLOTSO FILE: Chi integration type
!@!!Title/SampleName: map-d2
!@!!Comment: ?
!@!!User: Bruker Instrument Administrator
!@!!Site: University of Illinois Chicago
!@!!Frame: map-d2_01_000.gfrm
!@!!Wavelengths    1.54184   1.54056   1.54439
!@!!Frame angles: 2Theta: 63.000 Omega: 50.000 Phi: 0.000 Chi: 90.000
!@!!Integration range: 2Theta: 53.000 to 73.000  Gamma: -105.000 to -75.000
!@!!Integration method: bin normalized
!@!N
!@!SS
!@!M
!@!L 0.0 0.0 0.0 0.0
!@!XDegrees
!@!YCounts
53.000 10.287295
53.005 10.059027
53.010 9.929623
53.015 10.04237
53.020 10.415406
53.025 10.572021
53.030 10.387985
53.035 9.953259
53.040 9.85865
53.045 9.955498
53.050 9.719392
53.055 9.622138
53.060 9.281735
53.065 9.073895
53.070 9.025073
53.075 9.07518
53.080 9.046485
53.085 9.280557
53.090 9.226323
53.095 9.477012
53.100 9.649683
53.105 9.559348
53.110 10.22178
53.115 10.399082
53.120 9.928493
53.125 9.763284
53.130 9.417838
53.135 9.020984
53.140 8.806834
53.145 8.318234
53.150 8.315769
53.155 8.449597
53.160 9.006639
53.165 9.478729
53.170 9.879023
53.175 10.235646
53.180 10.100754
53.185 10.052374
53.190 9.922479
53.195 9.254919
53.200 9.190096
53.205 8.902959
53.210 8.928217
53.215 8.820857
53.220 8.995931
53.225 9.465027
53.230 9.665318
53.235 9.713475
53.240 9.398093
53.245 9.095501
53.250 8.954387
53.255 8.465399
53.260 7.955242
53.265 7.853009
53.270 8.078094
53.275 8.343178
53.280 8.457457
53.285 8.684384
53.290 8.838481
53.295 8.87192
53.300 9.231904
53.305 9.062464
53.310 8.80722
53.315 8.420297
53.320 9.109717
53.325 9.495423
53.330 9.806259
53.335 9.736409
53.340 9.970864
53.345 10.31977
53.350 10.224748
53.355 9.525844
53.360 9.102381
53.365 8.754931
53.370 8.406069
53.375 8.226762
53.380 8.174047
53.385 8.12947
53.390 8.162985
53.395 8.536896
53.400 8.697514
53.405 8.912138
53.410 9.013043
53.415 9.650356
53.420 10.034286
53.425 10.028998
53.430 10.076851
53.435 10.436951
53.440 10.614534
53.445 10.609838
53.450 10.661085
53.455 11.119569
53.460 11.308603
53.465 11.381394
53.470 11.116243
53.475 11.378563
53.480 11.18111
53.485 10.761417
53.490 10.207142
53.495 9.882543
53.500 9.69322
53.505 9.716872
53.510 9.049022
53.515 8.645843
53.520 8.187037
53.525 8.510427
53.530 8.23831
53.535 8.130497
53.540 8.246307
53.545 8.535038
53.550 8.562963
53.555 8.909155
53.560 9.068112
53.565 9.16432
53.570 9.24917
53.575 8.972919
53.580 9.2372
53.585 9.881676
53.590 9.84438
53.595 9.763281
53.600 10.68049
53.605 10.788722
53.610 10.737376
53.615 10.755051
53.620 10.398588
53.625 10.217708
53.630 10.109065
53.635 9.740415
53.640 9.815453
53.645 9.927893
53.650 9.959605
53.655 10.149842
53.660 10.108671
53.665 9.483565
53.670 9.601443
53.675 9.714354
53.680 9.745649
53.685 9.701354
53.690 9.704107
53.695 10.162075
53.700 10.295974
53.705 10.007412
53.710 9.826727
53.715 9.806363
53.720 9.851563
53.725 9.753484
53.730 9.755374
53.735 9.63513
53.740 9.630783
53.745 9.708467
53.750 9.167277
53.755 9.075377
53.760 9.305781
53.765 9.482445
53.770 9.628304
53.775 9.416631
53.780 9.417013
53.785 9.813771
53.790 9.815177
53.795 9.420176
53.800 9.616722
53.805 9.584804
53.810 10.106311
53.815 10.03762
53.820 9.806964
53.825 9.565782
53.830 9.446695
53.835 9.346052
53.840 9.968107
53.845 9.97556
53.850 10.085918
53.855 10.160902
53.860 9.710462
53.865 10.120988
53.870 9.496794
53.875 8.737765
53.880 8.567576
53.885 8.664639
53.890 8.80107
53.895 9.134586
53.900 9.576419
53.905 10.229323
53.910 10.223896
53.915 10.167542
53.920 9.957081
53.925 10.424509
53.930 10.469007
53.935 10.12624
53.940 10.050426
53.945 10.293839
53.950 10.499982
53.955 10.621969
53.960 11.074185
53.965 11.180552
53.970 11.619117
53.975 11.597447
53.980 11.600059
53.985 11.641745
53.990 11.579841
53.995 11.005315
54.000 10.797779
54.005 10.718589
54.010 11.034872
54.015 10.987424
54.020 11.029345
54.025 11.125866
54.030 10.624951
54.035 10.134461
54.040 9.582627
54.045 9.322635
54.050 9.475772
54.055 9.390984
54.060 9.348013
54.065 9.545573
54.070 9.567826
54.075 9.614249
54.080 9.949007
54.085 9.782531
54.090 9.915641
54.095 10.343156
54.100 10.602245
54.105 10.945582
54.110 11.097533
54.115 10.61205
54.120 10.771716
54.125 10.488375
54.130 10.104021
54.135 9.76932
54.140 9.774249
54.145 10.118806
54.150 10.168572
54.155 10.391859
54.160 10.48712
54.165 10.994675
54.170 11.52071
54.175 11.2632
54.180 11.367198
54.185 11.503776
54.190 11.05402
54.195 11.105823
54.200 11.626348
54.205 11.574087
54.210 11.633899
54.215 11.25258
54.220 11.129557
54.225 11.369193
54.230 11.163757
54.235 10.686546
54.240 10.292082
54.245 10.424245
54.250 10.477938
54.255 10.643503
54.260 10.570557
54.265 10.310354
54.270 10.348614
54.275 10.471005
54.280 10.142118
54.285 10.174694
54.290 10.020282
54.295 9.916883
54.300 9.997209
54.305 10.244077
54.310 10.233425
54.315 10.265398
54.320 10.351177
54.325 10.424906
54.330 10.573195
54.335 10.785585
54.340 10.748356
54.345 11.023822
54.350 10.982456
54.355 11.115713
54.360 11.156314
54.365 11.039173
54.370 11.273078
54.375 11.416035
54.380 11.191878
54.385 11.011716
54.390 10.625075
54.395 10.557543
54.400 10.159827
54.405 9.390846
54.410 8.737659
54.415 8.695578
54.420 9.022564
54.425 9.419967
54.430 9.481466
54.435 9.9809
54.440 10.642824
54.445 11.15475
54.450 11.694695
54.455 11.78119
54.460 11.824068
54.465 11.826187
54.470 11.376631
54.475 11.437622
54.480 11.463773
54.485 11.183364
54.490 10.997587
54.495 10.68821
54.500 10.656419
54.505 10.872914
54.510 10.462396
54.515 10.814496
54.520 10.673333
54.525 10.704712
54.530 11.132676
54.535 11.159904
54.540 11.027669
54.545 10.3866
54.550 10.08484
54.555 9.938674
54.560 9.846919
54.565 9.608539
54.570 9.723829
54.575 9.896317
54.580 10.752355
54.585 11.141595
54.590 11.217008
54.595 11.224751
54.600 11.097795
54.605 10.841053
54.610 11.07129
54.615 10.694847
54.620 10.390432
54.625 10.468484
54.630 10.518101
54.635 10.512517
54.640 10.968272
54.645 10.991708
54.650 11.383127
54.655 11.507125
54.660 11.345092
54.665 10.921815
54.670 11.070839
54.675 10.854168
54.680 10.487037
54.685 10.019687
54.690 10.137642
54.695 10.577699
54.700 10.886255
54.705 11.160485
54.710 10.997684
54.715 11.134751
54.720 11.034792
54.725 10.855555
54.730 10.900769
54.735 10.683326
54.740 10.438102
54.745 10.589781
54.750 11.283573
54.755 11.685958
54.760 11.836209
54.765 11.863889
54.770 12.359421
54.775 12.267829
54.780 11.919773
54.785 11.314992
54.790 10.809637
54.795 10.768893
54.800 10.539334
54.805 10.085061
54.810 9.673786
54.815 10.093982
54.820 10.492462
54.825 11.063648
54.830 11.159274
54.835 11.339334
54.840 11.764068
54.845 12.319611
54.850 12.603629
54.855 12.043734
54.860 11.36377
54.865 11.248061
54.870 11.15238
54.875 10.962572
54.880 10.989506
54.885 10.302107
54.890 10.356169
54.895 10.749587
54.900 10.357734
54.905 10.149228
54.910 10.044519
54.915 10.023038
54.920 10.726763
54.925 10.620178
54.930 10.562401
54.935 10.703944
54.940 11.128574
54.945 10.914864
54.950 10.272759
54.955 10.079572
54.960 10.318148
54.965 10.165018
54.970 10.574523
54.975 10.342673
54.980 10.359096
54.985 10.706861
54.990 10.810518
54.995 10.632898
55.000 10.870441
55.005 10.783834
55.010 10.857523
55.015 11.133866
55.020 11.250978
55.025 11.64132
55.030 11.922428
55.035 11.958868
55.040 11.986243
55.045 12.307862
55.050 12.434022
55.055 12.250183
55.060 11.68821
55.065 11.507257
55.070 11.33393
55.075 11.138537
55.080 11.132719
55.085 10.934865
55.090 10.878296
55.095 10.80652
55.100 10.81765
55.105 10.703886
55.110 11.014576
55.115 11.097788
55.120 11.230454
55.125 11.666946
55.130 11.962754
55.135 12.11618
55.140 12.378402
55.145 11.637585
55.150 11.43993
55.155 11.187337
55.160 11.088378
55.165 11.175902
55.170 11.346172
55.175 11.515916
55.180 12.122148
55.185 12.267249
55.190 11.962885
55.195 12.077882
55.200 12.17155
55.205 12.095036
55.210 11.820546
55.215 11.51462
55.220 11.327912
55.225 11.50338
55.230 10.887319
55.235 10.800908
55.240 10.75261
55.245 10.977792
55.250 11.329737
55.255 11.75932
55.260 11.31511
55.265 11.190415
55.270 11.13115
55.275 11.095924
55.280 10.878549
55.285 10.881318
55.290 11.006278
55.295 11.420543
55.300 11.570228
55.305 11.202567
55.310 11.033817
55.315 11.196727
55.320 10.966399
55.325 11.135981
55.330 11.307321
55.335 11.612149
55.340 12.043339
55.345 12.703825
55.350 12.348483
55.355 12.029948
55.360 11.629357
55.365 11.578157
55.370 11.010127
55.375 10.880691
55.380 10.586835
55.385 10.866102
55.390 11.319467
55.395 11.522137
55.400 11.146136
55.405 11.245212
55.410 11.100229
55.415 10.710117
55.420 10.065758
55.425 9.528403
55.430 9.629195
55.435 10.142705
55.440 10.733232
55.445 11.012449
55.450 11.440801
55.455 12.46849
55.460 12.655427
55.465 12.610917
55.470 12.182817
55.475 11.437344
55.480 11.188825
55.485 10.779496
55.490 10.337518
55.495 10.427145
55.500 10.695103
55.505 11.186106
55.510 11.261482
55.515 11.550471
55.520 11.404163
55.525 11.263447
55.530 11.011359
55.535 10.899972
55.540 10.810166
55.545 11.344801
55.550 11.820736
55.555 11.975449
55.560 12.432605
55.565 12.91954
55.570 12.672617
55.575 12.853599
55.580 12.730852
55.585 12.970038
55.590 13.196098
55.595 12.728824
55.600 12.429354
55.605 12.492485
55.610 12.452038
55.615 12.061058
55.620 11.702312
55.625 12.163157
55.630 12.577
55.635 12.320564
55.640 12.389812
55.645 12.268143
55.650 11.972636
55.655 11.924368
55.660 11.723817
55.665 11.660166
55.670 12.023632
55.675 12.142865
55.680 12.375106
55.685 12.759063
55.690 12.835303
55.695 12.706182
55.700 12.716829
55.705 12.91137
55.710 12.171843
55.715 12.079037
55.720 12.117786
55.725 11.788918
55.730 11.506189
55.735 10.804364
55.740 10.438759
55.745 10.863324
55.750 10.911982
55.755 11.063895
55.760 11.587202
55.765 11.766686
55.770 11.928232
55.775 12.062197
55.780 11.930319
55.785 11.858758
55.790 11.7224
55.795 11.4931
55.800 12.028859
55.805 12.515724
55.810 13.008146
55.815 13.57935
55.820 13.853842
55.825 13.977118
55.830 14.144387
55.835 13.661507
55.840 13.297937
55.845 13.28807
55.850 12.966899
55.855 12.478598
55.860 12.356567
55.865 12.450346
55.870 12.812362
55.875 12.797028
55.880 12.837396
55.885 13.073071
55.890 13.133539
55.895 12.849337
55.900 12.640015
55.905 12.358234
55.910 12.185553
55.915 11.870676
55.920 11.912256
55.925 11.913138
55.930 11.751932
55.935 12.019516
55.940 12.455935
55.945 12.666239
55.950 12.711602
55.955 13.067739
55.960 13.742046
55.965 14.358388
55.970 14.211801
55.975 13.756638
55.980 13.515065
55.985 13.118756
55.990 12.372733
55.995 11.895654
56.000 11.730938
56.005 12.129034
56.010 12.345984
56.015 12.273627
56.020 11.779857
56.025 11.616604
56.030 11.514213
56.035 11.482417
56.040 11.352195
56.045 11.395806
56.050 11.864972
56.055 12.363355
56.060 12.701401
56.065 12.983462
56.070 13.004399
56.075 12.874941
56.080 12.767459
56.085 12.967692
56.090 13.79682
56.095 13.656797
56.100 13.239884
56.105 13.189094
56.110 13.813369
56.115 14.016333
56.120 13.438462
56.125 13.003232
56.130 13.002298
56.135 13.07198
56.140 12.620227
56.145 11.950919
56.150 11.504224
56.155 11.380751
56.160 11.12907
56.165 11.427827
56.170 11.830089
56.175 12.203747
56.180 12.377489
56.185 12.371577
56.190 12.219592
56.195 12.06558
56.200 11.994055
56.205 11.798562
56.210 11.997174
56.215 13.126281
56.220 13.739466
56.225 14.684826
56.230 15.633551
56.235 15.709908
56.240 15.664536
56.245 15.888138
56.250 15.334821
56.255 14.686275
56.260 14.217284
56.265 13.979536
56.270 14.130668
56.275 13.884317
56.280 13.700329
56.285 13.493067
56.290 13.4907
56.295 13.340003
56.300 13.471778
56.305 13.384188
56.310 13.62838
56.315 13.67415
56.320 13.409006
56.325 13.607676
56.330 13.298984
56.335 13.240682
56.340 13.363662
56.345 12.747075
56.350 12.593261
56.355 13.03466
56.360 13.295754
56.365 13.618298
56.370 13.268488
56.375 13.692715
56.380 13.945536
56.385 14.226468
56.390 14.481136
56.395 14.321785
56.400 14.287013
56.405 14.27077
56.410 13.919972
56.415 13.503646
56.420 13.357784
56.425 13.081212
56.430 12.96111
56.435 12.49099
56.440 12.179048
56.445 12.047963
56.450 12.186481
56.455 11.879494
56.460 11.767379
56.465 12.073195
56.470 12.484511
56.475 13.445306
56.480 13.658883
56.485 13.894681
56.490 13.889021
56.495 14.233246
56.500 13.896101
56.505 13.627027
56.510 12.956769
56.515 13.197651
56.520 13.207779
56.525 13.224299
56.530 13.20624
56.535 13.071438
56.540 12.621201
56.545 12.650582
56.550 12.488354
56.555 12.618779
56.560 12.880929
56.565 12.572923
56.570 12.903227
56.575 13.004558
56.580 13.000747
56.585 13.248206
56.590 13.382652
56.595 13.412058
56.600 13.649354
56.605 13.467653
56.610 13.472956
56.615 13.393145
56.620 13.164549
56.625 12.841782
56.630 13.215097
56.635 13.14465
56.640 12.970397
56.645 13.026385
56.650 12.726469
56.655 12.650955
56.660 12.44906
56.665 12.255473
56.670 12.382507
56.675 12.283844
56.680 12.375255
56.685 12.39581
56.690 12.480646
56.695 12.411237
56.700 11.868359
56.705 12.053979
56.710 12.847747
56.715 12.747308
56.720 12.90431
56.725 13.314397
56.730 13.520435
56.735 13.812335
56.740 13.541287
56.745 13.4362
56.750 13.778773
56.755 13.578094
56.760 13.206872
56.765 13.527235
56.770 13.60953
56.775 13.600418
56.780 13.526319
56.785 13.56938
56.790 14.022287
56.795 13.9442
56.800 13.833587
56.805 14.123384
56.810 14.436124
56.815 14.496554
56.820 14.357793
56.825 14.079428
56.830 14.183781
56.835 13.910262
56.840 13.441693
56.845 13.412556
56.850 13.319076
56.855 13.530696
56.860 13.414267
56.865 13.176839
56.870 13.366981
56.875 13.318563
56.880 13.202967
56.885 12.906544
56.890 12.521029
56.895 12.951967
56.900 13.628347
56.905 14.057647
56.910 14.276127
56.915 14.358887
56.920 14.508541
56.925 14.26539
56.930 13.832088
56.935 13.661809
56.940 12.911251
56.945 12.640202
56.950 12.510001
56.955 12.906275
56.960 13.366925
56.965 13.425209
56.970 13.779123
56.975 14.416504
56.980 14.684623
56.985 15.037897
56.990 14.928568
56.995 14.82718
57.000 14.776711
57.005 14.934109
57.010 14.975084
57.015 15.213934
57.020 15.516234
57.025 15.664227
57.030 15.733255
57.035 15.927374
57.040 14.600172
57.045 14.142807
57.050 13.878496
57.055 13.415631
57.060 13.086121
57.065 12.664616
57.070 12.04951
57.075 12.574594
57.080 12.823269
57.085 12.450829
57.090 12.430158
57.095 12.691017
57.100 12.814315
57.105 12.847785
57.110 13.147895
57.115 13.251458
57.120 13.173249
57.125 12.718471
57.130 12.862989
57.135 13.318732
57.140 13.84096
57.145 13.834085
57.150 13.740216
57.155 14.429639
57.160 14.936977
57.165 14.445132
57.170 14.188912
57.175 13.837629
57.180 13.734606
57.185 13.263528
57.190 13.054036
57.195 13.283162
57.200 13.740171
57.205 14.034545
57.210 14.036194
57.215 13.900242
57.220 13.687877
57.225 13.399215
57.230 12.857941
57.235 12.494674
57.240 12.545521
57.245 12.972322
57.250 13.1064
57.255 12.90867
57.260 13.050558
57.265 13.112532
57.270 13.437398
57.275 13.17487
57.280 13.129611
57.285 13.818232
57.290 14.666622
57.295 15.103453
57.300 15.323301
57.305 14.840939
57.310 14.593336
57.315 14.315287
57.320 13.692822
57.325 13.755646
57.330 13.369778
57.335 13.322343
57.340 13.58968
57.345 13.646827
57.350 13.462403
57.355 13.382239
57.360 12.660136
57.365 12.559779
57.370 12.333636
57.375 12.778566
57.380 13.272274
57.385 13.431711
57.390 13.271595
57.395 13.558531
57.400 14.014211
57.405 14.203764
57.410 14.058173
57.415 13.879659
57.420 13.846965
57.425 14.144457
57.430 13.981621
57.435 13.828387
57.440 13.798705
57.445 13.704962
57.450 13.697028
57.455 14.039371
57.460 14.245212
57.465 14.69193
57.470 14.938244
57.475 15.381398
57.480 15.550888
57.485 15.791322
57.490 16.297209
57.495 15.595173
57.500 14.815092
57.505 14.964446
57.510 14.463685
57.515 14.275465
57.520 13.861264
57.525 13.26749
57.530 13.750661
57.535 14.129159
57.540 13.838492
57.545 13.83532
57.550 14.000687
57.555 13.655137
57.560 13.977265
57.565 14.501653
57.570 14.739684
57.575 14.771852
57.580 14.9621
57.585 15.455134
57.590 15.767911
57.595 15.902002
57.600 15.977597
57.605 15.79294
57.610 15.855231
57.615 15.784526
57.620 16.117645
57.625 16.474264
57.630 16.94953
57.635 16.888502
57.640 16.714783
57.645 16.331085
57.650 16.333759
57.655 15.678347
57.660 14.915504
57.665 14.445901
57.670 14.127192
57.675 14.121135
57.680 14.516623
57.685 14.944062
57.690 14.955957
57.695 15.263857
57.700 15.223025
57.705 15.29854
57.710 15.447182
57.715 15.247766
57.720 14.641162
57.725 14.423495
57.730 13.96069
57.735 13.914859
57.740 14.239612
57.745 14.250869
57.750 14.246724
57.755 14.602688
57.760 14.95696
57.765 15.139844
57.770 14.718593
57.775 13.928819
57.780 13.81623
57.785 13.534256
57.790 13.033589
57.795 12.786532
57.800 12.648942
57.805 13.033585
57.810 13.603053
57.815 14.036692
57.820 14.554653
57.825 15.075409
57.830 15.347895
57.835 15.767073
57.840 15.602222
57.845 15.10199
57.850 14.435323
57.855 14.276311
57.860 14.054561
57.865 13.900056
57.870 13.94484
57.875 14.356573
57.880 14.704202
57.885 15.165599
57.890 15.329363
57.895 15.479573
57.900 15.870729
57.905 15.983564
57.910 16.30699
57.915 16.28277
57.920 15.903874
57.925 15.398337
57.930 15.209854
57.935 14.620155
57.940 14.083327
57.945 13.806036
57.950 14.258773
57.955 14.4514
57.960 14.970224
57.965 15.449192
57.970 15.884308
57.975 15.321114
57.980 14.78289
57.985 14.475679
57.990 14.40968
57.995 14.074665
58.000 13.464211
58.005 12.922208
58.010 13.516784
58.015 13.391548
58.020 13.55703
58.025 13.336272
58.030 13.502204
58.035 13.954179
58.040 14.8672
58.045 15.123339
58.050 15.385067
58.055 15.361204
58.060 15.828907
58.065 15.638155
58.070 15.460812
58.075 15.053881
58.080 14.703198
58.085 14.744213
58.090 14.815798
58.095 14.850858
58.100 14.976249
58.105 15.193547
58.110 14.854102
58.115 15.195759
58.120 14.622272
58.125 14.245974
58.130 14.325796
58.135 14.32163
58.140 13.862342
58.145 13.996982
58.150 14.281236
58.155 14.569589
58.160 14.239109
58.165 13.519719
58.170 13.845198
58.175 14.346831
58.180 14.76056
58.185 14.803647
58.190 15.566243
58.195 16.466578
58.200 16.973553
58.205 17.157837
58.210 17.011894
58.215 16.372541
58.220 15.977424
58.225 15.252111
58.230 14.691504
58.235 14.246115
58.240 13.649355
58.245 13.879329
58.250 14.230782
58.255 14.651585
58.260 14.773211
58.265 14.608199
58.270 14.625901
58.275 14.639034
58.280 14.546452
58.285 14.533772
58.290 14.090682
58.295 14.396167
58.300 14.980694
58.305 15.313478
58.310 15.737804
58.315 15.534588
58.320 15.809758
58.325 16.346741
58.330 16.117685
58.335 16.129694
58.340 15.840687
58.345 15.595288
58.350 15.081781
58.355 14.756465
58.360 14.623597
58.365 14.319397
58.370 13.831644
58.375 14.171227
58.380 14.102937
58.385 14.268429
58.390 14.17559
58.395 14.16697
58.400 14.49067
58.405 14.95037
58.410 14.586248
58.415 14.495579
58.420 14.615071
58.425 15.056128
58.430 14.90748
58.435 14.732856
58.440 15.26155
58.445 15.499233
58.450 14.925153
58.455 14.283921
58.460 13.898046
58.465 14.110711
58.470 14.80332
58.475 14.127192
58.480 13.987471
58.485 14.710918
58.490 15.511349
