!@!!GADDS PLOTSO FILE: Chi integration type
!@!!Title/SampleName: map-15c
!@!!Comment: ?
!@!!User: Bruker Instrument Administrator
!@!!Site: University of Illinois Chicago
!@!!Frame: map-15c_01_000.gfrm
!@!!Wavelengths    1.54184   1.54056   1.54439
!@!!Frame angles: 2Theta: 63.000 Omega: 50.000 Phi: 0.000 Chi: 90.000
!@!!Integration range: 2Theta: 53.000 to 73.000  Gamma: -105.000 to -75.000
!@!!Integration method: bin normalized
!@!N
!@!SS
!@!M
!@!L 0.0 0.0 0.0 0.0
!@!XDegrees
!@!YCounts
53.000 7.975487
53.005 7.784102
53.010 7.794789
53.015 7.749269
53.020 7.28418
53.025 7.369849
53.030 7.085696
53.035 6.909979
53.040 7.124778
53.045 7.35592
53.050 7.485072
53.055 7.270721
53.060 7.207916
53.065 7.238183
53.070 6.847532
53.075 6.620726
53.080 5.991675
53.085 6.140761
53.090 6.730577
53.095 6.631601
53.100 6.806667
53.105 7.18005
53.110 7.38672
53.115 7.478791
53.120 7.171735
53.125 7.471211
53.130 7.787131
53.135 7.269124
53.140 7.180294
53.145 7.490229
53.150 7.618575
53.155 7.40843
53.160 7.027874
53.165 6.891951
53.170 7.26329
53.175 7.133871
53.180 7.112744
53.185 7.019146
53.190 7.23261
53.195 7.407196
53.200 7.658253
53.205 7.55473
53.210 7.571912
53.215 6.949496
53.220 7.118988
53.225 7.075159
53.230 6.797475
53.235 7.09634
53.240 7.163779
53.245 7.671618
53.250 8.115999
53.255 7.677176
53.260 7.745179
53.265 7.807782
53.270 7.352061
53.275 7.141208
53.280 7.03015
53.285 7.066486
53.290 7.594604
53.295 7.319093
53.300 7.454886
53.305 7.225362
53.310 7.212476
53.315 7.082431
53.320 7.465051
53.325 7.169802
53.330 7.177654
53.335 7.281127
53.340 7.5424
53.345 7.537615
53.350 7.384889
53.355 7.261812
53.360 7.505161
53.365 7.518856
53.370 7.102839
53.375 6.974514
53.380 7.358118
53.385 7.434216
53.390 7.232825
53.395 6.893551
53.400 6.934909
53.405 7.302466
53.410 7.207273
53.415 7.145975
53.420 7.632211
53.425 7.645087
53.430 7.693247
53.435 7.75263
53.440 7.6798
53.445 7.69232
53.450 7.26964
53.455 6.963595
53.460 6.990393
53.465 7.435498
53.470 7.373419
53.475 7.522208
53.480 7.664003
53.485 7.669348
53.490 7.643096
53.495 7.594608
53.500 7.209315
53.505 7.316903
53.510 7.080256
53.515 6.989813
53.520 7.193223
53.525 7.358394
53.530 7.544094
53.535 7.774751
53.540 7.584475
53.545 7.652925
53.550 7.658528
53.555 7.5906
53.560 7.232409
53.565 6.921289
53.570 6.715956
53.575 6.659575
53.580 6.722965
53.585 6.53636
53.590 6.224766
53.595 6.510083
53.600 6.845042
53.605 7.155032
53.610 7.484079
53.615 7.75141
53.620 8.434933
53.625 8.88693
53.630 9.055113
53.635 8.769426
53.640 8.465357
53.645 8.524573
53.650 8.085947
53.655 7.507522
53.660 6.994644
53.665 6.579497
53.670 6.800264
53.675 6.833267
53.680 6.793611
53.685 7.01152
53.690 7.649663
53.695 8.024601
53.700 7.98486
53.705 7.521628
53.710 7.195081
53.715 6.999338
53.720 7.148972
53.725 7.006034
53.730 7.19277
53.735 7.30418
53.740 7.104595
53.745 7.293283
53.750 7.258791
53.755 6.910068
53.760 6.715648
53.765 6.780355
53.770 6.890635
53.775 7.261451
53.780 7.016031
53.785 7.028185
53.790 7.157201
53.795 7.057654
53.800 7.209672
53.805 7.416643
53.810 7.768895
53.815 7.829083
53.820 7.506465
53.825 7.363915
53.830 7.357653
53.835 7.53191
53.840 7.720844
53.845 7.230208
53.850 7.342552
53.855 7.133957
53.860 6.84712
53.865 6.668076
53.870 6.287489
53.875 6.108779
53.880 6.326365
53.885 6.156042
53.890 6.553175
53.895 6.688131
53.900 7.063449
53.905 7.53724
53.910 7.339834
53.915 7.461846
53.920 7.576477
53.925 7.660255
53.930 7.815827
53.935 7.18541
53.940 6.845702
53.945 7.05581
53.950 6.843608
53.955 6.477683
53.960 6.842349
53.965 7.289766
53.970 7.641908
53.975 7.67762
53.980 7.645203
53.985 8.062902
53.990 8.179449
53.995 7.696052
54.000 7.385216
54.005 7.539808
54.010 7.690251
54.015 7.844914
54.020 7.77391
54.025 8.007693
54.030 8.007144
54.035 8.184488
54.040 8.179194
54.045 8.382242
54.050 8.545995
54.055 8.50218
54.060 8.23601
54.065 7.957077
54.070 7.811686
54.075 7.405603
54.080 7.243092
54.085 6.874361
54.090 7.001647
54.095 7.208346
54.100 7.396857
54.105 7.398711
54.110 7.518445
54.115 7.912388
54.120 8.054314
54.125 7.855287
54.130 7.484175
54.135 7.301787
54.140 7.652669
54.145 7.299572
54.150 6.66909
54.155 6.666494
54.160 6.933663
54.165 6.942202
54.170 6.921912
54.175 6.892397
54.180 7.093687
54.185 7.464427
54.190 7.732666
54.195 8.200423
54.200 8.356498
54.205 8.457808
54.210 8.157796
54.215 7.934871
54.220 7.812343
54.225 7.336583
54.230 7.286546
54.235 7.423151
54.240 7.519659
54.245 8.125636
54.250 8.74878
54.255 8.885205
54.260 9.201413
54.265 9.071411
54.270 9.368363
54.275 9.367372
54.280 9.107367
54.285 9.113561
54.290 9.335155
54.295 9.383868
54.300 9.395175
54.305 9.304868
54.310 9.126943
54.315 8.888025
54.320 8.444075
54.325 7.952985
54.330 7.862183
54.335 8.005926
54.340 7.620898
54.345 7.296135
54.350 7.220069
54.355 7.401573
54.360 7.918506
54.365 7.892241
54.370 8.109185
54.375 8.439904
54.380 8.859954
54.385 9.069611
54.390 8.555392
54.395 8.5588
54.400 8.416333
54.405 8.043475
54.410 8.157621
54.415 8.144784
54.420 8.014606
54.425 7.824949
54.430 7.448128
54.435 7.300162
54.440 7.210052
54.445 7.210711
54.450 6.827149
54.455 7.241613
54.460 7.531461
54.465 7.437701
54.470 7.583437
54.475 7.484098
54.480 7.413971
54.485 7.477553
54.490 7.303487
54.495 7.344667
54.500 7.62017
54.505 7.667282
54.510 7.634349
54.515 7.787432
54.520 8.090851
54.525 8.385624
54.530 8.299383
54.535 8.199783
54.540 8.354402
54.545 8.457938
54.550 8.144601
54.555 7.705383
54.560 7.453427
54.565 7.532376
54.570 7.464926
54.575 7.423064
54.580 7.395784
54.585 7.64027
54.590 7.626061
54.595 7.695742
54.600 7.640801
54.605 7.557185
54.610 7.404631
54.615 7.268244
54.620 7.590368
54.625 7.620229
54.630 7.637647
54.635 7.44973
54.640 7.363454
54.645 7.423805
54.650 7.363755
54.655 6.863218
54.660 6.893422
54.665 6.91649
54.670 7.064075
54.675 6.926431
54.680 6.790928
54.685 6.933662
54.690 7.191703
54.695 7.028496
54.700 6.966749
54.705 6.726852
54.710 7.259642
54.715 7.618795
54.720 7.224223
54.725 6.979328
54.730 7.450171
54.735 7.616883
54.740 7.825615
54.745 7.468666
54.750 7.170932
54.755 7.447139
54.760 7.251869
54.765 6.932218
54.770 6.925117
54.775 6.758273
54.780 7.177414
54.785 7.543611
54.790 7.521526
54.795 7.477398
54.800 7.282533
54.805 7.347241
54.810 7.341621
54.815 7.254564
54.820 7.320618
54.825 7.503738
54.830 7.561997
54.835 7.526187
54.840 7.621136
54.845 7.536271
54.850 8.091868
54.855 8.348967
54.860 8.654823
54.865 9.207594
54.870 9.939489
54.875 10.515414
54.880 10.750255
54.885 10.206079
54.890 10.289173
54.895 10.26173
54.900 9.988009
54.905 9.436047
54.910 9.257056
54.915 9.240126
54.920 9.256034
54.925 8.911987
54.930 8.778522
54.935 8.817008
54.940 8.771407
54.945 8.792648
54.950 8.694083
54.955 8.343046
54.960 8.804016
54.965 8.954408
54.970 8.940751
54.975 8.767967
54.980 8.253176
54.985 8.495535
54.990 8.916571
54.995 8.393119
55.000 8.150472
55.005 8.319805
55.010 8.536679
55.015 8.898945
55.020 9.03716
55.025 9.13792
55.030 9.4498
55.035 10.162352
55.040 10.199742
55.045 10.025937
55.050 9.814498
55.055 9.070926
55.060 9.140222
55.065 8.555824
55.070 8.365402
55.075 8.827731
55.080 8.693484
55.085 8.70234
55.090 8.854525
55.095 8.518595
55.100 8.984251
55.105 8.724327
55.110 8.734943
55.115 9.234213
55.120 9.338873
55.125 9.091939
55.130 8.975372
55.135 8.960497
55.140 9.026762
55.145 8.789899
55.150 8.827427
55.155 9.216022
55.160 9.453035
55.165 9.12809
55.170 8.307081
55.175 7.834462
55.180 7.805776
55.185 7.668644
55.190 7.500272
55.195 7.479692
55.200 7.818128
55.205 8.053832
55.210 7.847017
55.215 7.900086
55.220 7.519869
55.225 7.504471
55.230 7.866408
55.235 8.011858
55.240 8.20404
55.245 8.419714
55.250 8.033
55.255 7.881122
55.260 7.885812
55.265 7.725983
55.270 7.729746
55.275 7.66215
55.280 7.728362
55.285 8.066997
55.290 8.002672
55.295 7.80694
55.300 7.747695
55.305 7.39573
55.310 7.273604
55.315 7.108514
55.320 7.075354
55.325 7.320133
55.330 7.446627
55.335 7.294429
55.340 7.693093
55.345 7.887373
55.350 7.530102
55.355 7.308775
55.360 7.355701
55.365 7.619367
55.370 7.907526
55.375 7.810975
55.380 8.088659
55.385 8.462933
55.390 8.314402
55.395 8.413799
55.400 8.135563
55.405 8.035638
55.410 7.644091
55.415 7.394316
55.420 7.433119
55.425 7.795899
55.430 7.72546
55.435 7.608883
55.440 7.647675
55.445 7.732341
55.450 8.115678
55.455 8.071277
55.460 8.064258
55.465 8.374218
55.470 8.425004
55.475 8.268688
55.480 8.239469
55.485 8.027064
55.490 7.875062
55.495 7.106785
55.500 6.982315
55.505 7.249828
55.510 6.961886
55.515 6.810491
55.520 6.904994
55.525 7.225507
55.530 7.605722
55.535 7.885061
55.540 7.970237
55.545 8.273293
55.550 8.330909
55.555 8.524792
55.560 8.692461
55.565 8.665746
55.570 8.600689
55.575 8.724182
55.580 8.916985
55.585 8.662151
55.590 8.050946
55.595 7.899181
55.600 7.744771
55.605 7.572062
55.610 7.32129
55.615 7.321703
55.620 7.801242
55.625 8.283748
55.630 8.379609
55.635 8.73173
55.640 8.578139
55.645 8.594057
55.650 8.353233
55.655 8.097649
55.660 7.683686
55.665 7.383415
55.670 7.220955
55.675 7.143806
55.680 7.013713
55.685 7.409595
55.690 7.628173
55.695 8.20209
55.700 8.033916
55.705 7.963557
55.710 8.173114
55.715 7.963659
55.720 7.793593
55.725 7.414836
55.730 6.827496
55.735 7.0862
55.740 6.920869
55.745 7.037869
55.750 7.185937
55.755 6.944834
55.760 7.198689
55.765 7.560742
55.770 7.485832
55.775 7.493696
55.780 7.795714
55.785 8.018851
55.790 8.288049
55.795 8.144569
55.800 8.435877
55.805 8.312302
55.810 8.579728
55.815 8.443091
55.820 8.794922
55.825 9.132837
55.830 9.372538
55.835 9.35568
55.840 9.150182
55.845 8.745404
55.850 8.953127
55.855 8.604254
55.860 8.192087
55.865 7.599043
55.870 7.762339
55.875 8.197268
55.880 8.303024
55.885 8.130855
55.890 7.981341
55.895 8.076083
55.900 8.212248
55.905 7.540586
55.910 7.398665
55.915 7.413587
55.920 7.408182
55.925 7.843618
55.930 7.999989
55.935 8.182445
55.940 8.686549
55.945 8.964759
55.950 8.763433
55.955 8.261525
55.960 7.853643
55.965 8.016815
55.970 7.914284
55.975 7.438179
55.980 7.122083
55.985 7.199422
55.990 7.178162
55.995 6.91244
56.000 6.938341
56.005 7.329735
56.010 7.759033
56.015 7.757875
56.020 7.698641
56.025 7.772977
56.030 7.663571
56.035 7.470932
56.040 7.415808
56.045 7.502335
56.050 7.391339
56.055 7.66284
56.060 7.700817
56.065 7.739554
56.070 7.922607
56.075 7.66288
56.080 7.411374
56.085 7.771551
56.090 8.159843
56.095 8.69874
56.100 8.375804
56.105 8.040468
56.110 8.358997
56.115 8.20246
56.120 8.054412
56.125 7.5649
56.130 7.471059
56.135 7.993791
56.140 7.937812
56.145 8.039349
56.150 7.884962
56.155 7.784997
56.160 8.191766
56.165 7.985161
56.170 8.204833
56.175 8.394516
56.180 8.341841
56.185 8.568596
56.190 8.56671
56.195 8.528108
56.200 8.128307
56.205 7.699215
56.210 8.092165
56.215 8.170154
56.220 8.483617
56.225 8.221875
56.230 8.631447
56.235 9.126536
56.240 8.834821
56.245 8.298395
56.250 8.321313
56.255 8.094361
56.260 8.187909
56.265 8.101349
56.270 8.176997
56.275 8.20443
56.280 8.196365
56.285 7.960362
56.290 8.117522
56.295 8.160633
56.300 7.962245
56.305 8.362553
56.310 8.686234
56.315 8.39321
56.320 8.288801
56.325 8.172194
56.330 8.59229
56.335 8.719539
56.340 8.391153
56.345 8.450696
56.350 8.729127
56.355 8.74718
56.360 8.656859
56.365 8.485949
56.370 8.545547
56.375 8.40219
56.380 8.528643
56.385 8.802825
56.390 8.712942
56.395 8.54382
56.400 7.97107
56.405 7.496823
56.410 7.502031
56.415 7.208297
56.420 7.133301
56.425 7.514707
56.430 7.884976
56.435 7.973353
56.440 8.435008
56.445 8.488895
56.450 8.512504
56.455 8.514369
56.460 8.203238
56.465 8.28827
56.470 8.616682
56.475 8.422815
56.480 8.371806
56.485 8.725941
56.490 9.373698
56.495 9.636965
56.500 10.102249
56.505 10.451582
56.510 11.10975
56.515 11.416132
56.520 11.295252
56.525 11.631052
56.530 11.438673
56.535 10.835637
56.540 10.440155
56.545 9.867051
56.550 9.803301
56.555 9.688698
56.560 9.234751
56.565 9.044338
56.570 8.859408
56.575 8.821971
56.580 8.803537
56.585 8.977384
56.590 8.818521
56.595 8.819345
56.600 8.818137
56.605 8.841024
56.610 9.038609
56.615 9.110473
56.620 9.089918
56.625 8.885481
56.630 8.396742
56.635 8.386098
56.640 8.82122
56.645 8.74943
56.650 8.571294
56.655 8.456669
56.660 8.784201
56.665 8.828531
56.670 9.081206
56.675 8.721738
56.680 8.770851
56.685 8.689078
56.690 8.711526
56.695 8.486625
56.700 8.829608
56.705 8.735368
56.710 9.148899
56.715 8.635783
56.720 8.765608
56.725 8.706317
56.730 8.557596
56.735 8.612669
56.740 8.175096
56.745 7.911252
56.750 8.520239
56.755 8.607582
56.760 8.942507
56.765 9.055807
56.770 8.791634
56.775 8.812568
56.780 9.134944
56.785 9.00181
56.790 9.03216
56.795 8.885874
56.800 8.528747
56.805 8.632414
56.810 8.821659
56.815 8.546276
56.820 8.350093
56.825 8.166049
56.830 8.198492
56.835 8.330994
56.840 8.127912
56.845 8.042871
56.850 8.08108
56.855 8.159605
56.860 7.997031
56.865 7.875111
56.870 7.905608
56.875 7.732736
56.880 7.41221
56.885 7.282696
56.890 7.058383
56.895 6.968492
56.900 7.298294
56.905 7.679253
56.910 8.129978
56.915 8.281259
56.920 8.354913
56.925 8.654496
56.930 8.764895
56.935 8.401192
56.940 8.11044
56.945 8.024418
56.950 8.105456
56.955 8.322624
56.960 8.256617
56.965 8.445462
56.970 8.454593
56.975 8.856352
56.980 8.859942
56.985 8.8606
56.990 8.555152
56.995 8.404757
57.000 8.450656
57.005 8.181749
57.010 7.945314
57.015 8.006614
57.020 7.643791
57.025 7.154325
57.030 6.699144
57.035 6.78023
57.040 7.403291
57.045 7.745063
57.050 8.071433
57.055 8.660509
57.060 9.309286
57.065 9.571135
57.070 9.483797
57.075 9.073061
57.080 8.934578
57.085 8.736546
57.090 8.608396
57.095 8.60802
57.100 8.83638
57.105 8.49767
57.110 8.491908
57.115 8.066765
57.120 8.081493
57.125 7.889153
57.130 7.934294
57.135 7.99539
57.140 8.148229
57.145 8.403297
57.150 8.221431
57.155 8.470026
57.160 8.620155
57.165 8.855292
57.170 9.048334
57.175 9.386166
57.180 9.16145
57.185 9.239184
57.190 9.079255
57.195 9.011117
57.200 8.490352
57.205 7.981532
57.210 7.226884
57.215 6.864617
57.220 6.814271
57.225 6.523372
57.230 6.567561
57.235 6.624179
57.240 6.713666
57.245 7.150048
57.250 7.333049
57.255 7.390285
57.260 7.605414
57.265 7.637076
57.270 8.011989
57.275 8.095199
57.280 7.785285
57.285 7.942942
57.290 7.864839
57.295 7.872053
57.300 8.117145
57.305 7.95357
57.310 8.261405
57.315 8.659664
57.320 8.751036
57.325 8.838398
57.330 8.720107
57.335 8.26909
57.340 7.980144
57.345 8.000602
57.350 7.915682
57.355 7.53128
57.360 7.49146
57.365 7.59155
57.370 7.600551
57.375 7.864826
57.380 7.761746
57.385 7.658655
57.390 7.627285
57.395 7.999914
57.400 8.145307
57.405 7.914341
57.410 7.500525
57.415 7.476285
57.420 8.051569
57.425 8.190515
57.430 8.057222
57.435 8.313774
57.440 8.462203
57.445 8.480935
57.450 8.188694
57.455 7.364119
57.460 7.066106
57.465 6.772903
57.470 6.614413
57.475 6.580071
57.480 6.942766
57.485 7.633092
57.490 7.896362
57.495 8.279025
57.500 8.270223
57.505 8.365195
57.510 8.569972
57.515 8.665098
57.520 8.501965
57.525 8.465272
57.530 8.45989
57.535 8.586329
57.540 8.349912
57.545 8.328741
57.550 8.100913
57.555 8.324654
57.560 8.356426
57.565 7.958406
57.570 7.733716
57.575 8.131027
57.580 8.040256
57.585 7.969577
57.590 7.910125
57.595 8.158192
57.600 8.501966
57.605 8.602049
57.610 8.148051
57.615 8.094425
57.620 7.829436
57.625 8.082724
57.630 7.903373
57.635 7.851339
57.640 7.785707
57.645 8.289455
57.650 8.455544
57.655 8.692367
57.660 8.716591
57.665 8.376007
57.670 8.207752
57.675 8.259442
57.680 7.896021
57.685 7.821118
57.690 7.492708
57.695 7.419154
57.700 7.568993
57.705 7.615362
57.710 7.254058
57.715 7.246686
57.720 7.227914
57.725 7.311799
57.730 7.047232
57.735 7.511786
57.740 7.975071
57.745 8.234087
57.750 8.571634
57.755 8.993839
57.760 9.237893
57.765 9.374475
57.770 8.856159
57.775 8.790673
57.780 8.665547
57.785 8.758233
57.790 8.503489
57.795 8.405729
57.800 8.393584
57.805 8.533166
57.810 8.548307
57.815 8.775963
57.820 8.448666
57.825 8.421329
57.830 8.350299
57.835 8.672619
57.840 8.939136
57.845 8.563851
57.850 8.114216
57.855 8.241268
57.860 8.041477
57.865 8.481164
57.870 8.456456
57.875 8.285555
57.880 8.330689
57.885 8.609
57.890 8.589603
57.895 8.853151
57.900 8.410054
57.905 8.288183
57.910 8.317428
57.915 8.345336
57.920 8.287886
57.925 8.10831
57.930 7.703343
57.935 7.478365
57.940 7.403547
57.945 7.537951
57.950 7.769765
57.955 7.513186
57.960 7.479861
57.965 7.499989
57.970 7.48282
57.975 7.402701
57.980 7.324936
57.985 7.103613
57.990 7.572068
57.995 7.763608
58.000 8.422026
58.005 9.084285
58.010 9.303082
58.015 9.441989
58.020 9.416409
58.025 9.367399
58.030 9.385338
58.035 8.838267
58.040 8.609703
58.045 8.551398
58.050 8.358413
58.055 8.228957
58.060 7.912151
58.065 7.74817
58.070 7.675262
58.075 8.182965
58.080 8.199222
58.085 8.280716
58.090 8.452495
58.095 8.871183
58.100 9.24145
58.105 9.05987
58.110 8.644977
58.115 8.756599
58.120 8.939725
58.125 9.116815
58.130 8.906387
58.135 8.906567
58.140 8.863823
58.145 8.894357
58.150 9.29655
58.155 8.908031
58.160 8.590895
58.165 8.507749
58.170 8.751446
58.175 8.897444
58.180 8.557388
58.185 8.351191
58.190 8.793038
58.195 8.705114
58.200 8.853209
58.205 8.698271
58.210 8.603125
58.215 8.530839
58.220 8.402722
58.225 8.195205
58.230 8.390351
58.235 8.036312
58.240 8.283674
58.245 8.603089
58.250 8.602235
58.255 8.351031
58.260 8.436863
58.265 8.465899
58.270 8.565605
58.275 8.375155
58.280 8.363337
58.285 8.421988
58.290 8.587856
58.295 8.657746
58.300 8.696117
58.305 8.842726
58.310 8.879995
58.315 8.730382
58.320 8.381393
58.325 8.596139
58.330 8.471198
58.335 8.190003
58.340 8.241109
58.345 7.674932
58.350 7.645963
58.355 7.913002
58.360 7.845582
58.365 7.982968
58.370 8.11586
58.375 7.762479
58.380 7.9611
58.385 8.27669
58.390 8.183375
58.395 7.928298
58.400 7.849006
58.405 8.07341
58.410 8.25604
58.415 8.263291
58.420 7.714736
58.425 7.753742
58.430 7.760306
58.435 7.843881
58.440 7.675809
58.445 7.48778
58.450 7.582224
58.455 7.919673
58.460 7.904773
58.465 8.235329
58.470 8.34127
58.475 8.330556
58.480 8.433711
58.485 8.491023
58.490 8.538921
58.495 8.300631
58.500 7.763093
58.505 7.618454
58.510 7.841747
58.515 7.708444
58.520 7.594988
58.525 7.769805
58.530 8.222377
58.535 8.50699
58.540 7.998199
58.545 7.714378
58.550 7.821487
58.555 7.653823
58.560 7.479848
58.565 7.727293
58.570 7.892361
58.575 8.037218
58.580 8.207907
58.585 8.026112
58.590 8.357283
58.595 8.522104
58.600 8.159839
58.605 8.038411
58.610 8.243979
58.615 7.828638
58.620 7.987461
58.625 7.906982
58.630 7.760011
58.635 7.495774
58.640 7.658256
58.645 8.091433
58.650 8.74923
58.655 8.967541
58.660 9.3528
58.665 9.750014
58.670 9.980974
58.675 9.762859
58.680 9.458622
58.685 9.318263
58.690 9.458264
58.695 9.22197
58.700 8.579258
58.705 8.062694
58.710 8.22317
58.715 8.157337
58.720 7.854902
58.725 7.625384
58.730 7.417156
58.735 7.851003
58.740 8.351911
58.745 8.273911
58.750 8.122467
58.755 8.131084
