!@!!GADDS PLOTSO FILE: Chi integration type
!@!!Title/SampleName: map-c
!@!!Comment: ?
!@!!User: Bruker Instrument Administrator
!@!!Site: University of Illinois Chicago
!@!!Frame: map-c_01_000.gfrm
!@!!Wavelengths    1.54184   1.54056   1.54439
!@!!Frame angles: 2Theta: 63.000 Omega: 50.000 Phi: 0.000 Chi: 90.000
!@!!Integration range: 2Theta: 53.000 to 73.000  Gamma: -105.000 to -75.000
!@!!Integration method: bin normalized
!@!N
!@!SS
!@!M
!@!L 0.0 0.0 0.0 0.0
!@!XDegrees
!@!YCounts
53.000 6.566063
53.005 6.991404
53.010 6.63399
53.015 6.402826
53.020 6.486212
53.025 6.65108
53.030 7.132462
53.035 7.256226
53.040 7.607232
53.045 8.122149
53.050 8.277357
53.055 8.156352
53.060 7.95895
53.065 7.492792
53.070 6.894804
53.075 6.622529
53.080 6.572235
53.085 6.502568
53.090 6.725191
53.095 6.956177
53.100 7.543364
53.105 8.278874
53.110 8.504215
53.115 8.555089
53.120 8.385686
53.125 8.18077
53.130 8.182596
53.135 7.800723
53.140 7.880192
53.145 8.014896
53.150 8.248458
53.155 8.639295
53.160 8.681794
53.165 8.845586
53.170 8.907726
53.175 8.602128
53.180 8.307022
53.185 8.117711
53.190 8.001043
53.195 7.85899
53.200 7.56023
53.205 7.267415
53.210 7.135485
53.215 7.099814
53.220 7.223654
53.225 7.424119
53.230 7.505664
53.235 7.241787
53.240 7.306903
53.245 7.46731
53.250 7.191397
53.255 7.008693
53.260 6.909837
53.265 6.84838
53.270 7.123385
53.275 7.383295
53.280 7.54969
53.285 7.575726
53.290 7.444098
53.295 7.727759
53.300 7.667968
53.305 7.787517
53.310 7.862449
53.315 8.131826
53.320 8.698441
53.325 8.807604
53.330 8.271616
53.335 8.406863
53.340 8.241759
53.345 7.935477
53.350 7.783255
53.355 7.735658
53.360 8.137178
53.365 8.635829
53.370 8.696259
53.375 8.906906
53.380 9.052699
53.385 8.472263
53.390 8.181962
53.395 7.902657
53.400 7.914934
53.405 8.043612
53.410 8.097589
53.415 8.130566
53.420 8.814545
53.425 9.020193
53.430 9.371762
53.435 9.580766
53.440 9.053085
53.445 8.699979
53.450 8.807637
53.455 8.357034
53.460 7.968173
53.465 7.922507
53.470 7.605555
53.475 7.838356
53.480 8.099862
53.485 7.595294
53.490 7.82582
53.495 7.597732
53.500 7.580072
53.505 7.629692
53.510 7.871268
53.515 7.786861
53.520 8.059335
53.525 8.419919
53.530 8.505794
53.535 8.313429
53.540 7.925556
53.545 7.898353
53.550 8.049575
53.555 7.838502
53.560 7.882246
53.565 8.064584
53.570 8.235512
53.575 8.278669
53.580 7.93093
53.585 8.044187
53.590 8.045794
53.595 8.097065
53.600 8.256694
53.605 8.3817
53.610 8.427342
53.615 8.555805
53.620 8.609592
53.625 8.540347
53.630 8.737263
53.635 8.973941
53.640 9.11202
53.645 9.184604
53.650 8.990369
53.655 8.888357
53.660 8.772228
53.665 8.43493
53.670 8.278792
53.675 8.137643
53.680 8.456348
53.685 8.780982
53.690 8.649975
53.695 8.555223
53.700 8.32312
53.705 8.059664
53.710 8.002298
53.715 7.850124
53.720 7.692418
53.725 8.160964
53.730 8.257517
53.735 8.522902
53.740 8.763188
53.745 8.700112
53.750 9.17295
53.755 9.51938
53.760 9.387645
53.765 9.224849
53.770 9.193089
53.775 9.319122
53.780 9.280664
53.785 8.970038
53.790 8.541719
53.795 8.244084
53.800 8.091634
53.805 8.168819
53.810 8.133045
53.815 8.209529
53.820 8.317749
53.825 8.386573
53.830 8.293351
53.835 8.208934
53.840 7.837654
53.845 7.664245
53.850 7.294989
53.855 7.089472
53.860 7.176361
53.865 7.296566
53.870 7.627293
53.875 8.227486
53.880 8.675501
53.885 8.97936
53.890 9.165563
53.895 9.553346
53.900 9.227746
53.905 8.795448
53.910 8.394533
53.915 8.559253
53.920 8.650381
53.925 8.774774
53.930 8.605183
53.935 9.055058
53.940 10.123981
53.945 10.010139
53.950 9.559497
53.955 9.47681
53.960 9.427427
53.965 10.070945
53.970 9.685562
53.975 9.281388
53.980 9.534155
53.985 9.34296
53.990 9.055067
53.995 8.986559
54.000 9.127075
54.005 9.298391
54.010 8.726534
54.015 8.765827
54.020 8.737474
54.025 8.774551
54.030 8.855062
54.035 8.593734
54.040 8.776494
54.045 9.145487
54.050 9.528929
54.055 9.734562
54.060 9.597415
54.065 9.487258
54.070 9.289916
54.075 8.921223
54.080 9.291913
54.085 9.404031
54.090 9.452696
54.095 9.219035
54.100 9.132636
54.105 9.456485
54.110 9.740082
54.115 9.160477
54.120 9.148279
54.125 9.214561
54.130 9.485114
54.135 9.411939
54.140 9.181573
54.145 9.01556
54.150 8.760839
54.155 8.577748
54.160 8.271957
54.165 8.128916
54.170 7.952975
54.175 7.823326
54.180 7.83205
54.185 7.946043
54.190 8.012068
54.195 8.265106
54.200 8.06441
54.205 8.436533
54.210 8.231546
54.215 8.109152
54.220 8.355374
54.225 8.624732
54.230 8.696038
54.235 9.065202
54.240 8.922751
54.245 9.153005
54.250 8.95446
54.255 9.206982
54.260 8.695178
54.265 7.925273
54.270 7.621095
54.275 7.657093
54.280 7.814532
54.285 7.867733
54.290 7.564448
54.295 7.87415
54.300 8.335005
54.305 8.794185
54.310 8.769469
54.315 9.065756
54.320 9.237947
54.325 9.386456
54.330 9.724494
54.335 9.875404
54.340 9.884361
54.345 9.855541
54.350 9.395408
54.355 9.32281
54.360 9.257998
54.365 9.378785
54.370 9.748781
54.375 9.958787
54.380 9.901113
54.385 10.186112
54.390 10.538359
54.395 10.325392
54.400 9.926551
54.405 9.484575
54.410 9.367844
54.415 9.808803
54.420 9.571207
54.425 9.628992
54.430 9.819479
54.435 10.091665
54.440 10.218951
54.445 10.180717
54.450 10.167758
54.455 10.261588
54.460 10.606556
54.465 10.786561
54.470 10.931443
54.475 10.600424
54.480 10.682353
54.485 10.88229
54.490 10.704538
54.495 10.313132
54.500 10.348742
54.505 10.00887
54.510 9.812176
54.515 8.899065
54.520 8.512113
54.525 8.603541
54.530 8.316022
54.535 8.127611
54.540 8.298959
54.545 8.928346
54.550 9.27835
54.555 9.146694
54.560 8.930822
54.565 8.923847
54.570 8.912331
54.575 8.716763
54.580 8.636573
54.585 9.040327
54.590 8.882069
54.595 8.851571
54.600 8.924733
54.605 8.60043
54.610 8.961737
54.615 8.843063
54.620 9.050372
54.625 9.218803
54.630 9.378673
54.635 9.705718
54.640 10.095883
54.645 9.903967
54.650 9.950356
54.655 9.581848
54.660 9.597702
54.665 9.318496
54.670 9.044558
54.675 9.035036
54.680 9.074945
54.685 9.1452
54.690 9.621393
54.695 9.791843
54.700 9.793821
54.705 9.769009
54.710 9.137462
54.715 9.211259
54.720 9.018576
54.725 9.032252
54.730 9.04644
54.735 9.017837
54.740 9.591392
54.745 10.431628
54.750 10.152987
54.755 9.989184
54.760 10.18054
54.765 10.529082
54.770 10.95844
54.775 11.172448
54.780 11.176114
54.785 11.150025
54.790 11.050529
54.795 11.180357
54.800 10.729165
54.805 10.344888
54.810 9.979555
54.815 10.506405
54.820 11.054541
54.825 10.918309
54.830 10.698772
54.835 11.117622
54.840 11.472561
54.845 11.031886
54.850 10.597848
54.855 10.157016
54.860 10.359799
54.865 10.291602
54.870 9.809815
54.875 9.558522
54.880 9.709545
54.885 9.8745
54.890 9.8155
54.895 9.832286
54.900 10.213874
54.905 10.173331
54.910 9.993613
54.915 9.708108
54.920 9.572176
54.925 9.493997
54.930 9.092137
54.935 8.928383
54.940 9.502389
54.945 10.058613
54.950 10.616581
54.955 10.653172
54.960 10.738096
54.965 11.138504
54.970 11.205464
54.975 11.032601
54.980 10.853064
54.985 10.368992
54.990 10.639028
54.995 10.572076
55.000 10.499188
55.005 10.427071
55.010 9.974278
55.015 9.659108
55.020 10.159323
55.025 10.452783
55.030 10.502206
55.035 10.558893
55.040 10.489215
55.045 10.51798
55.050 10.74356
55.055 10.475165
55.060 10.423689
55.065 10.452901
55.070 10.812753
55.075 11.237407
55.080 11.393952
55.085 10.960814
55.090 10.472384
55.095 10.015544
55.100 10.011475
55.105 9.563258
55.110 9.497873
55.115 9.457944
55.120 9.349856
55.125 9.811309
55.130 10.594017
55.135 10.599963
55.140 10.346902
55.145 10.203857
55.150 10.374121
55.155 10.645031
55.160 10.077986
55.165 9.374284
55.170 9.332819
55.175 9.517988
55.180 9.592736
55.185 9.926516
55.190 10.31083
55.195 10.811557
55.200 10.790579
55.205 10.680698
55.210 10.64569
55.215 10.855097
55.220 10.72494
55.225 10.449283
55.230 10.204741
55.235 10.212601
55.240 10.474508
55.245 10.813572
55.250 10.623828
55.255 10.633789
55.260 10.144794
55.265 9.993344
55.270 10.086152
55.275 9.578815
55.280 9.101631
55.285 8.826639
55.290 9.370985
55.295 10.01531
55.300 10.034747
55.305 10.03293
55.310 10.55116
55.315 10.925589
55.320 11.095216
55.325 10.688358
55.330 10.309254
55.335 10.32945
55.340 10.398525
55.345 10.241094
55.350 10.041037
55.355 9.867348
55.360 10.343874
55.365 10.25437
55.370 9.735422
55.375 9.266409
55.380 8.888246
55.385 9.144737
55.390 8.931326
55.395 9.334569
55.400 10.101962
55.405 10.326367
55.410 10.46876
55.415 10.652367
55.420 10.3345
55.425 9.999622
55.430 9.445109
55.435 9.083306
55.440 9.724785
55.445 10.188924
55.450 10.664085
55.455 10.460722
55.460 10.737985
55.465 10.696936
55.470 10.825263
55.475 11.026396
55.480 10.681561
55.485 10.551027
55.490 10.71909
55.495 10.444244
55.500 10.615251
55.505 10.275533
55.510 10.504251
55.515 10.735746
55.520 10.542397
55.525 10.5672
55.530 10.710133
55.535 10.972489
55.540 11.223158
55.545 10.848608
55.550 10.375671
55.555 10.372852
55.560 10.517248
55.565 10.499933
55.570 10.166884
55.575 9.491787
55.580 9.51116
55.585 10.278455
55.590 10.481353
55.595 10.259624
55.600 9.826145
55.605 9.859926
55.610 10.039785
55.615 9.764922
55.620 9.507046
55.625 9.348837
55.630 9.49689
55.635 9.777393
55.640 9.842623
55.645 10.02135
55.650 9.53917
55.655 9.682687
55.660 9.784398
55.665 9.867599
55.670 9.727527
55.675 9.857016
55.680 9.640715
55.685 9.868751
55.690 9.792747
55.695 9.90686
55.700 10.150829
55.705 10.600674
55.710 10.239781
55.715 10.577204
55.720 10.956694
55.725 11.422549
55.730 11.45915
55.735 10.822592
55.740 10.690802
55.745 10.878767
55.750 11.380758
55.755 10.893826
55.760 10.441323
55.765 10.624034
55.770 10.845877
55.775 11.152425
55.780 11.013553
55.785 10.228974
55.790 10.559381
55.795 10.93034
55.800 11.069759
55.805 10.965357
55.810 10.717813
55.815 11.236266
55.820 11.531789
55.825 11.276874
55.830 11.005908
55.835 10.882621
55.840 10.831378
55.845 10.632404
55.850 10.53679
55.855 10.780118
55.860 10.736973
55.865 10.830713
55.870 10.992436
55.875 11.109844
55.880 11.251634
55.885 11.186756
55.890 11.145878
55.895 11.246019
55.900 11.361115
55.905 11.852313
55.910 11.876024
55.915 11.968391
55.920 12.386758
55.925 12.342663
55.930 12.376276
55.935 12.347585
55.940 11.86075
55.945 11.971246
55.950 11.821205
55.955 11.551482
55.960 11.460866
55.965 11.20576
55.970 10.776818
55.975 10.913923
55.980 11.054614
55.985 11.130234
55.990 10.973034
55.995 11.333927
56.000 11.582979
56.005 12.100576
56.010 12.040042
56.015 12.032784
56.020 12.028531
56.025 12.125857
56.030 11.990353
56.035 12.237992
56.040 12.150004
56.045 11.692483
56.050 11.408817
56.055 11.306578
56.060 10.666753
56.065 10.383927
56.070 10.169197
56.075 9.778502
56.080 9.679712
56.085 9.821912
56.090 9.615184
56.095 9.805328
56.100 9.746631
56.105 9.554538
56.110 9.650106
56.115 9.820298
56.120 9.605841
56.125 9.568285
56.130 9.71489
56.135 9.773502
56.140 9.885513
56.145 9.850047
56.150 9.592207
56.155 9.792176
56.160 10.074008
56.165 9.942189
56.170 10.175797
56.175 10.176723
56.180 9.871601
56.185 10.208161
56.190 10.530436
56.195 10.534891
56.200 11.008601
56.205 11.009633
56.210 11.024133
56.215 11.984953
56.220 12.44558
56.225 12.409145
56.230 12.67653
56.235 12.620562
56.240 12.4932
56.245 12.69416
56.250 12.295629
56.255 12.03904
56.260 11.739697
56.265 11.283751
56.270 10.997313
56.275 11.026649
56.280 10.447589
56.285 10.122342
56.290 10.146782
56.295 10.381216
56.300 10.516863
56.305 10.699422
56.310 10.927354
56.315 11.404771
56.320 11.154406
56.325 11.06251
56.330 11.26676
56.335 11.445509
56.340 11.326499
56.345 11.300785
56.350 11.67826
56.355 11.950006
56.360 12.074153
56.365 11.937548
56.370 11.825244
56.375 11.342135
56.380 11.145091
56.385 10.863091
56.390 10.882532
56.395 10.959623
56.400 11.419459
56.405 11.840139
56.410 12.433914
56.415 12.728359
56.420 13.165844
56.425 13.599391
56.430 13.694868
56.435 13.207124
56.440 12.867522
56.445 12.816638
56.450 12.839417
56.455 12.593763
56.460 12.443576
56.465 12.346966
56.470 12.198532
56.475 12.293466
56.480 12.046117
56.485 11.702993
56.490 12.015146
56.495 11.755591
56.500 11.63218
56.505 12.040068
56.510 12.087189
56.515 12.038618
56.520 12.209888
56.525 11.976838
56.530 11.749061
56.535 11.430193
56.540 11.234639
56.545 11.011779
56.550 10.57781
56.555 10.244265
56.560 10.108333
56.565 10.356045
56.570 10.601171
56.575 10.952509
56.580 11.695835
56.585 12.321722
56.590 12.805737
56.595 13.068451
56.600 13.334952
56.605 13.231335
56.610 12.278084
56.615 11.693757
56.620 11.546873
56.625 11.407624
56.630 11.235271
56.635 10.969269
56.640 10.843322
56.645 11.514618
56.650 11.71436
56.655 11.531106
56.660 11.645865
56.665 11.681989
56.670 11.94262
56.675 12.137719
56.680 11.831435
56.685 11.737215
56.690 12.078424
56.695 11.85993
56.700 11.582004
56.705 11.345771
56.710 11.302207
56.715 11.679304
56.720 11.789393
56.725 11.419411
56.730 11.463624
56.735 11.621406
56.740 12.03162
56.745 12.673229
56.750 12.801511
56.755 12.37001
56.760 12.28282
56.765 12.669235
56.770 12.698274
56.775 12.226781
56.780 11.605292
56.785 11.766336
56.790 12.118793
56.795 11.953754
56.800 11.586359
56.805 11.702217
56.810 11.915682
56.815 12.023586
56.820 11.977425
56.825 12.117372
56.830 12.15834
56.835 12.014606
56.840 12.24869
56.845 12.404923
56.850 12.10473
56.855 12.076741
56.860 11.99917
56.865 12.112707
56.870 12.163926
56.875 11.951222
56.880 11.224322
56.885 11.200823
56.890 11.35113
56.895 11.390098
56.900 11.09664
56.905 10.723892
56.910 10.824172
56.915 11.716708
56.920 11.630297
56.925 11.355103
56.930 11.670137
56.935 11.992098
56.940 12.329367
56.945 12.160663
56.950 11.57154
56.955 11.404731
56.960 11.486776
56.965 11.621933
56.970 11.604061
56.975 11.790528
56.980 11.723647
56.985 12.361495
56.990 13.04085
56.995 13.120675
57.000 13.087956
57.005 13.069394
57.010 12.913144
57.015 13.098238
57.020 12.713724
57.025 12.406239
57.030 12.49717
57.035 12.331642
57.040 12.882718
57.045 12.918894
57.050 13.176833
57.055 13.462316
57.060 13.272882
57.065 13.167414
57.070 13.701462
57.075 12.963067
57.080 12.825824
57.085 12.311097
57.090 12.235821
57.095 12.085903
57.100 11.94693
57.105 11.637101
57.110 11.995522
57.115 11.7764
57.120 11.634213
57.125 11.688359
57.130 11.489047
57.135 11.06152
57.140 11.499404
57.145 11.976678
57.150 12.233876
57.155 12.505423
57.160 12.663463
57.165 13.500368
57.170 14.133517
57.175 14.132661
57.180 13.772553
57.185 13.538073
57.190 13.484392
57.195 13.335079
57.200 13.051978
57.205 11.943123
57.210 11.669078
57.215 11.905573
57.220 12.016096
57.225 11.956812
57.230 11.957772
57.235 11.752963
57.240 12.079942
57.245 11.829422
57.250 11.859279
57.255 11.633105
57.260 11.596805
57.265 11.792762
57.270 12.476535
57.275 12.41504
57.280 11.922654
57.285 12.542284
57.290 13.024651
57.295 12.904217
57.300 12.738595
57.305 12.803558
57.310 13.19181
57.315 13.613666
57.320 13.264626
57.325 13.179695
57.330 13.897716
57.335 13.617283
57.340 13.480737
57.345 13.516565
57.350 13.195726
57.355 12.96819
57.360 13.012704
57.365 12.842721
57.370 13.054638
57.375 12.774861
57.380 13.036356
57.385 13.010887
57.390 13.243944
57.395 13.256769
57.400 12.980142
57.405 12.932419
57.410 12.736126
57.415 12.104659
57.420 11.687594
57.425 11.558491
57.430 11.329239
57.435 11.109825
57.440 11.620107
57.445 11.911292
57.450 12.343699
57.455 12.734321
57.460 12.7926
57.465 13.123501
57.470 13.420116
57.475 13.023134
57.480 12.982763
57.485 13.591576
57.490 13.40839
57.495 13.357355
57.500 13.374454
57.505 13.18355
57.510 13.196036
57.515 13.202706
57.520 12.522725
57.525 12.776415
57.530 12.682089
57.535 12.51608
57.540 12.602613
57.545 12.673472
57.550 12.581839
57.555 12.583833
57.560 12.871721
57.565 12.890653
57.570 12.742801
57.575 13.076111
57.580 13.333601
57.585 12.907007
57.590 13.164071
57.595 13.569448
57.600 13.937915
57.605 13.919072
57.610 13.511666
57.615 13.406573
57.620 13.829558
57.625 13.370763
57.630 12.760514
57.635 12.442064
57.640 12.659648
57.645 12.752434
57.650 13.069916
57.655 13.468968
57.660 13.691761
57.665 13.284482
57.670 13.504774
57.675 13.422409
57.680 13.410114
57.685 13.371052
57.690 13.315996
57.695 13.28616
57.700 13.271057
57.705 13.235982
57.710 13.341211
57.715 13.579998
57.720 13.340113
57.725 13.278704
57.730 13.669479
57.735 13.976622
57.740 13.823839
57.745 13.517496
57.750 13.116227
57.755 12.953262
57.760 13.035924
57.765 12.551732
57.770 12.361264
57.775 12.360211
57.780 12.74584
57.785 12.920368
57.790 13.029481
57.795 12.994835
57.800 13.43007
57.805 13.449736
57.810 13.201849
57.815 13.022317
57.820 13.653864
57.825 13.774066
57.830 13.837028
57.835 13.695193
57.840 13.812508
57.845 14.019883
57.850 14.077722
57.855 13.942751
57.860 14.192869
57.865 13.689329
57.870 13.908125
57.875 13.872478
57.880 13.842683
57.885 13.558979
57.890 13.00077
57.895 12.678655
57.900 12.510935
57.905 12.230737
57.910 12.326178
57.915 12.283738
57.920 12.287107
57.925 13.065858
57.930 13.766128
57.935 14.327056
57.940 14.38426
57.945 14.527242
57.950 14.739792
57.955 14.663555
57.960 14.165376
57.965 13.557604
57.970 13.536374
57.975 13.53787
57.980 13.689133
57.985 13.432529
57.990 13.155369
57.995 12.735023
58.000 12.67806
58.005 12.891097
58.010 13.436508
58.015 13.393193
58.020 13.878098
58.025 14.810749
58.030 15.342303
58.035 15.256425
58.040 14.678046
58.045 14.368833
58.050 14.379642
58.055 14.211828
58.060 13.544042
58.065 13.205348
58.070 13.374656
58.075 13.353482
58.080 12.867139
58.085 12.607379
58.090 12.699315
58.095 13.033367
58.100 12.861315
58.105 13.457077
58.110 13.448912
58.115 13.60885
58.120 13.5096
58.125 13.084723
58.130 12.882442
58.135 12.987075
58.140 12.51113
58.145 12.805126
58.150 12.244425
58.155 12.11949
58.160 12.186058
58.165 12.264508
58.170 12.525106
58.175 12.316796
58.180 12.311968
58.185 12.695581
58.190 12.75941
58.195 12.412819
58.200 12.242765
58.205 12.021735
58.210 12.181356
58.215 12.183991
58.220 12.379149
58.225 12.682622
58.230 13.588205
58.235 14.386858
58.240 14.51851
58.245 14.362926
58.250 14.453856
58.255 14.851142
58.260 14.44847
58.265 14.178718
58.270 13.757248
58.275 13.859025
58.280 14.227084
58.285 14.350863
58.290 14.711393
58.295 15.305509
58.300 15.292213
58.305 15.665663
58.310 15.814301
58.315 16.166658
58.320 16.275278
58.325 15.85113
58.330 15.47159
58.335 15.434422
58.340 15.08154
58.345 15.10068
58.350 15.201849
58.355 15.174112
58.360 15.2065
58.365 15.242689
58.370 14.607535
58.375 14.408519
58.380 14.081028
58.385 13.349184
58.390 12.864285
58.395 12.647899
58.400 12.871977
58.405 13.167009
58.410 13.848636
58.415 14.095083
58.420 14.771897
58.425 14.634401
58.430 15.101027
58.435 15.461622
58.440 15.642722
58.445 15.45532
58.450 15.270298
58.455 15.065323
58.460 15.900831
58.465 15.77906
58.470 15.472379
58.475 15.146084
58.480 14.593546
58.485 14.17679
58.490 14.190269
58.495 14.176807
58.500 13.758633
58.505 13.643822
58.510 13.926019
58.515 14.175206
58.520 14.723598
58.525 14.877665
58.530 14.517944
58.535 14.693208
58.540 14.715894
58.545 14.529844
58.550 14.663444
58.555 14.575136
