!@!!GADDS PLOTSO FILE: Chi integration type
!@!!Title/SampleName: map-8b
!@!!Comment: ?
!@!!User: Bruker Instrument Administrator
!@!!Site: University of Illinois Chicago
!@!!Frame: map-8b_01_000.gfrm
!@!!Wavelengths    1.54184   1.54056   1.54439
!@!!Frame angles: 2Theta: 63.000 Omega: 50.000 Phi: 0.000 Chi: 90.000
!@!!Integration range: 2Theta: 53.000 to 73.000  Gamma: -105.000 to -75.000
!@!!Integration method: bin normalized
!@!N
!@!SS
!@!M
!@!L 0.0 0.0 0.0 0.0
!@!XDegrees
!@!YCounts
53.000 8.409523
53.005 8.140087
53.010 8.867589
53.015 9.211513
53.020 9.273151
53.025 9.017259
53.030 8.764457
53.035 8.680599
53.040 8.466962
53.045 8.247953
53.050 8.661819
53.055 9.319696
53.060 9.64028
53.065 9.734157
53.070 9.918512
53.075 10.095368
53.080 9.648046
53.085 9.196528
53.090 8.464021
53.095 8.049665
53.100 8.011583
53.105 8.217417
53.110 7.833824
53.115 7.831455
53.120 8.069577
53.125 8.659861
53.130 8.899936
53.135 8.829493
53.140 8.979932
53.145 9.430422
53.150 10.06276
53.155 10.064771
53.160 10.065133
53.165 10.26867
53.170 10.319351
53.175 10.659761
53.180 10.367794
53.185 9.797986
53.190 9.553747
53.195 9.291419
53.200 8.957391
53.205 8.618419
53.210 8.71471
53.215 8.891427
53.220 9.157266
53.225 9.174271
53.230 8.966291
53.235 9.035157
53.240 9.152155
53.245 8.99708
53.250 8.932981
53.255 9.127405
53.260 8.995959
53.265 9.251808
53.270 9.368834
53.275 9.286555
53.280 9.047181
53.285 9.029714
53.290 9.13506
53.295 9.132864
53.300 9.330444
53.305 9.259706
53.310 9.31065
53.315 9.322433
53.320 9.075509
53.325 8.996413
53.330 8.984393
53.335 9.056045
53.340 9.246381
53.345 9.336392
53.350 9.465961
53.355 9.76113
53.360 9.786036
53.365 9.579616
53.370 9.46804
53.375 9.093677
53.380 9.474186
53.385 9.437047
53.390 9.16908
53.395 9.06197
53.400 9.120366
53.405 9.275706
53.410 9.420029
53.415 8.75808
53.420 9.015404
53.425 9.342073
53.430 9.904493
53.435 9.695606
53.440 9.244472
53.445 9.330119
53.450 9.829392
53.455 10.784694
53.460 11.101596
53.465 11.245009
53.470 11.357689
53.475 11.443283
53.480 11.235176
53.485 10.706489
53.490 9.874998
53.495 9.211946
53.500 9.273617
53.505 9.518474
53.510 9.656305
53.515 9.974611
53.520 10.352246
53.525 10.568763
53.530 10.997825
53.535 11.194876
53.540 11.178747
53.545 11.221985
53.550 10.955084
53.555 10.672945
53.560 10.495408
53.565 9.846494
53.570 9.356202
53.575 9.332133
53.580 9.529119
53.585 9.473445
53.590 9.286642
53.595 9.777985
53.600 10.031708
53.605 10.401698
53.610 10.37356
53.615 10.212072
53.620 10.152986
53.625 10.117231
53.630 9.398549
53.635 9.320023
53.640 8.872153
53.645 9.127604
53.650 9.231799
53.655 9.290125
53.660 9.294199
53.665 9.713784
53.670 9.960513
53.675 9.77003
53.680 9.587029
53.685 9.631705
53.690 9.430365
53.695 9.43096
53.700 9.185774
53.705 9.519238
53.710 9.569613
53.715 9.158766
53.720 9.005715
53.725 9.422008
53.730 9.422338
53.735 9.418881
53.740 9.531538
53.745 10.337202
53.750 10.761687
53.755 10.734508
53.760 10.346845
53.765 10.28871
53.770 10.206823
53.775 9.979623
53.780 9.734015
53.785 9.68204
53.790 10.117756
53.795 10.221588
53.800 10.326958
53.805 10.33367
53.810 9.71451
53.815 9.608291
53.820 9.790915
53.825 9.520315
53.830 9.813986
53.835 9.803024
53.840 9.725139
53.845 10.113785
53.850 9.796512
53.855 9.984637
53.860 9.707755
53.865 9.599393
53.870 9.59903
53.875 9.862759
53.880 9.765047
53.885 9.733273
53.890 9.726634
53.895 10.134667
53.900 10.582353
53.905 10.665818
53.910 10.464643
53.915 10.632007
53.920 10.574734
53.925 10.00741
53.930 9.746974
53.935 9.308592
53.940 9.299644
53.945 9.153005
53.950 9.229937
53.955 9.456905
53.960 9.610271
53.965 9.60885
53.970 9.170961
53.975 9.44978
53.980 9.861402
53.985 9.930211
53.990 10.290462
53.995 10.752546
54.000 10.683176
54.005 11.146362
54.010 11.329488
54.015 11.546697
54.020 11.672042
54.025 11.399445
54.030 11.508109
54.035 11.715755
54.040 11.454112
54.045 10.902112
54.050 10.569138
54.055 10.528834
54.060 10.027058
54.065 9.929602
54.070 9.779922
54.075 9.827822
54.080 9.869984
54.085 10.047857
54.090 10.139311
54.095 10.653188
54.100 10.996419
54.105 11.479061
54.110 12.076179
54.115 11.687428
54.120 11.44461
54.125 11.531262
54.130 11.188841
54.135 10.6222
54.140 9.83698
54.145 8.988855
54.150 8.645722
54.155 8.595802
54.160 8.683214
54.165 9.00126
54.170 9.548981
54.175 9.949529
54.180 10.735601
54.185 11.125799
54.190 11.229825
54.195 11.080045
54.200 10.809525
54.205 10.579423
54.210 10.656063
54.215 10.862395
54.220 10.795055
54.225 10.822409
54.230 10.885013
54.235 11.018874
54.240 11.167006
54.245 11.04684
54.250 11.126273
54.255 11.147371
54.260 10.972619
54.265 11.201932
54.270 11.78971
54.275 11.819715
54.280 12.159301
54.285 12.037457
54.290 12.099567
54.295 12.129072
54.300 11.459948
54.305 10.87015
54.310 11.081978
54.315 10.942937
54.320 11.230873
54.325 11.229862
54.330 11.38955
54.335 11.660512
54.340 11.374913
54.345 10.993256
54.350 11.026452
54.355 10.700159
54.360 10.70796
54.365 10.621782
54.370 10.353794
54.375 10.389
54.380 10.348728
54.385 10.069706
54.390 10.148269
54.395 10.344209
54.400 10.782242
54.405 11.048052
54.410 11.272168
54.415 11.569696
54.420 11.929465
54.425 11.596444
54.430 11.131117
54.435 10.770422
54.440 10.514877
54.445 10.28346
54.450 9.651972
54.455 9.324972
54.460 9.444797
54.465 9.793973
54.470 10.388227
54.475 10.613093
54.480 10.33882
54.485 10.794053
54.490 11.269296
54.495 11.184084
54.500 10.748901
54.505 10.299398
54.510 10.285288
54.515 10.538768
54.520 10.349594
54.525 10.3788
54.530 10.514236
54.535 10.496264
54.540 10.107988
54.545 10.13764
54.550 10.194486
54.555 10.11957
54.560 9.412695
54.565 9.530339
54.570 9.882053
54.575 10.430528
54.580 10.867188
54.585 10.950057
54.590 11.070204
54.595 11.348023
54.600 11.117948
54.605 10.965254
54.610 10.817139
54.615 10.654278
54.620 10.339427
54.625 10.244364
54.630 10.210687
54.635 10.471297
54.640 10.433402
54.645 10.248401
54.650 10.323926
54.655 10.80059
54.660 10.837751
54.665 11.033295
54.670 11.192487
54.675 11.255291
54.680 11.093308
54.685 10.955579
54.690 10.720296
54.695 11.08349
54.700 11.070298
54.705 10.599494
54.710 10.847371
54.715 11.181413
54.720 11.125614
54.725 11.231846
54.730 10.890034
54.735 10.309805
54.740 10.359635
54.745 10.392612
54.750 10.667582
54.755 10.7207
54.760 10.935988
54.765 11.241168
54.770 11.536333
54.775 11.660111
54.780 11.351777
54.785 11.601954
54.790 12.046532
54.795 11.851374
54.800 12.025132
54.805 12.105094
54.810 12.135892
54.815 11.984159
54.820 11.419316
54.825 10.972525
54.830 10.976691
54.835 11.49478
54.840 11.67349
54.845 12.257803
54.850 12.761292
54.855 12.467876
54.860 12.595484
54.865 12.574425
54.870 12.254328
54.875 12.114261
54.880 11.459981
54.885 11.325891
54.890 11.506642
54.895 11.097892
54.900 10.877398
54.905 10.827983
54.910 10.933052
54.915 11.365743
54.920 11.819836
54.925 11.824214
54.930 12.005023
54.935 12.449099
54.940 12.293157
54.945 11.76949
54.950 11.404071
54.955 11.035554
54.960 11.305922
54.965 11.079551
54.970 10.322031
54.975 10.188865
54.980 10.575873
54.985 10.016424
54.990 10.074795
54.995 9.86557
55.000 9.93722
55.005 10.516129
55.010 10.200541
55.015 9.644279
55.020 10.037413
55.025 9.863299
55.030 10.304046
55.035 10.276921
55.040 10.550844
55.045 10.699989
55.050 11.081434
55.055 11.060375
55.060 11.464944
55.065 11.585098
55.070 12.181018
55.075 12.053576
55.080 12.63544
55.085 12.685491
55.090 12.858502
55.095 12.48409
55.100 12.379381
55.105 11.774485
55.110 11.971444
55.115 11.400318
55.120 11.25975
55.125 11.087069
55.130 11.061707
55.135 11.180297
55.140 11.193105
55.145 11.194806
55.150 11.545697
55.155 12.341413
55.160 13.114842
55.165 13.348033
55.170 13.01174
55.175 13.422676
55.180 14.125129
55.185 14.102607
55.190 13.50375
55.195 12.541508
55.200 12.429571
55.205 12.201082
55.210 11.805351
55.215 11.582591
55.220 11.354349
55.225 10.933683
55.230 11.07264
55.235 11.153238
55.240 11.38039
55.245 11.263587
55.250 10.726127
55.255 11.237115
55.260 11.993068
55.265 11.959216
55.270 12.208712
55.275 12.499315
55.280 12.639512
55.285 12.809258
55.290 11.853912
55.295 11.604823
55.300 11.450953
55.305 10.288376
55.310 10.163452
55.315 10.176908
55.320 10.277517
55.325 10.759286
55.330 10.703369
55.335 10.85461
55.340 11.157575
55.345 11.428583
55.350 11.282393
55.355 11.174251
55.360 11.479523
55.365 11.348968
55.370 10.874701
55.375 10.576904
55.380 9.973913
55.385 10.208196
55.390 10.123955
55.395 9.512896
55.400 9.751174
55.405 9.978059
55.410 10.123549
55.415 10.248645
55.420 10.531479
55.425 11.256405
55.430 11.800266
55.435 12.356072
55.440 12.942822
55.445 13.430206
55.450 13.526342
55.455 13.64392
55.460 13.591196
55.465 13.599918
55.470 13.998091
55.475 13.984339
55.480 13.801689
55.485 13.531192
55.490 13.365784
55.495 13.636838
55.500 13.40365
55.505 12.478004
55.510 11.695224
55.515 11.599219
55.520 12.038607
55.525 11.574418
55.530 11.116962
55.535 11.271122
55.540 11.716283
55.545 12.300203
55.550 12.095846
55.555 11.557865
55.560 11.452402
55.565 11.313626
55.570 10.987432
55.575 10.900211
55.580 11.077531
55.585 12.035052
55.590 12.572506
55.595 12.441617
55.600 12.431461
55.605 12.620451
55.610 12.843265
55.615 12.325166
55.620 11.531778
55.625 10.977587
55.630 10.836336
55.635 10.666871
55.640 10.725909
55.645 10.250907
55.650 10.186286
55.655 10.62662
55.660 11.139266
55.665 11.109193
55.670 11.206773
55.675 11.327662
55.680 11.196612
55.685 10.867539
55.690 10.747555
55.695 10.667534
55.700 10.789944
55.705 11.122695
55.710 11.519351
55.715 12.246479
55.720 12.595056
55.725 12.389235
55.730 12.72486
55.735 13.387343
55.740 12.675051
55.745 12.408072
55.750 12.257058
55.755 12.285682
55.760 12.29288
55.765 11.834954
55.770 11.230893
55.775 11.554993
55.780 11.683062
55.785 12.106359
55.790 12.073573
55.795 12.400105
55.800 12.874281
55.805 13.24526
55.810 12.974823
55.815 12.481229
55.820 11.663681
55.825 11.597693
55.830 11.507944
55.835 11.002783
55.840 10.929226
55.845 11.33043
55.850 12.04089
55.855 12.659432
55.860 12.960814
55.865 13.18912
55.870 13.394697
55.875 13.163339
55.880 13.313795
55.885 13.004364
55.890 12.80012
55.895 12.311422
55.900 12.235698
55.905 12.194393
55.910 12.596204
55.915 12.55542
55.920 12.651378
55.925 13.197461
55.930 13.358774
55.935 13.776787
55.940 14.195982
55.945 14.470417
55.950 14.42201
55.955 14.474605
55.960 14.129915
55.965 13.924913
55.970 13.895498
55.975 13.195642
55.980 12.619841
55.985 12.5225
55.990 11.977448
55.995 11.78804
56.000 12.001003
56.005 12.307894
56.010 12.548515
56.015 12.47366
56.020 12.332224
56.025 12.629783
56.030 12.616657
56.035 11.932741
56.040 11.590125
56.045 11.8086
56.050 12.118439
56.055 12.587336
56.060 13.050698
56.065 13.38518
56.070 13.733902
56.075 13.878417
56.080 13.415263
56.085 13.551411
56.090 13.080247
56.095 13.039402
56.100 12.893
56.105 12.888252
56.110 12.769296
56.115 12.448518
56.120 11.980529
56.125 12.085165
56.130 11.836005
56.135 12.051567
56.140 11.628078
56.145 11.458149
56.150 11.696427
56.155 11.87006
56.160 11.462392
56.165 11.255086
56.170 11.086895
56.175 11.217633
56.180 11.052459
56.185 11.121297
56.190 11.454868
56.195 11.671792
56.200 11.674114
56.205 11.217775
56.210 10.84964
56.215 11.868165
56.220 11.731675
56.225 11.554324
56.230 12.257292
56.235 12.565531
56.240 13.466084
56.245 13.636449
56.250 13.021911
56.255 13.501108
56.260 13.424135
56.265 12.934484
56.270 12.799683
56.275 12.70222
56.280 12.544657
56.285 12.816895
56.290 12.835433
56.295 12.655479
56.300 12.762069
56.305 12.782053
56.310 13.075233
56.315 13.29537
56.320 13.015425
56.325 13.002218
56.330 13.334412
56.335 13.093513
56.340 13.27271
56.345 13.347019
56.350 13.428284
56.355 13.337911
56.360 12.894637
56.365 13.328984
56.370 13.425095
56.375 13.332973
56.380 12.937922
56.385 13.095621
56.390 13.29787
56.395 13.156005
56.400 12.453784
56.405 12.525069
56.410 12.407556
56.415 12.595169
56.420 12.219982
56.425 12.029206
56.430 12.610419
56.435 12.881925
56.440 13.217779
56.445 13.499554
56.450 13.517114
56.455 13.670751
56.460 13.609363
56.465 13.043374
56.470 12.384063
56.475 11.861259
56.480 11.441665
56.485 10.929007
56.490 11.58756
56.495 11.839611
56.500 12.333529
56.505 12.957283
56.510 12.843863
56.515 12.97009
56.520 13.508602
56.525 13.119204
56.530 12.773935
56.535 12.559936
56.540 12.525163
56.545 12.875789
56.550 12.695427
56.555 12.531516
56.560 12.770118
56.565 13.046533
56.570 13.041201
56.575 12.821396
56.580 12.506513
56.585 12.830894
56.590 12.23126
56.595 11.622092
56.600 11.386831
56.605 11.566956
56.610 12.066381
56.615 11.889194
56.620 11.711222
56.625 12.255804
56.630 12.550322
56.635 12.646255
56.640 12.089029
56.645 11.892288
56.650 12.367409
56.655 12.633418
56.660 12.699289
56.665 12.597658
56.670 12.534795
56.675 12.402184
56.680 12.351132
56.685 12.416555
56.690 12.159297
56.695 12.274146
56.700 12.65476
56.705 12.98342
56.710 13.112631
56.715 13.317903
56.720 13.108861
56.725 12.903155
56.730 12.836779
56.735 12.395081
56.740 12.974415
56.745 13.419381
56.750 13.366917
56.755 13.929736
56.760 14.408774
56.765 14.550224
56.770 14.550691
56.775 13.920267
56.780 14.037537
56.785 14.096407
56.790 14.15255
56.795 13.746882
56.800 13.630085
56.805 14.385791
56.810 14.469432
56.815 14.081423
56.820 13.821677
56.825 13.526833
56.830 13.94171
56.835 14.176396
56.840 13.880867
56.845 13.381494
56.850 13.429719
56.855 13.098981
56.860 12.858545
56.865 12.617039
56.870 12.758647
56.875 12.678682
56.880 13.022054
56.885 13.353334
56.890 13.439716
56.895 13.945702
56.900 13.915458
56.905 13.17805
56.910 12.91766
56.915 12.693873
56.920 12.4231
56.925 13.184333
56.930 13.212079
56.935 13.304176
56.940 13.803418
56.945 13.8353
56.950 14.09331
56.955 14.453455
56.960 14.233982
56.965 14.420028
56.970 14.174061
56.975 14.171523
56.980 14.342131
56.985 14.628389
56.990 14.529781
56.995 14.453633
57.000 14.028789
57.005 14.245504
57.010 14.18484
57.015 13.812421
57.020 13.711138
57.025 13.622381
57.030 13.485956
57.035 13.674494
57.040 13.294716
57.045 13.23291
57.050 13.099524
57.055 13.215332
57.060 13.040965
57.065 12.895806
57.070 12.893282
57.075 13.092258
57.080 13.386219
57.085 13.274687
57.090 12.469646
57.095 12.191031
57.100 11.922793
57.105 12.374517
57.110 12.42307
57.115 11.96011
57.120 12.214366
57.125 11.867432
57.130 12.02318
57.135 12.112789
57.140 11.690822
57.145 11.549972
57.150 11.753444
57.155 11.642687
57.160 12.208014
57.165 12.493762
57.170 12.48081
57.175 13.007847
57.180 13.310468
57.185 13.632412
57.190 13.821121
57.195 13.742214
57.200 14.074171
57.205 14.208181
57.210 13.629704
57.215 13.291653
57.220 13.310111
57.225 13.516236
57.230 13.295323
57.235 13.154637
57.240 12.974397
57.245 13.943773
57.250 14.058202
57.255 13.529008
57.260 13.345539
57.265 13.038376
57.270 13.255467
57.275 13.124997
57.280 12.694602
57.285 12.793413
57.290 13.501068
57.295 14.219725
57.300 14.643102
57.305 14.093416
57.310 13.673663
57.315 13.166191
57.320 12.886692
57.325 12.558865
57.330 12.453851
57.335 12.558874
57.340 12.8287
57.345 13.292385
57.350 13.503435
57.355 13.603702
57.360 13.749145
57.365 13.642599
57.370 13.80728
57.375 13.718421
57.380 13.704079
57.385 13.53862
57.390 13.280425
57.395 13.276328
57.400 13.691241
57.405 14.209914
57.410 14.845142
57.415 14.979863
57.420 15.370553
57.425 15.729992
57.430 15.634356
57.435 15.522456
57.440 14.768976
57.445 14.412301
57.450 14.521485
57.455 14.354683
57.460 14.20873
57.465 13.844731
57.470 13.079376
57.475 13.328678
57.480 13.194999
57.485 13.129874
57.490 13.342448
57.495 13.276082
57.500 13.411483
57.505 13.753633
57.510 13.667887
57.515 13.361553
57.520 13.473051
57.525 12.872553
57.530 13.430982
57.535 13.42332
57.540 13.238678
57.545 12.97986
57.550 13.193809
57.555 13.708658
57.560 14.493619
57.565 14.802771
57.570 15.688132
57.575 16.393265
57.580 17.236986
57.585 17.326895
57.590 17.388302
57.595 17.529909
57.600 17.621887
57.605 17.625479
57.610 17.464535
57.615 17.145943
57.620 17.283554
57.625 16.81871
57.630 16.759727
57.635 15.931943
57.640 15.145832
57.645 14.788118
57.650 14.485961
57.655 14.237731
57.660 14.754444
57.665 14.394656
57.670 14.435145
57.675 15.16411
57.680 14.891223
57.685 14.908554
57.690 13.935112
57.695 12.838921
57.700 13.135414
57.705 13.082496
57.710 13.001412
57.715 13.180749
57.720 13.248185
57.725 13.987787
57.730 14.890253
57.735 15.131396
57.740 15.621436
57.745 15.81874
57.750 16.362947
57.755 16.934797
57.760 17.284121
57.765 17.203293
57.770 16.981781
57.775 16.837679
57.780 16.224356
57.785 16.116968
57.790 15.878935
57.795 15.637651
57.800 15.830591
57.805 15.601002
57.810 15.294262
57.815 15.465976
57.820 14.94092
57.825 15.143944
57.830 15.028636
57.835 14.764449
57.840 15.259682
57.845 16.08844
57.850 16.08485
57.855 16.728785
57.860 16.692646
57.865 16.383574
57.870 15.87563
57.875 15.681077
57.880 15.662725
57.885 15.485909
57.890 15.271945
57.895 15.227242
57.900 15.84833
57.905 16.24794
57.910 16.337303
57.915 16.095503
57.920 16.381996
57.925 16.777678
57.930 16.846605
57.935 17.024458
57.940 17.70005
57.945 17.868662
57.950 17.987375
57.955 17.775614
57.960 17.109404
57.965 16.963823
57.970 17.197803
57.975 16.852455
57.980 17.078083
57.985 17.388403
57.990 17.610054
57.995 18.131298
58.000 18.122709
58.005 17.986259
58.010 17.813986
58.015 16.885635
58.020 16.6078
58.025 16.698772
58.030 16.694056
58.035 16.437248
58.040 16.241095
58.045 16.950747
58.050 17.59086
58.055 17.853138
58.060 17.579557
58.065 17.498104
58.070 17.896727
58.075 18.853859
58.080 18.660179
58.085 18.143234
58.090 18.084099
58.095 18.053968
58.100 17.835499
58.105 17.586485
58.110 16.538778
58.115 16.193714
58.120 16.336029
58.125 16.066391
58.130 16.257662
58.135 16.4452
58.140 16.49898
58.145 16.382679
58.150 16.268675
58.155 16.056293
58.160 15.927632
58.165 16.058229
58.170 15.88577
58.175 15.658502
58.180 16.178562
58.185 16.571726
58.190 17.601999
58.195 17.835651
58.200 17.515022
58.205 18.027958
58.210 18.517235
58.215 17.752506
58.220 17.945084
58.225 17.708265
58.230 17.943769
58.235 18.337343
58.240 18.44055
58.245 18.885736
58.250 19.417973
58.255 19.380882
58.260 19.319246
58.265 19.205391
58.270 19.49696
58.275 19.108196
58.280 18.861036
58.285 18.900269
58.290 19.143368
58.295 19.459377
58.300 19.966316
58.305 20.398888
58.310 20.70039
58.315 20.465963
58.320 20.737518
58.325 20.482
58.330 20.640169
58.335 20.384394
58.340 20.063761
58.345 20.17581
58.350 20.691004
58.355 21.566244
58.360 22.185829
58.365 22.2871
58.370 22.517246
58.375 22.965096
58.380 22.579174
58.385 23.25375
58.390 23.14604
58.395 23.574396
58.400 23.863472
58.405 24.083059
58.410 24.298792
58.415 25.323908
58.420 25.332888
58.425 25.473253
58.430 25.813475
58.435 26.004972
58.440 26.060947
58.445 25.921513
58.450 26.240559
58.455 26.679966
58.460 26.875814
58.465 27.343328
58.470 28.318102
58.475 28.948809
58.480 29.135609
58.485 29.096474
58.490 29.672375
58.495 30.367357
