!@!!GADDS PLOTSO FILE: Chi integration type
!@!!Title/SampleName: map-141
!@!!Comment: ?
!@!!User: Bruker Instrument Administrator
!@!!Site: University of Illinois Chicago
!@!!Frame: map-141_01_000.gfrm
!@!!Wavelengths    1.54184   1.54056   1.54439
!@!!Frame angles: 2Theta: 63.000 Omega: 50.000 Phi: 0.000 Chi: 90.000
!@!!Integration range: 2Theta: 53.000 to 73.000  Gamma: -105.000 to -75.000
!@!!Integration method: bin normalized
!@!N
!@!SS
!@!M
!@!L 0.0 0.0 0.0 0.0
!@!XDegrees
!@!YCounts
53.000 10.804388
53.005 10.7612
53.010 11.076353
53.015 10.928487
53.020 11.08396
53.025 11.018372
53.030 10.841811
53.035 10.273993
53.040 10.140744
53.045 9.564659
53.050 9.00211
53.055 9.391765
53.060 9.501817
53.065 9.769793
53.070 9.828171
53.075 10.310464
53.080 10.999352
53.085 10.992193
53.090 10.977067
53.095 11.058575
53.100 10.799548
53.105 10.407792
53.110 10.259571
53.115 10.207714
53.120 10.50875
53.125 10.121591
53.130 9.747543
53.135 9.958602
53.140 10.117648
53.145 9.941875
53.150 9.404909
53.155 9.392469
53.160 9.856502
53.165 10.124215
53.170 9.966253
53.175 9.899093
53.180 10.330773
53.185 10.645354
53.190 10.857243
53.195 10.669898
53.200 10.785089
53.205 10.803735
53.210 10.676799
53.215 10.62598
53.220 10.662127
53.225 10.873068
53.230 10.688108
53.235 10.636399
53.240 11.002364
53.245 11.022763
53.250 10.945287
53.255 10.682381
53.260 10.530398
53.265 10.421684
53.270 10.518509
53.275 10.334703
53.280 10.380898
53.285 10.367979
53.290 10.47232
53.295 11.137436
53.300 11.384436
53.305 11.452412
53.310 11.561891
53.315 11.494988
53.320 11.312621
53.325 10.954054
53.330 10.061303
53.335 9.625653
53.340 9.688808
53.345 9.450405
53.350 9.099788
53.355 9.333026
53.360 10.017884
53.365 10.467227
53.370 10.519072
53.375 10.721105
53.380 10.954996
53.385 11.411883
53.390 11.068009
53.395 10.801086
53.400 10.92748
53.405 10.804931
53.410 10.64804
53.415 10.799984
53.420 10.803734
53.425 10.793742
53.430 10.875388
53.435 11.031064
53.440 10.974724
53.445 10.948708
53.450 10.806481
53.455 10.665001
53.460 10.625863
53.465 10.501474
53.470 11.083841
53.475 11.489397
53.480 11.632836
53.485 11.354952
53.490 11.233731
53.495 11.399627
53.500 10.67362
53.505 9.955422
53.510 9.478475
53.515 8.980156
53.520 9.441419
53.525 9.755558
53.530 9.651505
53.535 9.81503
53.540 9.885377
53.545 10.0345
53.550 10.512975
53.555 10.776548
53.560 10.286703
53.565 10.217425
53.570 10.09381
53.575 10.518804
53.580 10.632481
53.585 9.99507
53.590 9.479292
53.595 9.961856
53.600 10.310667
53.605 10.84606
53.610 10.717182
53.615 10.971344
53.620 11.41371
53.625 12.077316
53.630 11.883801
53.635 11.504808
53.640 11.204022
53.645 10.996846
53.650 10.451898
53.655 10.361941
53.660 10.119244
53.665 10.297651
53.670 10.591843
53.675 10.459809
53.680 10.621974
53.685 11.030815
53.690 11.145681
53.695 10.920835
53.700 10.767904
53.705 10.755571
53.710 10.74438
53.715 10.593941
53.720 10.333373
53.725 9.922336
53.730 9.879292
53.735 9.287992
53.740 9.057125
53.745 9.095943
53.750 9.111244
53.755 9.631894
53.760 10.135246
53.765 10.889225
53.770 11.061649
53.775 11.43158
53.780 11.564863
53.785 11.351787
53.790 11.035513
53.795 11.21659
53.800 11.2901
53.805 11.861686
53.810 11.783581
53.815 11.660752
53.820 11.630756
53.825 11.408095
53.830 11.113103
53.835 10.547049
53.840 9.994703
53.845 10.071715
53.850 10.557457
53.855 10.957896
53.860 11.01657
53.865 10.810689
53.870 11.017586
53.875 11.06218
53.880 11.561523
53.885 11.563824
53.890 11.123878
53.895 11.43534
53.900 11.765564
53.905 11.742352
53.910 11.263532
53.915 10.516701
53.920 10.558095
53.925 10.876166
53.930 10.731238
53.935 10.344215
53.940 10.335324
53.945 10.841747
53.950 11.324678
53.955 10.782722
53.960 10.43522
53.965 10.250764
53.970 10.607431
53.975 10.76094
53.980 10.392418
53.985 10.006091
53.990 10.332389
53.995 10.615413
54.000 10.553188
54.005 10.53009
54.010 10.428388
54.015 10.97819
54.020 11.004327
54.025 10.936829
54.030 10.89986
54.035 11.051822
54.040 11.029038
54.045 11.45178
54.050 11.484221
54.055 11.258634
54.060 10.81918
54.065 10.903518
54.070 10.950999
54.075 10.613015
54.080 9.934552
54.085 9.948601
54.090 10.487528
54.095 10.610104
54.100 11.102187
54.105 11.53636
54.110 11.604541
54.115 11.608208
54.120 11.393581
54.125 11.419946
54.130 11.228851
54.135 10.214057
54.140 9.886173
54.145 9.925471
54.150 9.773928
54.155 9.65312
54.160 9.581836
54.165 9.942988
54.170 10.040457
54.175 10.272538
54.180 10.716032
54.185 11.035253
54.190 11.261991
54.195 11.458282
54.200 11.563405
54.205 11.979413
54.210 11.758923
54.215 11.77876
54.220 12.019853
54.225 12.013876
54.230 11.954231
54.235 11.84447
54.240 11.996331
54.245 11.855889
54.250 11.473355
54.255 11.002286
54.260 10.827157
54.265 10.864251
54.270 10.931765
54.275 10.953605
54.280 11.085244
54.285 11.263054
54.290 11.519218
54.295 11.601409
54.300 11.646345
54.305 11.533514
54.310 11.695543
54.315 11.745363
54.320 11.896009
54.325 11.736604
54.330 11.577127
54.335 11.85258
54.340 12.127389
54.345 12.162462
54.350 11.753883
54.355 11.651775
54.360 11.733434
54.365 11.773842
54.370 11.410104
54.375 11.084128
54.380 11.45574
54.385 11.890758
54.390 11.985081
54.395 11.753809
54.400 12.089056
54.405 12.592959
54.410 12.455124
54.415 12.480422
54.420 12.640793
54.425 12.944197
54.430 12.71316
54.435 12.244783
54.440 11.716262
54.445 11.455071
54.450 11.133637
54.455 10.908598
54.460 10.821145
54.465 11.385682
54.470 11.734538
54.475 12.067452
54.480 12.140171
54.485 11.778727
54.490 11.658981
54.495 11.735345
54.500 11.379653
54.505 10.685052
54.510 10.900348
54.515 10.932906
54.520 11.082129
54.525 10.985834
54.530 10.836383
54.535 11.016885
54.540 11.114673
54.545 10.704831
54.550 10.446357
54.555 10.464069
54.560 10.510545
54.565 10.247637
54.570 10.544946
54.575 10.471512
54.580 10.69026
54.585 10.868203
54.590 10.732327
54.595 10.813486
54.600 10.96706
54.605 10.870136
54.610 10.981782
54.615 10.799588
54.620 10.68069
54.625 10.745529
54.630 10.870194
54.635 10.910666
54.640 11.057088
54.645 11.427116
54.650 12.368143
54.655 12.697346
54.660 12.664901
54.665 13.076674
54.670 13.028521
54.675 12.392605
54.680 12.129413
54.685 11.406323
54.690 11.315263
54.695 11.342531
54.700 10.845215
54.705 10.644876
54.710 11.025518
54.715 10.993698
54.720 11.054217
54.725 10.832059
54.730 10.70531
54.735 10.755419
54.740 10.877645
54.745 10.595849
54.750 10.842134
54.755 11.042231
54.760 11.00229
54.765 10.86322
54.770 11.373764
54.775 11.50202
54.780 11.493623
54.785 11.556932
54.790 11.833835
54.795 12.042747
54.800 12.172092
54.805 12.096436
54.810 11.686874
54.815 11.440989
54.820 11.227841
54.825 11.199254
54.830 11.265323
54.835 11.446907
54.840 11.315798
54.845 11.819983
54.850 12.384238
54.855 11.877338
54.860 11.746453
54.865 11.409592
54.870 10.861789
54.875 11.675954
54.880 11.747683
54.885 11.801006
54.890 12.457491
54.895 12.324585
54.900 12.496202
54.905 12.881366
54.910 12.373433
54.915 12.524848
54.920 12.412475
54.925 12.181972
54.930 11.990905
54.935 11.826127
54.940 11.749787
54.945 11.648958
54.950 11.58239
54.955 11.271258
54.960 11.698477
54.965 11.863632
54.970 11.830039
54.975 11.336572
54.980 11.350652
54.985 11.727442
54.990 11.868459
54.995 11.926061
55.000 12.381148
55.005 12.107858
55.010 12.002909
55.015 11.894984
55.020 11.696654
55.025 11.69743
55.030 12.022868
55.035 12.206925
55.040 13.022156
55.045 13.399377
55.050 13.896727
55.055 13.641768
55.060 13.864464
55.065 13.420687
55.070 13.006384
55.075 13.017141
55.080 12.853583
55.085 12.074709
55.090 11.795358
55.095 11.458107
55.100 11.266697
55.105 11.315846
55.110 11.13685
55.115 11.322966
55.120 11.379695
55.125 11.314415
55.130 11.365724
55.135 11.702813
55.140 11.863702
55.145 11.85849
55.150 12.223816
55.155 12.60461
55.160 12.884804
55.165 13.370771
55.170 13.469649
55.175 13.794695
55.180 13.909225
55.185 13.745469
55.190 13.647229
55.195 13.635528
55.200 13.502131
55.205 13.122665
55.210 12.987614
55.215 12.774429
55.220 13.010496
55.225 13.02744
55.230 12.958877
55.235 12.860406
55.240 12.481987
55.245 12.233107
55.250 11.952122
55.255 11.869889
55.260 12.23297
55.265 11.744162
55.270 11.508562
55.275 11.838026
55.280 11.585828
55.285 11.404752
55.290 10.83812
55.295 10.765192
55.300 11.360324
55.305 11.85122
55.310 11.841793
55.315 11.896708
55.320 12.105842
55.325 11.808452
55.330 11.018582
55.335 10.75384
55.340 10.632381
55.345 10.924742
55.350 11.554594
55.355 11.863909
55.360 12.466434
55.365 12.89763
55.370 12.433239
55.375 12.415238
55.380 12.042335
55.385 11.68908
55.390 11.802194
55.395 11.805884
55.400 11.87914
55.405 12.265332
55.410 12.346897
55.415 12.665559
55.420 12.857396
55.425 12.823959
55.430 13.039457
55.435 12.888523
55.440 12.691916
55.445 12.420142
55.450 12.215522
55.455 12.278964
55.460 12.306715
55.465 12.354199
55.470 12.82028
55.475 12.718164
55.480 12.464887
55.485 12.418849
55.490 12.340355
55.495 12.399736
55.500 12.295623
55.505 11.747372
55.510 12.068042
55.515 12.430285
55.520 12.57468
55.525 12.421299
55.530 11.923985
55.535 12.422651
55.540 12.725032
55.545 12.506014
55.550 12.173046
55.555 11.94699
55.560 12.164069
55.565 12.072861
55.570 12.073429
55.575 11.757236
55.580 12.379498
55.585 12.52761
55.590 12.124123
55.595 12.075395
55.600 11.679343
55.605 11.516083
55.610 11.7116
55.615 11.003121
55.620 11.019587
55.625 11.399489
55.630 11.489251
55.635 11.377102
55.640 11.50808
55.645 11.795635
55.650 12.094524
55.655 12.471937
55.660 12.296319
55.665 12.760153
55.670 13.209104
55.675 12.917824
55.680 12.635104
55.685 12.696778
55.690 12.587172
55.695 12.318476
55.700 12.005615
55.705 12.266513
55.710 12.384725
55.715 12.29607
55.720 12.314501
55.725 12.666604
55.730 13.155032
55.735 13.300894
55.740 12.809032
55.745 13.454499
55.750 13.745311
55.755 13.392164
55.760 13.17487
55.765 13.224159
55.770 13.145681
55.775 13.3362
55.780 12.733274
55.785 12.278728
55.790 11.899582
55.795 11.678554
55.800 11.568993
55.805 11.722657
55.810 11.664775
55.815 11.948489
55.820 12.073485
55.825 12.119375
55.830 12.376786
55.835 12.333862
55.840 12.279889
55.845 12.632172
55.850 12.725286
55.855 12.812478
55.860 12.576961
55.865 12.513161
55.870 12.410974
55.875 12.259631
55.880 11.737444
55.885 11.649879
55.890 11.755762
55.895 11.849919
55.900 11.885519
55.905 12.082381
55.910 12.566624
55.915 12.507177
55.920 12.708688
55.925 12.803466
55.930 12.761892
55.935 12.869316
55.940 12.887512
55.945 12.50685
55.950 12.956251
55.955 13.378477
55.960 13.563875
55.965 13.594879
55.970 13.537268
55.975 13.839865
55.980 14.298915
55.985 14.131264
55.990 13.535012
55.995 13.881786
56.000 13.992763
56.005 13.493271
56.010 13.008537
56.015 12.481267
56.020 12.646933
56.025 13.218271
56.030 12.988873
56.035 13.090403
56.040 13.004481
56.045 12.917535
56.050 13.251657
56.055 12.853424
56.060 12.656423
56.065 12.347798
56.070 12.378085
56.075 12.74894
56.080 13.035058
56.085 12.784306
56.090 12.5706
56.095 12.544304
56.100 12.478752
56.105 12.489899
56.110 12.480725
56.115 12.213134
56.120 12.141901
56.125 12.302865
56.130 12.290927
56.135 12.269685
56.140 12.195015
56.145 11.812542
56.150 12.175819
56.155 12.760807
56.160 12.948189
56.165 12.629384
56.170 12.748425
56.175 13.107312
56.180 13.457283
56.185 13.155171
56.190 13.305361
56.195 13.116471
56.200 13.802724
56.205 13.869188
56.210 13.640843
56.215 14.0895
56.220 14.351115
56.225 14.368392
56.230 14.926147
56.235 14.921875
56.240 15.294502
56.245 15.943217
56.250 15.896912
56.255 15.822089
56.260 15.957566
56.265 15.530725
56.270 15.545227
56.275 15.396285
56.280 14.444796
56.285 13.896282
56.290 13.440386
56.295 13.073464
56.300 12.621163
56.305 12.688161
56.310 12.679076
56.315 12.491756
56.320 12.428741
56.325 12.326892
56.330 12.420723
56.335 12.387847
56.340 12.196245
56.345 12.154531
56.350 12.507325
56.355 12.72764
56.360 12.813721
56.365 13.09671
56.370 13.256545
56.375 13.501828
56.380 13.543429
56.385 13.751185
56.390 13.797194
56.395 13.798932
56.400 13.917504
56.405 13.776627
56.410 13.319324
56.415 12.90466
56.420 13.067896
56.425 13.200694
56.430 13.178553
56.435 12.55899
56.440 12.60446
56.445 12.970057
56.450 13.668794
56.455 13.930028
56.460 13.669336
56.465 14.072958
56.470 14.883583
56.475 14.768463
56.480 14.703004
56.485 14.073641
56.490 14.551602
56.495 15.269916
56.500 15.062547
56.505 15.004348
56.510 15.153987
56.515 15.433439
56.520 15.768421
56.525 15.078593
56.530 14.760118
56.535 14.505652
56.540 14.130909
56.545 14.050473
56.550 13.615691
56.555 13.680436
56.560 13.407063
56.565 13.369917
56.570 13.432846
56.575 13.848973
56.580 14.088073
56.585 14.367256
56.590 14.492648
56.595 14.71727
56.600 14.166252
56.605 13.884757
56.610 13.65804
56.615 13.584121
56.620 13.324104
56.625 13.429157
56.630 13.465533
56.635 13.959645
56.640 14.382587
56.645 14.213428
56.650 14.017735
56.655 14.058387
56.660 14.121379
56.665 14.169025
56.670 13.581119
56.675 13.204441
56.680 12.964289
56.685 12.601601
56.690 12.502391
56.695 12.387717
56.700 12.861751
56.705 12.986667
56.710 13.322271
56.715 13.788923
56.720 14.340989
56.725 14.207488
56.730 14.163128
56.735 14.593717
56.740 15.186131
56.745 15.205739
56.750 15.156513
56.755 15.201709
56.760 15.476469
56.765 15.333316
56.770 14.975462
56.775 14.808093
56.780 15.639011
56.785 15.77803
56.790 15.786375
56.795 15.66662
56.800 15.384244
56.805 15.459683
56.810 15.210215
56.815 14.066142
56.820 13.730594
56.825 13.618201
56.830 13.712136
56.835 14.015485
56.840 13.940389
56.845 13.416847
56.850 13.485346
56.855 13.666451
56.860 13.678304
56.865 13.465327
56.870 13.173228
56.875 13.021059
56.880 13.432228
56.885 13.457639
56.890 13.562825
56.895 13.754181
56.900 13.759781
56.905 13.891244
56.910 14.028882
56.915 14.150906
56.920 14.111831
56.925 14.336355
56.930 13.771564
56.935 13.871127
56.940 14.11419
56.945 14.509489
56.950 14.91312
56.955 15.092535
56.960 14.947419
56.965 15.234887
56.970 15.329298
56.975 15.09496
56.980 15.161322
56.985 15.027822
56.990 14.499429
56.995 14.085324
57.000 13.722474
57.005 13.324262
57.010 13.44762
57.015 13.186949
57.020 12.972412
57.025 13.322646
57.030 13.592298
57.035 14.157801
57.040 14.874611
57.045 15.01868
57.050 15.208136
57.055 15.480741
57.060 14.993932
57.065 14.742255
57.070 14.216676
57.075 13.691514
57.080 13.563457
57.085 13.675715
57.090 13.476712
57.095 13.800218
57.100 14.128807
57.105 14.170236
57.110 14.02863
57.115 13.625855
57.120 12.957997
57.125 12.589729
57.130 12.482303
57.135 12.486398
57.140 12.877333
57.145 13.10121
57.150 13.007429
57.155 13.017779
57.160 13.195808
57.165 13.635549
57.170 12.999778
57.175 12.022328
57.180 11.65475
57.185 12.137693
57.190 13.202836
57.195 13.332211
57.200 12.93125
57.205 13.152045
57.210 13.715362
57.215 13.763302
57.220 13.259857
57.225 12.89711
57.230 12.877036
57.235 13.057295
57.240 13.229927
57.245 13.397039
57.250 13.49859
57.255 13.356481
57.260 13.088617
57.265 13.00762
57.270 13.750662
57.275 13.875586
57.280 13.78601
57.285 13.842758
57.290 13.979477
57.295 14.114151
57.300 13.927393
57.305 13.497571
57.310 13.617735
57.315 13.69253
57.320 13.525914
57.325 13.175545
57.330 13.101367
57.335 13.512076
57.340 13.441648
57.345 13.337223
57.350 13.146121
57.355 13.396454
57.360 13.69783
57.365 13.800096
57.370 13.837815
57.375 13.965293
57.380 13.958529
57.385 14.205376
57.390 14.642099
57.395 14.90024
57.400 14.728276
57.405 14.065091
57.410 14.025322
57.415 13.681925
57.420 12.949858
57.425 12.456135
57.430 12.397566
57.435 12.730254
57.440 13.437379
57.445 13.513486
57.450 13.427978
57.455 14.08637
57.460 13.928749
57.465 13.709184
57.470 13.768676
57.475 13.7596
57.480 13.83002
57.485 14.67405
57.490 14.701991
57.495 14.88998
57.500 15.029471
57.505 14.558482
57.510 13.998304
57.515 13.731462
57.520 13.201872
57.525 13.360282
57.530 13.130623
57.535 13.076914
57.540 13.069071
57.545 13.412928
57.550 13.775819
57.555 13.726714
57.560 13.748699
57.565 14.152894
57.570 14.570327
57.575 14.808304
57.580 15.307454
57.585 15.317117
57.590 15.458279
57.595 15.299112
57.600 15.25838
57.605 14.726726
57.610 14.55669
57.615 13.893421
57.620 13.770287
57.625 14.133155
57.630 14.535085
57.635 14.433867
57.640 14.556611
57.645 14.377893
57.650 14.595296
57.655 14.628367
57.660 14.321032
57.665 14.38388
57.670 14.269011
57.675 14.489887
57.680 14.690342
57.685 14.745601
57.690 14.612369
57.695 14.692161
57.700 14.373683
57.705 14.505153
57.710 14.822248
57.715 15.17697
57.720 15.524973
57.725 15.754743
57.730 16.013613
57.735 16.032881
57.740 15.497832
57.745 15.139137
57.750 15.035992
57.755 14.558258
57.760 14.377229
57.765 14.202971
57.770 14.183162
57.775 14.507857
57.780 14.243174
57.785 13.753559
57.790 13.934111
57.795 13.654326
57.800 13.712741
57.805 13.381417
57.810 13.38864
57.815 13.82441
57.820 14.24792
57.825 14.172302
57.830 14.347365
57.835 14.297801
57.840 14.491247
57.845 14.806229
57.850 14.591709
57.855 14.566684
57.860 14.58257
57.865 14.108103
57.870 14.101426
57.875 13.925538
57.880 13.711987
57.885 13.188499
57.890 12.650483
57.895 12.581799
57.900 12.726554
57.905 12.776811
57.910 12.556106
57.915 12.44468
57.920 12.786181
57.925 13.345295
57.930 13.532638
57.935 14.117654
57.940 14.060058
57.945 14.32641
57.950 14.448889
57.955 14.892072
57.960 15.360946
57.965 15.472491
57.970 15.571816
57.975 16.186884
57.980 16.642769
57.985 16.731335
57.990 16.170502
57.995 15.873452
58.000 15.736658
58.005 15.219462
58.010 15.155483
58.015 14.62767
58.020 14.861004
58.025 15.119422
58.030 15.061852
58.035 15.409399
58.040 15.340328
58.045 15.427967
58.050 15.4162
58.055 15.221739
58.060 15.611133
58.065 15.417961
58.070 15.385028
58.075 15.68756
58.080 15.453759
58.085 15.469866
58.090 15.689435
58.095 15.108871
58.100 15.195259
58.105 15.252587
58.110 14.956902
58.115 14.94822
58.120 15.241922
58.125 15.032979
58.130 15.211961
58.135 15.117579
58.140 15.202699
58.145 15.398686
58.150 15.613249
58.155 15.867545
58.160 15.848977
58.165 15.761387
58.170 15.322392
58.175 14.848226
58.180 14.98338
58.185 14.48783
58.190 14.156121
58.195 14.291612
58.200 14.320853
58.205 15.058199
58.210 15.227137
58.215 14.728235
58.220 14.679977
58.225 14.156154
58.230 13.655946
58.235 13.817635
58.240 13.702657
58.245 13.386337
58.250 13.66104
58.255 13.920666
58.260 14.53721
58.265 14.80125
58.270 14.165604
58.275 13.657439
58.280 13.904648
58.285 13.84188
58.290 14.241594
58.295 13.92575
58.300 14.470675
58.305 15.469087
58.310 15.50709
58.315 15.352647
58.320 15.326362
58.325 14.679746
58.330 15.084153
58.335 15.084115
58.340 14.786585
58.345 14.883743
58.350 14.480379
58.355 14.459908
58.360 15.091615
58.365 14.901924
58.370 14.633446
58.375 14.563382
58.380 14.779226
58.385 15.194839
58.390 15.401928
58.395 15.247477
58.400 15.082349
58.405 15.066626
58.410 14.817251
58.415 14.223428
58.420 14.295599
58.425 14.46139
58.430 14.210248
58.435 14.3101
58.440 14.962313
58.445 15.544739
58.450 16.19944
58.455 15.983204
