!@!!GADDS PLOTSO FILE: Chi integration type
!@!!Title/SampleName: map-2b
!@!!Comment: ?
!@!!User: Bruker Instrument Administrator
!@!!Site: University of Illinois Chicago
!@!!Frame: map-2b_01_000.gfrm
!@!!Wavelengths    1.54184   1.54056   1.54439
!@!!Frame angles: 2Theta: 63.000 Omega: 50.000 Phi: 0.000 Chi: 90.000
!@!!Integration range: 2Theta: 53.000 to 73.000  Gamma: -105.000 to -75.000
!@!!Integration method: bin normalized
!@!N
!@!SS
!@!M
!@!L 0.0 0.0 0.0 0.0
!@!XDegrees
!@!YCounts
53.000 6.835518
53.005 6.946822
53.010 7.179785
53.015 7.22503
53.020 7.492576
53.025 7.780914
53.030 7.695925
53.035 7.734579
53.040 7.696464
53.045 7.835437
53.050 8.216849
53.055 8.071772
53.060 8.376843
53.065 8.818693
53.070 8.715489
53.075 8.841866
53.080 8.339158
53.085 7.956777
53.090 7.990793
53.095 7.692231
53.100 7.14685
53.105 7.191278
53.110 6.838457
53.115 7.521844
53.120 7.508131
53.125 7.602624
53.130 7.534417
53.135 7.61908
53.140 7.704827
53.145 7.818572
53.150 7.83809
53.155 7.854738
53.160 8.098516
53.165 8.424179
53.170 8.835714
53.175 9.040899
53.180 8.91066
53.185 8.787541
53.190 9.062679
53.195 9.054792
53.200 8.879568
53.205 8.800549
53.210 8.561271
53.215 8.743687
53.220 8.925489
53.225 8.92197
53.230 8.948044
53.235 8.742168
53.240 8.400476
53.245 8.447679
53.250 7.991707
53.255 7.674499
53.260 7.577365
53.265 7.414487
53.270 7.399039
53.275 7.065145
53.280 7.354897
53.285 7.917214
53.290 7.848656
53.295 8.139419
53.300 8.402369
53.305 8.884802
53.310 9.133327
53.315 8.756637
53.320 8.412194
53.325 8.779732
53.330 8.483569
53.335 8.424445
53.340 8.292061
53.345 8.341155
53.350 8.671781
53.355 8.846573
53.360 8.682146
53.365 8.70972
53.370 9.021858
53.375 9.141798
53.380 9.285935
53.385 9.206964
53.390 9.314404
53.395 8.807447
53.400 8.819583
53.405 8.97921
53.410 9.147436
53.415 9.338576
53.420 9.663359
53.425 9.789931
53.430 10.028641
53.435 9.886158
53.440 9.645929
53.445 9.725554
53.450 9.751527
53.455 9.935043
53.460 9.945077
53.465 10.037063
53.470 10.264849
53.475 10.315134
53.480 9.970582
53.485 9.875228
53.490 9.664021
53.495 9.703516
53.500 9.393573
53.505 9.076684
53.510 8.824718
53.515 8.67867
53.520 8.150981
53.525 7.750274
53.530 7.580766
53.535 7.701431
53.540 7.366338
53.545 7.918971
53.550 8.257725
53.555 8.538025
53.560 8.884509
53.565 9.037769
53.570 9.150558
53.575 9.634543
53.580 9.579258
53.585 9.040731
53.590 8.300789
53.595 7.936031
53.600 7.701061
53.605 7.580778
53.610 7.122447
53.615 7.141943
53.620 7.650904
53.625 8.517077
53.630 9.033994
53.635 9.386441
53.640 9.505754
53.645 9.476677
53.650 9.232179
53.655 9.184083
53.660 9.011996
53.665 9.011921
53.670 9.088037
53.675 9.109019
53.680 9.681051
53.685 10.141739
53.690 10.25022
53.695 10.277956
53.700 10.399527
53.705 10.673771
53.710 10.83014
53.715 10.44136
53.720 10.408234
53.725 10.085526
53.730 9.934202
53.735 9.559551
53.740 9.45141
53.745 9.619066
53.750 9.741561
53.755 9.647764
53.760 10.135115
53.765 9.785068
53.770 9.601802
53.775 9.404619
53.780 9.297612
53.785 9.426608
53.790 9.348588
53.795 9.241509
53.800 9.922786
53.805 10.190769
53.810 9.950825
53.815 9.73241
53.820 9.343575
53.825 9.326437
53.830 9.344083
53.835 8.991641
53.840 9.084978
53.845 9.089045
53.850 8.97191
53.855 9.372474
53.860 9.703539
53.865 9.809643
53.870 9.99344
53.875 9.860719
53.880 10.059188
53.885 10.414771
53.890 10.170635
53.895 9.919444
53.900 9.888522
53.905 9.942354
53.910 10.217503
53.915 10.393478
53.920 10.328125
53.925 10.432996
53.930 10.306923
53.935 10.003323
53.940 9.663618
53.945 9.754231
53.950 9.927745
53.955 9.786735
53.960 9.274695
53.965 9.227102
53.970 9.08701
53.975 8.821609
53.980 8.231805
53.985 8.060418
53.990 8.02399
53.995 8.791088
54.000 9.029867
54.005 9.336954
54.010 9.570562
54.015 9.81208
54.020 10.149259
54.025 10.185461
54.030 9.764035
54.035 9.943553
54.040 9.98306
54.045 9.940672
54.050 9.452834
54.055 9.278143
54.060 9.635708
54.065 9.722935
54.070 9.442862
54.075 9.342881
54.080 9.595915
54.085 9.994314
54.090 10.018835
54.095 10.052787
54.100 10.10719
54.105 10.080304
54.110 9.693949
54.115 9.444583
54.120 9.138435
54.125 8.957954
54.130 8.665887
54.135 8.865326
54.140 9.050435
54.145 9.77126
54.150 10.293853
54.155 10.611751
54.160 10.76927
54.165 10.646283
54.170 10.929159
54.175 10.720643
54.180 10.901935
54.185 10.952107
54.190 11.286299
54.195 11.164814
54.200 10.846889
54.205 10.83451
54.210 11.290358
54.215 10.712711
54.220 10.454709
54.225 10.176326
54.230 10.57624
54.235 10.883756
54.240 11.065822
54.245 10.971116
54.250 10.699952
54.255 10.049464
54.260 9.994959
54.265 10.289034
54.270 10.740556
54.275 10.300776
54.280 10.282952
54.285 10.391469
54.290 10.60062
54.295 10.440219
54.300 9.802858
54.305 9.075428
54.310 9.192196
54.315 9.642847
54.320 9.865729
54.325 9.976336
54.330 10.135171
54.335 10.191625
54.340 10.759082
54.345 10.285317
54.350 10.14025
54.355 9.843746
54.360 9.532248
54.365 9.764918
54.370 9.763149
54.375 9.350144
54.380 9.293449
54.385 9.11902
54.390 9.272286
54.395 9.350961
54.400 9.619782
54.405 9.53325
54.410 9.834839
54.415 10.05325
54.420 10.574921
54.425 10.65722
54.430 10.001992
54.435 9.575562
54.440 9.607458
54.445 9.443035
54.450 9.185622
54.455 8.859048
54.460 8.911328
54.465 9.256627
54.470 9.304747
54.475 9.31091
54.480 9.178052
54.485 9.037869
54.490 8.936398
54.495 8.992589
54.500 8.766723
54.505 8.683721
54.510 8.727213
54.515 8.932049
54.520 9.627971
54.525 9.93758
54.530 9.840225
54.535 10.057901
54.540 10.034184
54.545 9.699831
54.550 9.483302
54.555 9.315882
54.560 9.860031
54.565 10.323477
54.570 10.276061
54.575 10.695443
54.580 10.856996
54.585 10.927032
54.590 10.723633
54.595 10.097396
54.600 9.783659
54.605 9.694155
54.610 9.725619
54.615 9.856075
54.620 10.245811
54.625 10.142431
54.630 10.733693
54.635 11.170525
54.640 11.504565
54.645 11.47408
54.650 11.130107
54.655 10.857095
54.660 10.796639
54.665 10.364052
54.670 9.967312
54.675 9.187612
54.680 9.353293
54.685 9.506962
54.690 9.440447
54.695 9.44937
54.700 9.262313
54.705 9.18572
54.710 9.701325
54.715 9.914618
54.720 9.789835
54.725 9.58022
54.730 9.226474
54.735 9.216266
54.740 9.570675
54.745 8.99694
54.750 8.65389
54.755 9.372854
54.760 10.265988
54.765 10.848786
54.770 10.960893
54.775 11.248742
54.780 12.129323
54.785 12.626042
54.790 12.331157
54.795 12.067682
54.800 12.125526
54.805 12.491016
54.810 12.370219
54.815 12.359157
54.820 12.543482
54.825 12.491883
54.830 12.924003
54.835 12.884098
54.840 12.505186
54.845 12.229197
54.850 11.521517
54.855 11.076239
54.860 11.170689
54.865 10.422485
54.870 10.049174
54.875 10.243433
54.880 10.720901
54.885 10.95307
54.890 10.789754
54.895 10.907627
54.900 11.187373
54.905 11.503144
54.910 11.189937
54.915 11.097933
54.920 10.690458
54.925 10.847026
54.930 10.818512
54.935 10.875747
54.940 10.689245
54.945 10.964292
54.950 11.565762
54.955 11.457488
54.960 10.924379
54.965 10.700337
54.970 10.512359
54.975 10.623721
54.980 10.183386
54.985 10.050603
54.990 10.848634
54.995 11.08625
55.000 11.179303
55.005 11.535287
55.010 11.453841
55.015 11.494151
55.020 11.030285
55.025 10.828623
55.030 11.158596
55.035 11.136521
55.040 10.866284
55.045 11.234523
55.050 11.451304
55.055 11.643295
55.060 11.704426
55.065 11.338572
55.070 11.07054
55.075 10.839396
55.080 10.538609
55.085 10.360889
55.090 10.746337
55.095 10.766089
55.100 10.810503
55.105 11.165721
55.110 11.516395
55.115 10.869702
55.120 10.589454
55.125 9.967794
55.130 9.610826
55.135 9.621164
55.140 9.381342
55.145 9.733467
55.150 9.823195
55.155 9.858959
55.160 10.101445
55.165 10.742555
55.170 11.507811
55.175 11.551096
55.180 11.219672
55.185 11.535003
55.190 11.597342
55.195 11.603845
55.200 11.482672
55.205 11.156132
55.210 11.168209
55.215 11.497308
55.220 11.964144
55.225 12.487954
55.230 12.47384
55.235 11.646771
55.240 11.497369
55.245 11.080109
55.250 10.525153
55.255 10.234512
55.260 9.671425
55.265 9.461361
55.270 9.338037
55.275 9.215486
55.280 9.805045
55.285 9.372752
55.290 9.263251
55.295 9.350463
55.300 10.051201
55.305 10.945964
55.310 11.400992
55.315 11.41542
55.320 12.177761
55.325 12.17856
55.330 12.038816
55.335 11.516846
55.340 11.261457
55.345 10.870708
55.350 10.737232
55.355 10.911834
55.360 11.914594
55.365 12.069281
55.370 12.00149
55.375 11.441172
55.380 11.519986
55.385 11.408702
55.390 11.307708
55.395 11.077964
55.400 11.289817
55.405 11.293559
55.410 11.408551
55.415 11.019197
55.420 11.379431
55.425 10.813676
55.430 10.118132
55.435 10.129832
55.440 10.754776
55.445 10.965102
55.450 11.110849
55.455 10.621504
55.460 11.233195
55.465 11.54028
55.470 11.247877
55.475 10.94231
55.480 11.006167
55.485 11.46214
55.490 11.470997
55.495 11.555157
55.500 12.187965
55.505 12.561055
55.510 12.885149
55.515 13.104673
55.520 12.915939
55.525 12.88109
55.530 12.548282
55.535 11.942702
55.540 11.972976
55.545 11.802727
55.550 12.394799
55.555 12.984173
55.560 12.977531
55.565 12.779887
55.570 12.968034
55.575 12.985803
55.580 13.081713
55.585 12.839899
55.590 12.463818
55.595 12.856351
55.600 12.790074
55.605 12.479312
55.610 11.843168
55.615 10.937364
55.620 10.594882
55.625 10.625929
55.630 10.249491
55.635 9.552289
55.640 9.426691
55.645 9.964521
55.650 10.51463
55.655 10.601319
55.660 10.489728
55.665 11.387011
55.670 11.841446
55.675 12.201228
55.680 12.1755
55.685 11.878812
55.690 11.986545
55.695 12.099486
55.700 11.977818
55.705 12.551676
55.710 12.480776
55.715 12.41704
55.720 11.928503
55.725 12.101998
55.730 12.264798
55.735 11.516289
55.740 10.925495
55.745 10.855961
55.750 10.724833
55.755 10.81776
55.760 10.350927
55.765 9.926227
55.770 9.776255
55.775 9.812972
55.780 9.941295
55.785 10.445748
55.790 10.637815
55.795 10.517197
55.800 10.984079
55.805 11.317788
55.810 11.164681
55.815 11.719995
55.820 12.186941
55.825 12.803671
55.830 12.939239
55.835 13.030065
55.840 13.552353
55.845 13.442399
55.850 12.86589
55.855 12.490005
55.860 11.822794
55.865 11.634749
55.870 11.748347
55.875 11.573425
55.880 11.936323
55.885 12.146926
55.890 12.510892
55.895 12.543491
55.900 12.217674
55.905 11.89648
55.910 12.229498
55.915 12.388031
55.920 12.313012
55.925 12.170815
55.930 12.335607
55.935 12.705328
55.940 12.175778
55.945 12.123484
55.950 12.339923
55.955 12.334246
55.960 12.306376
55.965 12.402441
55.970 12.538824
55.975 12.258759
55.980 12.456712
55.985 12.492835
55.990 12.514622
55.995 12.1526
56.000 11.984176
56.005 12.112418
56.010 12.780203
56.015 12.088897
56.020 11.891687
56.025 11.707381
56.030 12.039516
56.035 12.287084
56.040 12.123163
56.045 12.015275
56.050 12.05347
56.055 11.835947
56.060 11.878481
56.065 11.855998
56.070 11.577925
56.075 11.718866
56.080 12.248834
56.085 12.131276
56.090 12.079484
56.095 12.18751
56.100 12.251396
56.105 12.697955
56.110 12.164238
56.115 11.683796
56.120 12.335894
56.125 12.385345
56.130 12.332992
56.135 12.264957
56.140 12.111542
56.145 12.322887
56.150 12.173484
56.155 11.834931
56.160 11.838707
56.165 11.648552
56.170 11.599075
56.175 11.576007
56.180 11.612901
56.185 11.42711
56.190 11.759083
56.195 11.731386
56.200 11.885473
56.205 11.808228
56.210 11.782576
56.215 11.938859
56.220 11.89332
56.225 11.784301
56.230 11.862869
56.235 11.923263
56.240 12.444227
56.245 12.996354
56.250 13.316651
56.255 13.426645
56.260 13.537286
56.265 14.013484
56.270 13.953108
56.275 13.594849
56.280 12.849124
56.285 12.834592
56.290 12.577
56.295 12.499434
56.300 12.359365
56.305 12.402831
56.310 12.858671
56.315 13.331037
56.320 13.302293
56.325 13.831921
56.330 13.39327
56.335 13.093925
56.340 13.054325
56.345 12.542092
56.350 12.138591
56.355 12.045135
56.360 11.900196
56.365 12.491558
56.370 12.434111
56.375 12.017663
56.380 11.763917
56.385 12.05555
56.390 11.814027
56.395 12.074734
56.400 12.174001
56.405 12.697812
56.410 13.245158
56.415 13.179497
56.420 12.27898
56.425 12.411024
56.430 12.105973
56.435 11.241287
56.440 10.540275
56.445 10.600131
56.450 10.743916
56.455 11.08255
56.460 10.823243
56.465 10.586212
56.470 10.971987
56.475 11.035724
56.480 10.959461
56.485 11.041451
56.490 11.800352
56.495 12.270268
56.500 12.276559
56.505 12.231634
56.510 12.25651
56.515 12.017963
56.520 12.219726
56.525 11.770013
56.530 11.785853
56.535 11.945964
56.540 11.859262
56.545 11.911736
56.550 12.534618
56.555 12.652181
56.560 13.029563
56.565 13.125278
56.570 13.316837
56.575 13.483306
56.580 13.607419
56.585 13.278198
56.590 12.842138
56.595 12.113154
56.600 11.724903
56.605 11.874357
56.610 11.706658
56.615 12.129265
56.620 12.305326
56.625 12.275143
56.630 12.367336
56.635 12.696325
56.640 12.695553
56.645 12.613911
56.650 11.777429
56.655 11.647143
56.660 12.154914
56.665 12.223069
56.670 11.811205
56.675 11.70676
56.680 11.997717
56.685 12.469615
56.690 12.442896
56.695 12.468521
56.700 13.108377
56.705 13.846745
56.710 14.265344
56.715 14.354115
56.720 14.119601
56.725 13.924235
56.730 14.218013
56.735 13.815266
56.740 13.262088
56.745 13.299227
56.750 13.778045
56.755 13.759219
56.760 13.888935
56.765 13.185729
56.770 12.794242
56.775 13.062394
56.780 12.927794
56.785 12.567163
56.790 12.448277
56.795 12.828281
56.800 13.552241
56.805 13.718994
56.810 13.617733
56.815 13.221924
56.820 13.019701
56.825 12.917138
56.830 12.411302
56.835 12.081866
56.840 12.380893
56.845 12.230772
56.850 12.236997
56.855 12.08379
56.860 11.95142
56.865 12.197316
56.870 12.095298
56.875 11.97775
56.880 12.009502
56.885 12.158855
56.890 12.448476
56.895 12.420465
56.900 12.213309
56.905 12.79584
56.910 12.833548
56.915 12.860011
56.920 13.007226
56.925 13.038298
56.930 13.577918
56.935 13.694558
56.940 13.387182
56.945 13.350371
56.950 13.7617
56.955 13.821978
56.960 14.116556
56.965 14.160231
56.970 13.553158
56.975 13.488626
56.980 13.202941
56.985 12.459426
56.990 12.308907
56.995 11.931533
57.000 11.791695
57.005 11.970798
57.010 11.568732
57.015 11.934774
57.020 12.236622
57.025 12.369317
57.030 12.554855
57.035 12.325634
57.040 12.130484
57.045 12.325517
57.050 12.071746
57.055 12.1145
57.060 12.680176
57.065 12.7214
57.070 12.885712
57.075 13.748516
57.080 13.953174
57.085 14.395661
57.090 14.390925
57.095 13.930471
57.100 13.610439
57.105 13.209037
57.110 12.178029
57.115 12.067533
57.120 11.706807
57.125 11.657046
57.130 11.437546
57.135 11.643126
57.140 11.961373
57.145 11.918651
57.150 12.196952
57.155 12.103148
57.160 11.993692
57.165 12.096616
57.170 11.990664
57.175 11.973861
57.180 12.162153
57.185 11.460167
57.190 11.597755
57.195 11.566424
57.200 11.927842
57.205 11.984871
57.210 12.164425
57.215 12.243986
57.220 12.803012
57.225 12.722707
57.230 12.735781
57.235 12.742786
57.240 13.00234
57.245 13.641929
57.250 13.878697
57.255 14.059645
57.260 14.258807
57.265 14.125263
57.270 13.90051
57.275 13.626298
57.280 13.588921
57.285 13.905429
57.290 14.003914
57.295 14.08279
57.300 14.026546
57.305 14.302617
57.310 14.407267
57.315 14.1616
57.320 13.839205
57.325 13.472912
57.330 13.859278
57.335 14.428319
57.340 14.440078
57.345 14.300535
57.350 14.177564
57.355 13.761109
57.360 13.508574
57.365 13.147911
57.370 12.907878
57.375 12.870665
57.380 12.989812
57.385 13.364731
57.390 13.304258
57.395 13.651436
57.400 14.041787
57.405 13.942876
57.410 13.833328
57.415 13.486917
57.420 12.995143
57.425 13.683214
57.430 14.146027
57.435 14.35738
57.440 14.351729
57.445 14.33928
57.450 14.831881
57.455 14.697979
57.460 13.955219
57.465 13.309678
57.470 13.483562
57.475 13.837358
57.480 14.201163
57.485 14.180659
57.490 14.896368
57.495 15.363663
57.500 15.208574
57.505 14.86759
57.510 14.992189
57.515 14.678603
57.520 14.770027
57.525 14.765914
57.530 14.739143
57.535 14.795571
57.540 14.531041
57.545 14.258354
57.550 14.139866
57.555 14.052803
57.560 14.144849
57.565 14.541966
57.570 14.509833
57.575 14.165932
57.580 13.802495
57.585 13.624168
57.590 13.080614
57.595 12.616149
57.600 12.475081
57.605 12.47893
57.610 13.460165
57.615 14.097477
57.620 14.517961
57.625 15.400532
57.630 15.848068
57.635 15.296671
57.640 15.207411
57.645 14.890966
57.650 15.133927
57.655 15.531559
57.660 14.891205
57.665 14.269107
57.670 14.161722
57.675 14.551688
57.680 14.218946
57.685 13.360415
57.690 12.981168
57.695 13.504694
57.700 14.231722
57.705 15.010662
57.710 14.624415
57.715 15.325919
57.720 15.527713
57.725 15.731885
57.730 15.447323
57.735 14.803478
57.740 14.504105
57.745 14.21651
57.750 13.81246
57.755 13.828485
57.760 13.515932
57.765 13.624292
57.770 13.640381
57.775 13.668562
57.780 13.750418
57.785 13.983944
57.790 14.026399
57.795 13.700829
57.800 13.469016
57.805 13.493917
57.810 13.211173
57.815 12.828109
57.820 12.43154
57.825 12.406996
57.830 12.775178
57.835 12.645995
57.840 13.294847
57.845 13.72867
57.850 13.469238
57.855 13.623568
57.860 13.547726
57.865 13.645776
57.870 13.804467
57.875 13.680088
57.880 13.910484
57.885 14.982148
57.890 15.597945
57.895 15.894835
57.900 16.008682
57.905 15.612206
57.910 15.207045
57.915 15.326929
57.920 15.325473
57.925 14.878001
57.930 14.759479
57.935 15.28054
57.940 15.836546
57.945 15.845772
57.950 15.745201
57.955 15.226978
57.960 15.483855
57.965 15.447138
57.970 15.385419
57.975 14.995516
57.980 14.838245
57.985 14.727359
57.990 14.802365
57.995 14.150519
58.000 13.838093
58.005 13.832175
58.010 13.941185
58.015 13.697519
58.020 13.970933
58.025 14.327263
58.030 14.903762
58.035 14.941581
58.040 15.033252
58.045 15.160556
58.050 15.792223
58.055 15.717209
58.060 15.759148
58.065 16.140713
58.070 16.185328
58.075 16.683331
58.080 17.225584
58.085 16.452593
58.090 16.32435
58.095 15.683698
58.100 15.241194
58.105 15.00321
58.110 14.259651
58.115 14.968004
58.120 15.873206
58.125 16.278803
58.130 16.894728
58.135 17.16297
58.140 17.319525
58.145 17.155975
58.150 16.260868
58.155 16.037228
58.160 15.072813
58.165 14.711643
58.170 15.018723
58.175 14.890663
58.180 15.052638
58.185 15.26191
58.190 14.959182
58.195 15.422482
58.200 15.288762
58.205 15.193752
58.210 15.701431
58.215 16.02865
58.220 15.964
58.225 16.173944
58.230 16.814909
58.235 17.10574
58.240 17.048094
58.245 16.444321
58.250 15.745461
58.255 15.767311
58.260 15.787452
58.265 15.366336
58.270 15.482133
58.275 15.541623
58.280 15.589752
58.285 16.009283
58.290 16.369257
58.295 16.617428
58.300 16.908735
58.305 16.613169
58.310 16.907942
58.315 17.033226
58.320 17.172268
58.325 16.66288
58.330 16.366894
58.335 16.12911
58.340 16.190825
58.345 15.847894
58.350 15.916524
58.355 15.880703
58.360 15.710659
58.365 15.745078
58.370 15.486604
58.375 15.261938
58.380 14.647386
58.385 14.590461
58.390 15.096252
58.395 15.645425
58.400 16.31321
58.405 16.742998
58.410 17.137081
58.415 17.771624
58.420 18.101221
58.425 17.800388
58.430 17.35462
58.435 16.881199
58.440 16.952068
58.445 17.267689
58.450 17.139748
58.455 16.612226
58.460 16.511814
58.465 17.161461
58.470 17.607698
58.475 17.670193
58.480 17.549894
58.485 17.800865
58.490 17.566231
58.495 17.734764
58.500 17.47105
58.505 17.602308
58.510 17.612617
58.515 17.921162
