!@!!GADDS PLOTSO FILE: Chi integration type
!@!!Title/SampleName: map-d5
!@!!Comment: ?
!@!!User: Bruker Instrument Administrator
!@!!Site: University of Illinois Chicago
!@!!Frame: map-d5_01_000.gfrm
!@!!Wavelengths    1.54184   1.54056   1.54439
!@!!Frame angles: 2Theta: 63.000 Omega: 50.000 Phi: 0.000 Chi: 90.000
!@!!Integration range: 2Theta: 53.000 to 73.000  Gamma: -105.000 to -75.000
!@!!Integration method: bin normalized
!@!N
!@!SS
!@!M
!@!L 0.0 0.0 0.0 0.0
!@!XDegrees
!@!YCounts
53.000 7.466324
53.005 7.237187
53.010 7.321135
53.015 7.425976
53.020 7.306616
53.025 7.203824
53.030 7.065433
53.035 7.053813
53.040 7.371323
53.045 7.239809
53.050 7.375402
53.055 7.442794
53.060 7.582767
53.065 7.381867
53.070 7.055448
53.075 6.875978
53.080 6.390954
53.085 6.005805
53.090 5.794332
53.095 5.923855
53.100 6.564385
53.105 7.056166
53.110 7.202774
53.115 7.19914
53.120 7.308752
53.125 7.428232
53.130 7.077913
53.135 6.719094
53.140 6.669978
53.145 6.801426
53.150 7.006721
53.155 6.698662
53.160 6.939118
53.165 7.153626
53.170 7.348966
53.175 7.170453
53.180 7.260105
53.185 7.365752
53.190 7.795887
53.195 7.599026
53.200 7.29111
53.205 6.951676
53.210 6.932728
53.215 6.871984
53.220 7.049984
53.225 6.818183
53.230 6.890312
53.235 7.248554
53.240 7.057246
53.245 6.860102
53.250 6.380222
53.255 6.100341
53.260 6.489712
53.265 6.440371
53.270 6.531091
53.275 6.563967
53.280 7.038371
53.285 7.397631
53.290 7.492593
53.295 7.3515
53.300 7.451784
53.305 7.322684
53.310 7.579408
53.315 7.416925
53.320 7.380875
53.325 7.275164
53.330 7.324131
53.335 7.178183
53.340 7.524687
53.345 7.380185
53.350 7.240703
53.355 7.319921
53.360 7.224619
53.365 7.055725
53.370 7.14552
53.375 7.183911
53.380 7.574343
53.385 8.060952
53.390 7.916314
53.395 7.903038
53.400 7.873856
53.405 8.106749
53.410 7.926208
53.415 7.50999
53.420 7.07832
53.425 7.289927
53.430 7.84851
53.435 8.077146
53.440 8.154682
53.445 8.165743
53.450 8.354501
53.455 8.773621
53.460 8.51433
53.465 8.123829
53.470 7.618888
53.475 7.376555
53.480 7.258042
53.485 7.31529
53.490 7.473066
53.495 8.096939
53.500 8.3753
53.505 8.537287
53.510 8.710283
53.515 8.832011
53.520 8.922922
53.525 8.350222
53.530 7.828509
53.535 7.601903
53.540 7.703989
53.545 7.620615
53.550 7.704096
53.555 7.516095
53.560 7.985525
53.565 7.917121
53.570 7.937869
53.575 8.141903
53.580 8.519364
53.585 8.560982
53.590 8.691779
53.595 8.195753
53.600 8.381254
53.605 8.223788
53.610 7.82803
53.615 8.098794
53.620 8.331726
53.625 8.232385
53.630 8.177934
53.635 8.159475
53.640 8.260081
53.645 8.08369
53.650 7.815606
53.655 7.598417
53.660 7.711628
53.665 8.214384
53.670 8.495667
53.675 8.672271
53.680 8.531804
53.685 8.476952
53.690 8.713847
53.695 8.685741
53.700 8.808088
53.705 8.945091
53.710 9.030487
53.715 9.050448
53.720 8.759443
53.725 9.031639
53.730 9.248464
53.735 8.893208
53.740 9.027707
53.745 9.538748
53.750 9.458371
53.755 9.486456
53.760 9.107885
53.765 8.915014
53.770 9.209302
53.775 8.952812
53.780 8.508183
53.785 8.985338
53.790 9.469152
53.795 9.888241
53.800 10.047399
53.805 9.777671
53.810 10.03017
53.815 9.907856
53.820 9.449968
53.825 9.320286
53.830 9.125619
53.835 9.158067
53.840 8.963977
53.845 8.893094
53.850 9.151639
53.855 9.011407
53.860 8.894638
53.865 8.55065
53.870 8.100886
53.875 8.002973
53.880 7.902243
53.885 7.835919
53.890 7.844964
53.895 8.018782
53.900 8.361238
53.905 8.850525
53.910 8.735521
53.915 8.887783
53.920 8.863812
53.925 8.725097
53.930 8.491655
53.935 8.107915
53.940 7.870296
53.945 7.583529
53.950 7.259352
53.955 7.361689
53.960 7.71148
53.965 8.120822
53.970 8.250931
53.975 8.588833
53.980 9.09136
53.985 9.277074
53.990 9.001927
53.995 8.132206
54.000 7.759036
54.005 7.841996
54.010 7.854517
54.015 7.491657
54.020 7.509279
54.025 7.985863
54.030 8.674474
54.035 9.270934
54.040 9.078596
54.045 8.890463
54.050 9.156893
54.055 9.142706
54.060 8.730372
54.065 8.807757
54.070 8.928864
54.075 9.507354
54.080 9.691508
54.085 9.680108
54.090 9.480883
54.095 9.554094
54.100 9.41343
54.105 9.325185
54.110 9.153111
54.115 9.523245
54.120 9.729339
54.125 10.120268
54.130 10.527831
54.135 10.325444
54.140 9.948038
54.145 9.738681
54.150 9.355642
54.155 9.277652
54.160 8.924883
54.165 8.436629
54.170 8.173493
54.175 8.170257
54.180 8.536504
54.185 8.628138
54.190 8.666101
54.195 8.868588
54.200 9.292894
54.205 9.74958
54.210 9.782004
54.215 9.468203
54.220 9.425591
54.225 9.442649
54.230 9.463728
54.235 9.6
54.240 9.752341
54.245 9.684115
54.250 9.694968
54.255 9.864196
54.260 9.920646
54.265 9.755689
54.270 9.375881
54.275 8.880752
54.280 8.881584
54.285 8.813996
54.290 8.862415
54.295 8.532843
54.300 8.531238
54.305 9.169096
54.310 9.538625
54.315 9.531694
54.320 9.507936
54.325 9.217897
54.330 9.541216
54.335 9.264552
54.340 8.506176
54.345 8.391632
54.350 8.473926
54.355 8.890847
54.360 9.117474
54.365 8.91343
54.370 8.778968
54.375 8.966082
54.380 9.465712
54.385 9.398532
54.390 9.649182
54.395 9.746742
54.400 9.946281
54.405 10.443792
54.410 10.238597
54.415 9.927149
54.420 9.623713
54.425 9.236907
54.430 8.839256
54.435 8.573157
54.440 8.65711
54.445 8.82282
54.450 8.745064
54.455 8.494726
54.460 8.73849
54.465 9.513479
54.470 9.757272
54.475 9.484385
54.480 9.088011
54.485 9.115223
54.490 9.16352
54.495 8.769674
54.500 8.674399
54.505 8.46444
54.510 9.117231
54.515 9.750525
54.520 10.307186
54.525 10.67483
54.530 11.004517
54.535 11.085517
54.540 11.229615
54.545 10.773712
54.550 10.094632
54.555 9.626989
54.560 9.363735
54.565 8.851776
54.570 8.520676
54.575 8.124069
54.580 7.906586
54.585 8.248914
54.590 8.228275
54.595 8.280659
54.600 8.21028
54.605 8.520144
54.610 8.977991
54.615 9.159987
54.620 9.104746
54.625 8.780863
54.630 8.60283
54.635 8.719316
54.640 8.767412
54.645 8.426306
54.650 8.635365
54.655 8.831842
54.660 9.425496
54.665 10.095143
54.670 10.068427
54.675 10.056022
54.680 10.325042
54.685 9.897831
54.690 9.671804
54.695 9.194148
54.700 9.030021
54.705 9.355249
54.710 9.249944
54.715 9.558967
54.720 10.301956
54.725 10.706311
54.730 10.758985
54.735 10.617267
54.740 10.556546
54.745 10.60858
54.750 10.011448
54.755 9.565829
54.760 9.453752
54.765 9.451656
54.770 9.364546
54.775 9.543391
54.780 9.855035
54.785 10.259773
54.790 10.491796
54.795 10.611322
54.800 10.362064
54.805 10.143239
54.810 9.65462
54.815 9.287065
54.820 9.154727
54.825 9.282054
54.830 9.651267
54.835 9.679676
54.840 9.71429
54.845 9.951398
54.850 10.137707
54.855 9.909436
54.860 9.491269
54.865 9.359118
54.870 9.827187
54.875 9.85786
54.880 10.1856
54.885 10.409248
54.890 10.519151
54.895 10.132122
54.900 9.85466
54.905 9.502939
54.910 9.28516
54.915 9.085296
54.920 8.973882
54.925 8.919906
54.930 9.543654
54.935 9.636144
54.940 9.605847
54.945 9.777712
54.950 9.560859
54.955 9.608064
54.960 9.787514
54.965 9.623676
54.970 9.662784
54.975 9.714108
54.980 9.639566
54.985 9.371415
54.990 9.171489
54.995 9.007647
55.000 8.576805
55.005 8.482201
55.010 8.576891
55.015 8.728765
55.020 9.286746
55.025 9.724539
55.030 9.974998
55.035 10.335304
55.040 10.672499
55.045 10.733912
55.050 10.46569
55.055 9.774078
55.060 9.314521
55.065 9.352365
55.070 9.373261
55.075 9.385587
55.080 9.436909
55.085 9.606244
55.090 9.675047
55.095 9.735988
55.100 9.821342
55.105 9.541279
55.110 9.006283
55.115 9.023897
55.120 9.099651
55.125 9.077624
55.130 8.833931
55.135 8.585996
55.140 8.689778
55.145 9.132093
55.150 9.163666
55.155 9.182731
55.160 9.288409
55.165 9.75816
55.170 10.536532
55.175 10.568738
55.180 10.637324
55.185 10.461616
55.190 10.420377
55.195 10.835079
55.200 10.869295
55.205 10.307611
55.210 10.3667
55.215 9.836593
55.220 10.502842
55.225 10.86309
55.230 10.42312
55.235 10.54565
55.240 10.856954
55.245 11.142711
55.250 11.435558
55.255 11.092093
55.260 10.867361
55.265 10.706255
55.270 10.518752
55.275 10.500601
55.280 10.36445
55.285 10.426398
55.290 10.924735
55.295 11.169169
55.300 11.205098
55.305 11.317746
55.310 11.199814
55.315 10.899889
55.320 10.5094
55.325 10.538492
55.330 10.50605
55.335 10.187044
55.340 10.286634
55.345 10.582678
55.350 10.687234
55.355 10.485511
55.360 9.588296
55.365 9.482619
55.370 9.632084
55.375 9.182905
55.380 8.788593
55.385 8.733383
55.390 8.56752
55.395 9.37142
55.400 9.708257
55.405 9.372371
55.410 9.78225
55.415 10.115113
55.420 10.47832
55.425 10.680498
55.430 10.238126
55.435 10.077242
55.440 10.24802
55.445 10.11951
55.450 10.342426
55.455 10.482234
55.460 10.312912
55.465 10.430636
55.470 10.246519
55.475 10.229198
55.480 9.774474
55.485 9.337886
55.490 9.343499
55.495 8.837189
55.500 8.992788
55.505 9.318672
55.510 9.669044
55.515 9.859839
55.520 9.974547
55.525 10.467638
55.530 10.818959
55.535 10.872767
55.540 11.238911
55.545 11.072613
55.550 10.912962
55.555 11.029218
55.560 10.997885
55.565 11.15017
55.570 10.482003
55.575 9.888719
55.580 9.984435
55.585 9.696851
55.590 9.435565
55.595 9.416807
55.600 9.508065
55.605 9.641214
55.610 9.95068
55.615 9.937603
55.620 10.279946
55.625 10.184056
55.630 10.059519
55.635 10.176134
55.640 10.271699
55.645 9.788493
55.650 9.644813
55.655 9.84851
55.660 9.541857
55.665 9.989502
55.670 10.281794
55.675 10.173127
55.680 10.650911
55.685 10.431055
55.690 10.064942
55.695 10.582653
55.700 9.922434
55.705 9.923238
55.710 10.902279
55.715 11.685636
55.720 12.369201
55.725 12.63341
55.730 12.475333
55.735 12.660008
55.740 12.022894
55.745 11.082764
55.750 10.381066
55.755 9.907661
55.760 9.895162
55.765 9.719544
55.770 10.067211
55.775 10.65894
55.780 10.814611
55.785 11.298831
55.790 11.551036
55.795 11.982587
55.800 11.778351
55.805 10.914348
55.810 10.433139
55.815 10.306839
55.820 10.281192
55.825 10.140708
55.830 10.01745
55.835 10.196857
55.840 10.539858
55.845 11.248513
55.850 11.189135
55.855 10.873983
55.860 10.510863
55.865 10.051962
55.870 10.323834
55.875 10.404404
55.880 9.721158
55.885 9.964462
55.890 10.580097
55.895 11.293533
55.900 11.690946
55.905 11.177504
55.910 11.452926
55.915 11.811424
55.920 11.705086
55.925 11.228495
55.930 11.054951
55.935 11.562222
55.940 12.043203
55.945 11.989501
55.950 11.982611
55.955 11.7679
55.960 11.480591
55.965 11.169382
55.970 10.727348
55.975 10.684909
55.980 10.500985
55.985 10.848154
55.990 10.783356
55.995 10.841126
56.000 10.965312
56.005 11.21933
56.010 11.659566
56.015 11.890394
56.020 11.272459
56.025 11.3061
56.030 11.926544
56.035 12.386189
56.040 12.232898
56.045 11.906799
56.050 11.47508
56.055 11.796292
56.060 12.0716
56.065 11.582386
56.070 11.316382
56.075 10.947523
56.080 10.894582
56.085 11.051517
56.090 10.501928
56.095 10.163626
56.100 10.090587
56.105 10.328655
56.110 10.294084
56.115 10.113064
56.120 10.415309
56.125 11.023673
56.130 11.485106
56.135 11.414598
56.140 11.477489
56.145 11.987628
56.150 12.168753
56.155 12.225521
56.160 12.249775
56.165 12.068199
56.170 12.288975
56.175 12.242496
56.180 12.065432
56.185 11.952904
56.190 12.309539
56.195 12.228066
56.200 12.270095
56.205 11.60848
56.210 11.401013
56.215 11.140608
56.220 11.068
56.225 10.811084
56.230 11.23847
56.235 11.795392
56.240 12.333966
56.245 12.81197
56.250 13.167591
56.255 13.114038
56.260 13.366279
56.265 13.229294
56.270 12.659888
56.275 12.607693
56.280 12.187732
56.285 12.238285
56.290 11.767739
56.295 11.505981
56.300 11.543063
56.305 11.967143
56.310 11.708298
56.315 11.453333
56.320 11.443551
56.325 11.532804
56.330 11.442583
56.335 11.237357
56.340 11.01695
56.345 11.031177
56.350 11.311316
56.355 11.567134
56.360 11.30388
56.365 11.27567
56.370 11.089174
56.375 11.331051
56.380 11.350613
56.385 11.054169
56.390 10.890789
56.395 11.168725
56.400 11.340978
56.405 11.728448
56.410 11.653274
56.415 11.9951
56.420 12.162817
56.425 12.667328
56.430 12.933836
56.435 12.900637
56.440 12.708158
56.445 12.56048
56.450 12.103577
56.455 11.632867
56.460 11.046728
56.465 10.834484
56.470 10.390011
56.475 10.495753
56.480 10.580385
56.485 11.2987
56.490 11.838973
56.495 11.899108
56.500 11.416254
56.505 11.606373
56.510 11.496112
56.515 11.363263
56.520 10.63109
56.525 10.082527
56.530 10.543333
56.535 10.929709
56.540 10.95429
56.545 11.127591
56.550 11.708367
56.555 12.38571
56.560 12.688478
56.565 12.366902
56.570 12.628286
56.575 12.430298
56.580 12.465197
56.585 11.762676
56.590 11.48133
56.595 11.741051
56.600 11.878865
56.605 11.762156
56.610 12.120993
56.615 12.195416
56.620 12.758123
56.625 12.525328
56.630 12.146487
56.635 12.096442
56.640 12.118155
56.645 12.057691
56.650 11.442348
56.655 10.988054
56.660 10.906091
56.665 10.982236
56.670 11.240949
56.675 11.280449
56.680 11.290164
56.685 11.977751
56.690 12.450743
56.695 12.697438
56.700 13.033557
56.705 12.885355
56.710 12.561003
56.715 13.137836
56.720 12.909818
56.725 12.729978
56.730 12.60309
56.735 12.216709
56.740 12.359262
56.745 12.169006
56.750 12.160137
56.755 12.342577
56.760 12.736326
56.765 13.417555
56.770 13.747134
56.775 14.382972
56.780 14.523221
56.785 14.086952
56.790 13.527437
56.795 13.256408
56.800 12.89712
56.805 12.436915
56.810 11.878991
56.815 11.769627
56.820 12.037775
56.825 12.233555
56.830 12.35644
56.835 12.92204
56.840 13.178622
56.845 13.366544
56.850 13.21337
56.855 13.181931
56.860 13.252107
56.865 13.458895
56.870 13.906427
56.875 13.679566
56.880 13.837748
56.885 14.056432
56.890 13.894453
56.895 13.414947
56.900 12.92529
56.905 11.681986
56.910 11.475612
56.915 11.371365
56.920 11.233941
56.925 11.25495
56.930 11.51355
56.935 11.887441
56.940 12.090217
56.945 11.780159
56.950 12.104133
56.955 12.192961
56.960 12.707849
56.965 12.886791
56.970 12.355463
56.975 12.479876
56.980 12.981187
56.985 13.02973
56.990 12.993516
56.995 12.416723
57.000 12.081777
57.005 12.446851
57.010 12.877543
57.015 12.581838
57.020 12.217293
57.025 12.440521
57.030 12.526837
57.035 12.737057
57.040 12.532497
57.045 12.3234
57.050 12.456883
57.055 12.338753
57.060 11.722857
57.065 11.790875
57.070 11.425446
57.075 11.126011
57.080 10.659752
57.085 10.353971
57.090 10.301553
57.095 10.619555
57.100 10.520823
57.105 10.978677
57.110 11.529346
57.115 11.910483
57.120 12.363461
57.125 12.503259
57.130 12.340562
57.135 12.423656
57.140 12.2625
57.145 12.106159
57.150 11.844863
57.155 11.625085
57.160 11.986461
57.165 12.336453
57.170 12.693084
57.175 12.697619
57.180 12.748991
57.185 12.98278
57.190 12.847932
57.195 12.594855
57.200 12.619473
57.205 12.419441
57.210 12.589838
57.215 12.580957
57.220 12.940063
57.225 12.987999
57.230 13.001413
57.235 12.990576
57.240 12.329905
57.245 12.174173
57.250 12.069442
57.255 11.470531
57.260 11.504968
57.265 11.717618
57.270 11.69505
57.275 12.232148
57.280 12.800455
57.285 12.960057
57.290 13.372536
57.295 13.530856
57.300 13.61679
57.305 14.0155
57.310 13.888434
57.315 13.810665
57.320 14.018847
57.325 13.841459
57.330 14.42515
57.335 14.305101
57.340 14.259289
57.345 13.841005
57.350 13.273603
57.355 13.335985
57.360 13.181858
57.365 12.71563
57.370 12.336532
57.375 12.474363
57.380 12.637815
57.385 12.801869
57.390 12.588749
57.395 12.787868
57.400 12.721666
57.405 12.736589
57.410 12.297359
57.415 12.30522
57.420 12.728549
57.425 13.168944
57.430 12.953357
57.435 13.203273
57.440 13.250445
57.445 13.407331
57.450 13.633273
57.455 13.078489
57.460 13.465263
57.465 13.855844
57.470 13.699006
57.475 13.468704
57.480 13.83718
57.485 13.722383
57.490 13.897842
57.495 13.181186
57.500 12.569246
57.505 12.546979
57.510 13.186237
57.515 12.975749
57.520 12.755693
57.525 12.641257
57.530 13.116799
57.535 13.134524
57.540 13.273336
57.545 13.05514
57.550 13.089699
57.555 13.087729
57.560 12.845103
57.565 12.285542
57.570 12.09185
57.575 12.517795
57.580 12.397803
57.585 12.1763
57.590 12.260503
57.595 12.526425
57.600 12.996357
57.605 13.068818
57.610 12.538815
57.615 12.440993
57.620 12.653534
57.625 12.330501
57.630 12.512387
57.635 12.674973
57.640 12.847082
57.645 13.376101
57.650 13.574881
57.655 13.728607
57.660 13.855017
57.665 13.453571
57.670 12.902318
57.675 12.943373
57.680 12.423194
57.685 12.452103
57.690 12.297183
57.695 12.632292
57.700 12.494278
57.705 12.618634
57.710 12.115671
57.715 12.050756
57.720 12.188975
57.725 12.256984
57.730 11.783201
57.735 12.18736
57.740 12.631602
57.745 12.840684
57.750 13.041364
57.755 12.878777
57.760 13.386604
57.765 13.867221
57.770 13.698909
57.775 13.109643
57.780 12.684069
57.785 12.772637
57.790 12.430305
57.795 12.41178
57.800 12.065731
57.805 12.11152
57.810 12.759968
57.815 13.153244
57.820 12.932323
57.825 13.133061
57.830 13.244105
57.835 13.885949
57.840 13.723142
57.845 13.669362
57.850 13.932228
57.855 13.938793
57.860 13.677406
57.865 13.766626
57.870 13.682179
57.875 13.646426
57.880 13.66865
57.885 13.818845
57.890 14.10202
57.895 14.207814
57.900 13.570112
57.905 13.509048
57.910 13.57427
57.915 13.23904
57.920 12.872238
57.925 12.761396
57.930 13.066593
57.935 13.277227
57.940 12.966246
57.945 13.245198
57.950 13.492555
57.955 13.673317
57.960 13.821195
57.965 13.812061
57.970 13.558435
57.975 13.823709
57.980 14.337594
57.985 14.346351
57.990 14.613954
57.995 14.607224
58.000 14.46806
58.005 14.848069
58.010 14.607579
58.015 14.207083
58.020 14.158262
58.025 14.198065
58.030 13.997466
58.035 13.405187
58.040 13.563205
58.045 13.644309
58.050 13.518894
58.055 13.292206
58.060 12.871402
58.065 12.98032
58.070 13.373283
58.075 13.33614
58.080 13.296165
58.085 13.104654
58.090 13.28351
58.095 13.321775
58.100 13.132282
58.105 13.156212
58.110 12.607602
58.115 12.281184
58.120 12.647275
58.125 12.373678
58.130 12.103135
58.135 12.286875
58.140 12.651816
58.145 13.382942
58.150 13.370263
58.155 12.791758
58.160 13.285076
58.165 13.899535
58.170 14.014753
58.175 13.945577
58.180 13.624678
58.185 13.759895
58.190 13.953182
58.195 13.971066
58.200 13.941836
58.205 13.992933
58.210 13.652498
58.215 14.003323
58.220 14.865648
58.225 14.935974
58.230 15.035327
58.235 14.600561
58.240 13.985802
58.245 14.067949
58.250 14.02105
58.255 13.712379
58.260 13.768042
58.265 13.552035
58.270 13.862098
58.275 14.431664
58.280 14.146952
58.285 14.355319
58.290 14.362589
58.295 14.523752
58.300 14.622758
58.305 14.376173
58.310 13.805115
58.315 13.78562
58.320 13.410583
58.325 12.730824
58.330 12.458709
58.335 12.635283
58.340 12.545238
58.345 12.99453
58.350 13.249908
58.355 13.366281
58.360 13.659257
58.365 13.856454
58.370 14.091517
58.375 14.717048
58.380 14.513268
58.385 14.750925
58.390 15.131612
58.395 15.270723
58.400 14.879344
58.405 14.487157
58.410 14.398016
58.415 14.579288
58.420 14.092142
58.425 13.578588
58.430 13.132697
58.435 13.489033
58.440 13.731584
58.445 13.716812
58.450 14.180956
58.455 14.089622
58.460 14.838116
58.465 15.028489
58.470 14.839676
58.475 14.830763
58.480 14.868649
58.485 14.22963
58.490 14.3162
58.495 14.36984
58.500 14.219996
58.505 14.05018
58.510 14.279175
58.515 14.259529
58.520 14.286166
58.525 14.334645
58.530 14.452808
58.535 14.390956
58.540 14.052155
58.545 13.799954
58.550 13.233367
58.555 13.242599
58.560 12.829885
58.565 12.756252
