!@!!GADDS PLOTSO FILE: Chi integration type
!@!!Title/SampleName: map-a7
!@!!Comment: ?
!@!!User: Bruker Instrument Administrator
!@!!Site: University of Illinois Chicago
!@!!Frame: map-a7_01_000.gfrm
!@!!Wavelengths    1.54184   1.54056   1.54439
!@!!Frame angles: 2Theta: 63.000 Omega: 50.000 Phi: 0.000 Chi: 90.000
!@!!Integration range: 2Theta: 53.000 to 73.000  Gamma: -105.000 to -75.000
!@!!Integration method: bin normalized
!@!N
!@!SS
!@!M
!@!L 0.0 0.0 0.0 0.0
!@!XDegrees
!@!YCounts
53.000 8.140645
53.005 8.010139
53.010 8.126115
53.015 8.675809
53.020 8.432354
53.025 8.519708
53.030 8.568771
53.035 8.723767
53.040 9.184047
53.045 9.116542
53.050 8.881328
53.055 9.29478
53.060 9.214658
53.065 9.160076
53.070 9.059836
53.075 9.074058
53.080 9.353698
53.085 9.368784
53.090 9.01267
53.095 8.925174
53.100 9.099937
53.105 9.298218
53.110 8.939859
53.115 8.44805
53.120 8.328283
53.125 8.309507
53.130 8.354992
53.135 8.037384
53.140 8.211205
53.145 8.475195
53.150 9.225521
53.155 9.028777
53.160 8.81196
53.165 8.651254
53.170 8.486855
53.175 8.284591
53.180 8.512177
53.185 8.925979
53.190 9.311468
53.195 9.476069
53.200 9.283734
53.205 9.20062
53.210 8.833869
53.215 8.121835
53.220 7.426276
53.225 7.232871
53.230 7.645461
53.235 8.403639
53.240 8.34739
53.245 8.419896
53.250 8.631557
53.255 8.702885
53.260 8.677546
53.265 8.285582
53.270 7.645618
53.275 8.408212
53.280 8.967494
53.285 9.288198
53.290 9.59322
53.295 9.837572
53.300 10.207903
53.305 10.601344
53.310 10.068537
53.315 9.883611
53.320 9.790695
53.325 10.253956
53.330 10.141829
53.335 10.020542
53.340 10.392946
53.345 10.44432
53.350 10.09671
53.355 9.673627
53.360 8.889665
53.365 8.557663
53.370 8.095717
53.375 7.656035
53.380 7.766469
53.385 7.861857
53.390 7.971207
53.395 8.320659
53.400 8.568285
53.405 8.60598
53.410 8.552091
53.415 8.680265
53.420 9.03856
53.425 9.162007
53.430 8.863594
53.435 8.988062
53.440 9.140469
53.445 8.708702
53.450 8.545572
53.455 8.9478
53.460 9.286678
53.465 9.69976
53.470 9.592112
53.475 9.607201
53.480 9.767509
53.485 10.03477
53.490 9.351149
53.495 8.896953
53.500 8.737995
53.505 8.855758
53.510 9.555175
53.515 9.753701
53.520 9.390779
53.525 9.757223
53.530 9.876933
53.535 9.977286
53.540 9.531084
53.545 8.798548
53.550 8.625225
53.555 8.54456
53.560 8.506702
53.565 8.761655
53.570 8.946283
53.575 9.618037
53.580 9.881076
53.585 9.864944
53.590 9.907914
53.595 9.765861
53.600 9.902673
53.605 9.559425
53.610 9.172081
53.615 9.105823
53.620 9.743479
53.625 9.757853
53.630 9.176043
53.635 9.025029
53.640 9.551042
53.645 9.501611
53.650 9.466574
53.655 8.615572
53.660 8.812718
53.665 9.446923
53.670 9.018599
53.675 8.653012
53.680 8.651502
53.685 8.745934
53.690 9.210419
53.695 9.225942
53.700 8.985223
53.705 9.597508
53.710 9.554774
53.715 9.569359
53.720 9.835702
53.725 10.034526
53.730 9.849072
53.735 9.760289
53.740 9.486546
53.745 9.799079
53.750 9.804484
53.755 9.835135
53.760 9.737561
53.765 9.960504
53.770 10.031728
53.775 10.070166
53.780 9.962155
53.785 10.100197
53.790 10.25565
53.795 10.177474
53.800 10.086366
53.805 9.923743
53.810 9.829661
53.815 9.832267
53.820 9.756735
53.825 9.427374
53.830 9.531247
53.835 9.685987
53.840 10.095602
53.845 10.192178
53.850 10.139543
53.855 10.137992
53.860 10.558155
53.865 10.870521
53.870 10.747155
53.875 10.68222
53.880 11.085478
53.885 11.416195
53.890 11.346826
53.895 11.207762
53.900 11.142209
53.905 11.092138
53.910 10.470173
53.915 10.069675
53.920 9.754963
53.925 9.239367
53.930 8.744967
53.935 8.641686
53.940 9.106931
53.945 9.766684
53.950 9.772335
53.955 9.883346
53.960 10.454062
53.965 10.588829
53.970 10.524845
53.975 9.645928
53.980 9.051427
53.985 9.226656
53.990 9.305916
53.995 9.258769
54.000 9.362342
54.005 9.991291
54.010 10.860908
54.015 11.111953
54.020 11.433187
54.025 11.649409
54.030 11.302695
54.035 11.019012
54.040 10.673809
54.045 10.477843
54.050 10.260263
54.055 9.691673
54.060 9.589733
54.065 10.036138
54.070 10.212923
54.075 10.198795
54.080 10.49384
54.085 10.857786
54.090 10.883378
54.095 11.081517
54.100 10.886644
54.105 10.428598
54.110 10.656903
54.115 10.199754
54.120 9.806065
54.125 9.713794
54.130 9.994457
54.135 10.294089
54.140 10.712696
54.145 10.931882
54.150 10.87179
54.155 10.994925
54.160 11.143435
54.165 10.933137
54.170 10.82769
54.175 10.176336
54.180 9.870202
54.185 10.175481
54.190 10.114577
54.195 9.823896
54.200 9.88676
54.205 10.314447
54.210 10.610872
54.215 10.856805
54.220 10.989737
54.225 10.698407
54.230 10.948626
54.235 10.783689
54.240 10.779772
54.245 10.558255
54.250 10.715509
54.255 10.926378
54.260 10.956505
54.265 10.212416
54.270 10.176154
54.275 10.031302
54.280 9.924029
54.285 9.437328
54.290 9.437896
54.295 9.6112
54.300 9.865414
54.305 10.300757
54.310 10.51263
54.315 10.575143
54.320 10.597881
54.325 10.840091
54.330 11.264766
54.335 11.051372
54.340 10.261283
54.345 10.051935
54.350 10.322616
54.355 10.291399
54.360 10.258999
54.365 10.194407
54.370 10.359624
54.375 10.948238
54.380 11.147741
54.385 11.141851
54.390 10.966368
54.395 10.996674
54.400 11.263542
54.405 11.390689
54.410 11.384089
54.415 11.299628
54.420 11.332438
54.425 11.324881
54.430 10.586071
54.435 10.438591
54.440 10.336175
54.445 9.564916
54.450 9.53822
54.455 9.614691
54.460 9.670211
54.465 9.711467
54.470 9.638966
54.475 9.937857
54.480 10.292758
54.485 10.300907
54.490 10.131815
54.495 10.308191
54.500 10.510482
54.505 10.779381
54.510 11.104276
54.515 11.336102
54.520 11.379852
54.525 11.610444
54.530 11.805688
54.535 12.054672
54.540 11.860581
54.545 11.435691
54.550 11.173875
54.555 11.227102
54.560 11.546738
54.565 11.720886
54.570 11.416661
54.575 11.077396
54.580 11.070847
54.585 11.692537
54.590 11.243863
54.595 10.665434
54.600 10.490207
54.605 10.655238
54.610 10.65572
54.615 10.601254
54.620 10.180865
54.625 10.693131
54.630 10.669486
54.635 10.717469
54.640 11.06415
54.645 11.657927
54.650 11.990086
54.655 12.342202
54.660 12.328216
54.665 12.435252
54.670 12.345402
54.675 11.919538
54.680 11.430266
54.685 10.778062
54.690 10.558371
54.695 10.60459
54.700 10.667963
54.705 10.836254
54.710 10.644295
54.715 10.696908
54.720 10.854222
54.725 11.030825
54.730 11.561693
54.735 11.929873
54.740 11.878899
54.745 12.647515
54.750 13.100248
54.755 13.4543
54.760 13.510978
54.765 12.966961
54.770 12.824597
54.775 12.40754
54.780 11.605322
54.785 11.591537
54.790 11.278463
54.795 10.937606
54.800 11.019373
54.805 10.675387
54.810 11.042804
54.815 10.921541
54.820 10.55094
54.825 10.225305
54.830 9.996673
54.835 9.496619
54.840 9.688934
54.845 10.393099
54.850 10.912218
54.855 11.260085
54.860 11.957608
54.865 12.194314
54.870 12.388812
54.875 12.644448
54.880 12.530882
54.885 12.416016
54.890 12.331314
54.895 11.945982
54.900 11.855227
54.905 11.756149
54.910 11.2696
54.915 11.079107
54.920 10.6883
54.925 10.028961
54.930 9.684291
54.935 9.705713
54.940 9.730384
54.945 9.622169
54.950 9.697996
54.955 10.324097
54.960 11.215533
54.965 11.370873
54.970 10.921962
54.975 11.015241
54.980 11.332747
54.985 11.253666
54.990 11.236521
54.995 11.189535
55.000 11.096734
55.005 11.174612
55.010 11.168719
55.015 10.808839
55.020 10.793615
55.025 10.415768
55.030 10.371543
55.035 10.753704
55.040 10.752142
55.045 10.781615
55.050 10.859662
55.055 10.476899
55.060 10.900681
55.065 10.635407
55.070 11.467301
55.075 12.16898
55.080 12.549779
55.085 12.91873
55.090 12.853257
55.095 12.882298
55.100 12.892317
55.105 12.095222
55.110 11.307954
55.115 10.909595
55.120 10.675212
55.125 11.072151
55.130 11.170774
55.135 11.189672
55.140 10.85398
55.145 10.824985
55.150 10.964122
55.155 11.088099
55.160 10.593996
55.165 10.415717
55.170 11.00991
55.175 11.683139
55.180 11.703213
55.185 11.778508
55.190 11.862517
55.195 11.931865
55.200 11.956509
55.205 11.542376
55.210 11.402557
55.215 11.286491
55.220 11.573071
55.225 11.559226
55.230 11.905263
55.235 11.87605
55.240 11.545654
55.245 11.556637
55.250 11.585544
55.255 10.940194
55.260 11.078165
55.265 11.155807
55.270 11.276135
55.275 11.760301
55.280 12.225615
55.285 12.480022
55.290 12.822439
55.295 12.870911
55.300 13.081372
55.305 12.926094
55.310 12.763645
55.315 12.141259
55.320 11.48899
55.325 11.189325
55.330 10.96491
55.335 10.602715
55.340 10.667887
55.345 10.649084
55.350 10.931983
55.355 11.172199
55.360 11.021753
55.365 10.659825
55.370 10.498228
55.375 10.575233
55.380 10.559696
55.385 10.817536
55.390 11.58801
55.395 12.154129
55.400 12.246917
55.405 12.379504
55.410 12.277331
55.415 12.163499
55.420 11.517982
55.425 11.243893
55.430 11.127466
55.435 11.359507
55.440 11.176793
55.445 11.182422
55.450 11.401287
55.455 11.464819
55.460 11.536989
55.465 11.299797
55.470 11.364763
55.475 11.398205
55.480 11.442335
55.485 11.573997
55.490 11.552207
55.495 11.47665
55.500 12.689631
55.505 13.352564
55.510 13.53055
55.515 13.47495
55.520 13.869948
55.525 13.936562
55.530 13.618355
55.535 13.057205
55.540 12.789069
55.545 12.509322
55.550 12.400728
55.555 12.776348
55.560 12.962651
55.565 12.717325
55.570 12.52788
55.575 12.303588
55.580 12.200478
55.585 11.423474
55.590 10.410877
55.595 10.043654
55.600 9.771356
55.605 8.979254
55.610 9.418449
55.615 9.534488
55.620 10.295433
55.625 11.026919
55.630 11.712085
55.635 12.446702
55.640 12.747602
55.645 13.023232
55.650 13.192608
55.655 13.301923
55.660 13.040024
55.665 12.659451
55.670 11.856238
55.675 11.720296
55.680 11.078582
55.685 10.956072
55.690 10.573052
55.695 10.781695
55.700 11.143423
55.705 11.542046
55.710 11.587387
55.715 11.552855
55.720 11.863719
55.725 11.892764
55.730 11.748942
55.735 11.311811
55.740 11.130851
55.745 11.132941
55.750 11.77574
55.755 11.84886
55.760 12.064187
55.765 11.993145
55.770 12.577655
55.775 13.10329
55.780 13.187501
55.785 12.873235
55.790 12.887531
55.795 12.875141
55.800 13.522707
55.805 13.569041
55.810 13.589251
55.815 13.239746
55.820 13.34273
55.825 13.107073
55.830 13.037606
55.835 12.737616
55.840 12.752269
55.845 12.773236
55.850 13.290237
55.855 13.614531
55.860 13.642998
55.865 13.434678
55.870 12.644713
55.875 13.052103
55.880 13.04583
55.885 13.085388
55.890 12.688133
55.895 12.673646
55.900 13.262116
55.905 13.499157
55.910 12.928091
55.915 12.673486
55.920 12.733334
55.925 12.776687
55.930 12.761761
55.935 12.595807
55.940 12.849579
55.945 13.217033
55.950 13.193097
55.955 13.134098
55.960 13.313386
55.965 13.352352
55.970 12.805027
55.975 13.236662
55.980 12.992382
55.985 13.127899
55.990 13.132822
55.995 12.905625
56.000 13.130056
56.005 13.1911
56.010 12.900611
56.015 12.886784
56.020 12.249841
56.025 12.131411
56.030 12.098639
56.035 12.140886
56.040 12.000637
56.045 11.539248
56.050 11.502406
56.055 12.070109
56.060 11.978365
56.065 11.9419
56.070 11.794616
56.075 12.231928
56.080 13.111354
56.085 13.366019
56.090 13.488432
56.095 13.348628
56.100 13.62584
56.105 13.515159
56.110 12.606834
56.115 12.313947
56.120 12.258035
56.125 11.688185
56.130 11.466801
56.135 11.202731
56.140 11.71526
56.145 12.033772
56.150 11.477019
56.155 11.15714
56.160 11.476542
56.165 11.765259
56.170 12.126094
56.175 12.068001
56.180 12.090128
56.185 12.052011
56.190 12.186101
56.195 11.942046
56.200 11.995292
56.205 11.58941
56.210 11.839768
56.215 11.600773
56.220 11.601462
56.225 11.561402
56.230 12.130721
56.235 12.205145
56.240 12.559711
56.245 12.605874
56.250 13.024745
56.255 13.329132
56.260 13.324729
56.265 13.113817
56.270 12.65231
56.275 12.175355
56.280 12.118477
56.285 12.187175
56.290 11.946219
56.295 12.344474
56.300 12.357344
56.305 12.548753
56.310 12.773217
56.315 12.971248
56.320 13.335511
56.325 12.985217
56.330 12.257357
56.335 12.176925
56.340 12.362861
56.345 12.255746
56.350 12.113459
56.355 11.977109
56.360 12.599236
56.365 13.024008
56.370 12.876747
56.375 12.538654
56.380 12.140219
56.385 11.687639
56.390 11.236197
56.395 11.121349
56.400 10.698269
56.405 10.602175
56.410 10.95999
56.415 10.898862
56.420 11.38383
56.425 11.916652
56.430 11.779214
56.435 11.69199
56.440 11.692192
56.445 11.52835
56.450 12.375861
56.455 12.40009
56.460 12.314905
56.465 12.440814
56.470 12.836655
56.475 12.805995
56.480 12.750848
56.485 12.598872
56.490 12.715713
56.495 13.018366
56.500 13.15455
56.505 13.554411
56.510 13.967982
56.515 14.028454
56.520 13.827864
56.525 13.509276
56.530 13.317091
56.535 13.061752
56.540 12.757158
56.545 12.241349
56.550 12.201026
56.555 11.860271
56.560 11.607686
56.565 11.433385
56.570 11.672196
56.575 11.948087
56.580 12.618093
56.585 12.886126
56.590 13.48165
56.595 13.711903
56.600 14.121984
56.605 14.363652
56.610 14.133842
56.615 13.53001
56.620 13.015952
56.625 12.785099
56.630 12.479616
56.635 12.331111
56.640 12.174015
56.645 12.458334
56.650 12.840012
56.655 13.248089
56.660 13.633153
56.665 14.013582
56.670 14.03147
56.675 13.559997
56.680 13.693449
56.685 13.597063
56.690 13.213286
56.695 13.027585
56.700 12.997211
56.705 13.379971
56.710 13.343979
56.715 12.994498
56.720 13.324454
56.725 13.616455
56.730 13.418871
56.735 12.923202
56.740 12.930112
56.745 13.285946
56.750 13.283358
56.755 13.21365
56.760 13.367098
56.765 13.297532
56.770 13.356829
56.775 12.938443
56.780 12.882711
56.785 12.753777
56.790 12.468754
56.795 12.394328
56.800 12.024251
56.805 12.164552
56.810 12.453804
56.815 12.547822
56.820 12.738796
56.825 12.817685
56.830 13.074602
56.835 13.683006
56.840 13.757862
56.845 13.644832
56.850 13.823154
56.855 13.699328
56.860 13.907269
56.865 14.046489
56.870 14.434447
56.875 14.265147
56.880 14.417801
56.885 14.663693
56.890 14.248333
56.895 13.748493
56.900 13.402863
56.905 13.250834
56.910 13.510827
56.915 13.109443
56.920 12.118255
56.925 12.008009
56.930 12.330713
56.935 12.447922
56.940 12.251905
56.945 12.248791
56.950 12.475209
56.955 12.55338
56.960 12.544805
56.965 11.981801
56.970 12.194281
56.975 12.455062
56.980 12.397706
56.985 12.99723
56.990 13.574815
56.995 14.113985
57.000 13.979829
57.005 13.817427
57.010 13.838521
57.015 13.876767
57.020 13.508923
57.025 13.217772
57.030 13.472672
57.035 13.903049
57.040 14.00707
57.045 14.01705
57.050 14.122128
57.055 13.752213
57.060 13.87506
57.065 13.447848
57.070 13.380796
57.075 13.05174
57.080 13.231514
57.085 13.66444
57.090 13.881927
57.095 13.407307
57.100 13.678288
57.105 14.283963
57.110 14.328685
57.115 13.957339
57.120 13.951387
57.125 14.152669
57.130 14.324703
57.135 14.081861
57.140 13.064092
57.145 12.761409
57.150 12.688449
57.155 12.30757
57.160 12.441418
57.165 12.740026
57.170 12.789504
57.175 13.433916
57.180 13.608402
57.185 13.729679
57.190 13.938532
57.195 14.195148
57.200 14.131355
57.205 14.288266
57.210 14.488542
57.215 14.561399
57.220 14.527423
57.225 14.556892
57.230 14.532176
57.235 14.812349
57.240 14.919991
57.245 14.588821
57.250 14.11689
57.255 13.872986
57.260 14.335675
57.265 14.564586
57.270 14.552897
57.275 14.282574
57.280 14.304984
57.285 14.590372
57.290 14.768983
57.295 14.148067
57.300 13.479562
57.305 13.160203
57.310 13.045512
57.315 13.704021
57.320 14.138924
57.325 14.024719
57.330 14.180074
57.335 14.624817
57.340 15.055981
57.345 15.467429
57.350 15.236774
57.355 15.309614
57.360 15.1613
57.365 15.271197
57.370 15.517618
57.375 14.991291
57.380 14.673951
57.385 14.496639
57.390 14.490013
57.395 14.462839
57.400 13.869633
57.405 13.501868
57.410 13.958667
57.415 13.976454
57.420 13.700324
57.425 13.167476
57.430 12.98193
57.435 13.45275
57.440 13.654584
57.445 13.571282
57.450 13.490952
57.455 13.712194
57.460 13.895172
57.465 13.85289
57.470 13.660376
57.475 13.452888
57.480 13.570713
57.485 13.920947
57.490 14.352841
57.495 15.012358
57.500 14.871581
57.505 14.593492
57.510 14.712583
57.515 14.46682
57.520 14.420571
57.525 14.980775
57.530 15.090276
57.535 15.529845
57.540 15.918065
57.545 16.214365
57.550 15.724779
57.555 15.555864
57.560 14.702286
57.565 14.244607
57.570 14.312961
57.575 14.118658
57.580 14.399435
57.585 15.147536
57.590 15.270319
57.595 15.435155
57.600 15.09713
57.605 14.483353
57.610 14.264733
57.615 13.830504
57.620 13.125958
57.625 12.984308
57.630 12.738101
57.635 13.162318
57.640 13.99479
57.645 13.71072
57.650 13.354498
57.655 13.69585
57.660 13.609704
57.665 13.532662
57.670 13.714244
57.675 13.105046
57.680 13.08322
57.685 13.427683
57.690 13.955804
57.695 13.863855
57.700 13.930468
57.705 13.462824
57.710 13.672814
57.715 13.639858
57.720 13.385246
57.725 12.531718
57.730 12.657615
57.735 12.786627
57.740 13.281686
57.745 14.148114
57.750 15.029882
57.755 15.765686
57.760 16.786404
57.765 16.692907
57.770 16.599365
57.775 16.307211
57.780 16.184566
57.785 16.07621
57.790 15.622237
57.795 14.737554
57.800 14.581012
57.805 14.752115
57.810 14.551163
57.815 14.216734
57.820 14.40548
57.825 14.193671
57.830 14.164883
57.835 13.948611
57.840 13.912375
57.845 13.945085
57.850 13.382999
57.855 12.615849
57.860 12.878917
57.865 13.017232
57.870 13.07452
57.875 13.512507
57.880 13.868562
57.885 13.979553
57.890 14.456051
57.895 15.071598
57.900 15.581061
57.905 16.264465
57.910 15.89409
57.915 15.843234
57.920 16.138426
57.925 15.843662
57.930 15.552961
57.935 15.387101
57.940 15.276514
57.945 15.362041
57.950 15.259653
57.955 14.954423
57.960 14.699365
57.965 14.82891
57.970 15.457381
57.975 15.060566
57.980 14.955905
57.985 14.833899
57.990 15.154535
57.995 14.932631
58.000 13.862876
58.005 13.32801
58.010 13.456558
58.015 13.629961
58.020 13.665642
58.025 13.798201
58.030 14.28368
58.035 14.709509
58.040 14.664003
58.045 14.799121
58.050 14.651757
58.055 14.879271
58.060 14.831067
58.065 15.028523
58.070 15.077916
58.075 15.081333
58.080 14.700268
58.085 14.776423
58.090 14.731927
58.095 14.662607
58.100 14.359775
58.105 14.452824
58.110 14.358031
58.115 14.315294
58.120 14.237247
58.125 14.046066
58.130 14.391348
58.135 14.53341
58.140 14.676851
58.145 14.823306
58.150 14.878201
58.155 15.122289
58.160 14.947716
58.165 14.722431
58.170 14.429099
58.175 14.321302
58.180 14.361901
58.185 14.466502
58.190 13.994517
58.195 13.794922
58.200 13.696624
58.205 14.270453
58.210 14.142112
58.215 13.543945
58.220 13.909007
58.225 14.238654
58.230 14.329491
58.235 14.675616
58.240 14.162351
58.245 14.433582
58.250 15.147578
58.255 15.067309
58.260 15.228502
58.265 15.110761
58.270 15.054812
58.275 15.246778
58.280 14.936394
58.285 14.925499
58.290 14.855289
58.295 15.082024
58.300 15.327937
58.305 15.590918
58.310 16.129751
58.315 16.330462
58.320 16.513313
58.325 16.020435
58.330 15.747504
58.335 15.402227
58.340 14.705776
58.345 14.48753
58.350 14.346908
58.355 14.286457
58.360 14.456936
58.365 14.24332
58.370 14.28869
58.375 14.465446
58.380 13.924017
58.385 13.692126
58.390 13.183178
58.395 13.140593
58.400 13.383777
58.405 13.896907
58.410 13.68911
58.415 13.773568
58.420 14.357137
58.425 14.664091
58.430 15.124913
58.435 15.019355
58.440 14.632634
58.445 14.99177
58.450 15.054444
58.455 14.494997
58.460 14.420622
58.465 14.051737
58.470 14.131653
58.475 14.213639
58.480 14.345853
58.485 14.071369
58.490 14.330801
