!@!!GADDS PLOTSO FILE: Chi integration type
!@!!Title/SampleName: map-ca
!@!!Comment: ?
!@!!User: Bruker Instrument Administrator
!@!!Site: University of Illinois Chicago
!@!!Frame: map-ca_01_000.gfrm
!@!!Wavelengths    1.54184   1.54056   1.54439
!@!!Frame angles: 2Theta: 63.000 Omega: 50.000 Phi: 0.000 Chi: 90.000
!@!!Integration range: 2Theta: 53.000 to 73.000  Gamma: -105.000 to -75.000
!@!!Integration method: bin normalized
!@!N
!@!SS
!@!M
!@!L 0.0 0.0 0.0 0.0
!@!XDegrees
!@!YCounts
53.000 7.696571
53.005 7.837818
53.010 8.061788
53.015 8.730727
53.020 8.781013
53.025 8.646637
53.030 8.746494
53.035 8.910758
53.040 9.061385
53.045 8.821864
53.050 8.491547
53.055 8.795523
53.060 8.95406
53.065 9.005853
53.070 9.304684
53.075 9.790689
53.080 9.823987
53.085 9.94926
53.090 9.42099
53.095 9.11183
53.100 8.739733
53.105 8.137223
53.110 8.226949
53.115 8.817122
53.120 9.195105
53.125 9.452317
53.130 9.43684
53.135 9.593979
53.140 9.485992
53.145 9.372049
53.150 9.114691
53.155 8.782413
53.160 9.057702
53.165 9.246062
53.170 9.056228
53.175 9.059484
53.180 8.505602
53.185 8.532116
53.190 8.607114
53.195 8.142503
53.200 8.193241
53.205 8.264902
53.210 8.154493
53.215 7.934951
53.220 7.911425
53.225 8.136332
53.230 8.028411
53.235 8.068298
53.240 8.5188
53.245 9.170403
53.250 9.881652
53.255 10.089813
53.260 10.276967
53.265 10.713229
53.270 10.444605
53.275 9.980422
53.280 9.963324
53.285 9.648424
53.290 9.581939
53.295 9.424063
53.300 9.217385
53.305 9.479183
53.310 9.316265
53.315 8.97604
53.320 8.601748
53.325 8.013015
53.330 8.178834
53.335 8.442292
53.340 7.8973
53.345 7.718831
53.350 8.165336
53.355 8.180799
53.360 8.36506
53.365 7.9409
53.370 7.605491
53.375 7.963776
53.380 8.176965
53.385 8.333074
53.390 8.126989
53.395 7.999248
53.400 8.153389
53.405 8.298784
53.410 8.521728
53.415 8.097585
53.420 8.80343
53.425 9.63539
53.430 9.779233
53.435 9.979446
53.440 10.350644
53.445 10.361016
53.450 10.578203
53.455 10.133737
53.460 10.525043
53.465 10.655211
53.470 10.582317
53.475 10.344635
53.480 10.525577
53.485 10.383917
53.490 10.182963
53.495 9.416386
53.500 9.298302
53.505 9.437084
53.510 9.60802
53.515 9.54957
53.520 9.349039
53.525 10.059405
53.530 10.405466
53.535 10.299848
53.540 9.80986
53.545 9.89233
53.550 9.872436
53.555 9.762537
53.560 9.462602
53.565 9.401344
53.570 10.175016
53.575 10.431433
53.580 10.224645
53.585 10.697872
53.590 10.453801
53.595 10.383835
53.600 10.366976
53.605 10.183786
53.610 10.058928
53.615 10.053427
53.620 9.847571
53.625 9.84057
53.630 9.539429
53.635 9.401881
53.640 9.409788
53.645 9.585423
53.650 9.692066
53.655 10.089707
53.660 10.464446
53.665 10.309163
53.670 9.659328
53.675 9.423373
53.680 8.919541
53.685 8.737771
53.690 8.509924
53.695 8.980261
53.700 9.531971
53.705 10.154119
53.710 10.336397
53.715 10.311974
53.720 10.540625
53.725 11.130013
53.730 10.977365
53.735 11.002005
53.740 10.620839
53.745 10.512158
53.750 10.303308
53.755 9.292959
53.760 8.273305
53.765 7.930185
53.770 7.853174
53.775 7.907501
53.780 8.248129
53.785 8.79885
53.790 9.111799
53.795 9.278406
53.800 9.471665
53.805 9.578271
53.810 9.640135
53.815 9.59732
53.820 9.937333
53.825 10.009068
53.830 9.985118
53.835 9.941768
53.840 10.148427
53.845 10.64679
53.850 10.591365
53.855 10.297543
53.860 10.179069
53.865 10.151196
53.870 9.74474
53.875 9.371609
53.880 8.998036
53.885 8.472052
53.890 8.237146
53.895 8.145921
53.900 8.226514
53.905 8.46243
53.910 8.140038
53.915 8.394745
53.920 8.699816
53.925 9.086471
53.930 9.388821
53.935 9.152153
53.940 9.544037
53.945 9.641945
53.950 9.642981
53.955 9.586666
53.960 9.718386
53.965 9.616383
53.970 9.957671
53.975 10.114495
53.980 10.48335
53.985 10.297681
53.990 10.253938
53.995 10.571293
54.000 10.422275
54.005 9.667379
54.010 9.22246
54.015 9.083607
54.020 9.188835
54.025 9.296672
54.030 9.283752
54.035 9.854476
54.040 10.154712
54.045 9.973163
54.050 9.963699
54.055 9.893313
54.060 9.551339
54.065 9.414113
54.070 9.086329
54.075 9.325152
54.080 9.355547
54.085 9.75721
54.090 9.876108
54.095 9.981239
54.100 10.296973
54.105 10.684731
54.110 11.140004
54.115 11.28852
54.120 10.966937
54.125 10.863382
54.130 10.938987
54.135 10.899651
54.140 10.563519
54.145 9.730089
54.150 9.298464
54.155 9.247173
54.160 9.376418
54.165 9.344909
54.170 9.341516
54.175 9.452411
54.180 10.047553
54.185 10.476706
54.190 10.598414
54.195 10.672044
54.200 10.918168
54.205 11.02108
54.210 10.99275
54.215 10.505151
54.220 10.07896
54.225 10.137658
54.230 10.333096
54.235 10.58619
54.240 10.752011
54.245 10.850707
54.250 11.158053
54.255 11.496256
54.260 11.621381
54.265 11.146751
54.270 10.366938
54.275 9.940962
54.280 9.715979
54.285 9.623624
54.290 9.395038
54.295 8.966067
54.300 8.699615
54.305 8.773905
54.310 8.462469
54.315 8.50459
54.320 8.619534
54.325 8.955193
54.330 9.250031
54.335 9.749619
54.340 10.444815
54.345 10.531217
54.350 10.905475
54.355 10.746556
54.360 10.427052
54.365 10.545704
54.370 10.687244
54.375 10.445292
54.380 10.209066
54.385 9.881995
54.390 9.745216
54.395 9.558741
54.400 9.264758
54.405 8.677034
54.410 8.633037
54.415 8.985755
54.420 9.235594
54.425 9.701315
54.430 9.778433
54.435 9.816672
54.440 10.008546
54.445 10.030174
54.450 9.715266
54.455 9.550714
54.460 9.484228
54.465 9.772248
54.470 10.075579
54.475 10.281456
54.480 10.31782
54.485 10.235838
54.490 10.58329
54.495 10.726861
54.500 10.469037
54.505 9.89562
54.510 9.782907
54.515 9.786777
54.520 10.058113
54.525 9.86243
54.530 9.690374
54.535 9.619312
54.540 10.023845
54.545 10.240935
54.550 10.391341
54.555 10.005298
54.560 9.692818
54.565 9.820541
54.570 10.163778
54.575 10.113358
54.580 10.131126
54.585 10.184582
54.590 10.084738
54.595 10.170288
54.600 10.023458
54.605 10.166192
54.610 10.120818
54.615 10.170979
54.620 10.748747
54.625 10.787892
54.630 10.946628
54.635 10.801251
54.640 10.518878
54.645 10.370255
54.650 10.085651
54.655 9.575134
54.660 9.264049
54.665 9.68132
54.670 10.402184
54.675 10.897513
54.680 11.555165
54.685 11.998693
54.690 12.20106
54.695 12.241412
54.700 11.679316
54.705 11.25265
54.710 10.867618
54.715 10.538578
54.720 9.893269
54.725 10.093698
54.730 10.404511
54.735 10.547473
54.740 10.365235
54.745 10.067845
54.750 10.209856
54.755 10.763116
54.760 10.750879
54.765 10.683047
54.770 10.964593
54.775 11.069905
54.780 10.901433
54.785 10.651483
54.790 10.432316
54.795 10.255326
54.800 9.555649
54.805 9.364139
54.810 9.433624
54.815 9.472054
54.820 9.131705
54.825 9.806549
54.830 10.175971
54.835 10.534184
54.840 10.022906
54.845 10.250947
54.850 10.321454
54.855 10.449779
54.860 10.100762
54.865 10.186303
54.870 9.93247
54.875 9.976694
54.880 9.673459
54.885 9.926904
54.890 9.97783
54.895 9.749365
54.900 9.506013
54.905 10.128339
54.910 10.799366
54.915 11.686687
54.920 11.731521
54.925 11.937374
54.930 11.806703
54.935 11.791738
54.940 11.788552
54.945 11.71497
54.950 11.516212
54.955 11.135914
54.960 11.149633
54.965 11.343667
54.970 11.057931
54.975 10.495547
54.980 10.115024
54.985 9.779945
54.990 9.863328
54.995 10.112169
55.000 10.407799
55.005 10.700351
55.010 10.67205
55.015 11.095883
55.020 11.415258
55.025 11.841154
55.030 11.469296
55.035 11.382352
55.040 11.406822
55.045 11.302788
55.050 10.722272
55.055 10.535904
55.060 10.297278
55.065 10.065562
55.070 9.865174
55.075 9.882593
55.080 10.403536
55.085 10.470761
55.090 10.198918
55.095 9.908578
55.100 10.490365
55.105 10.427726
55.110 10.021812
55.115 9.554978
55.120 9.568213
55.125 9.694007
55.130 9.565923
55.135 9.423513
55.140 9.843652
55.145 10.40335
55.150 10.768621
55.155 10.746382
55.160 10.925809
55.165 11.069148
55.170 11.156579
55.175 11.222349
55.180 11.380301
55.185 11.552306
55.190 11.359349
55.195 11.069936
55.200 10.722357
55.205 10.916803
55.210 10.757111
55.215 10.311318
55.220 10.197495
55.225 10.324335
55.230 10.272227
55.235 10.316634
55.240 10.00033
55.245 10.283958
55.250 11.107676
55.255 11.07045
55.260 11.553528
55.265 12.006657
55.270 12.446592
55.275 12.212011
55.280 11.804279
55.285 11.391114
55.290 11.324617
55.295 10.881304
55.300 10.633804
55.305 10.304742
55.310 10.619744
55.315 10.458713
55.320 10.488026
55.325 10.261785
55.330 10.398242
55.335 10.270964
55.340 9.807417
55.345 10.060467
55.350 9.658103
55.355 9.326221
55.360 10.021001
55.365 10.215567
55.370 10.830876
55.375 10.94858
55.380 10.755713
55.385 11.014827
55.390 11.25394
55.395 11.01206
55.400 10.953256
55.405 11.14163
55.410 11.454179
55.415 11.829894
55.420 12.344055
55.425 12.476363
55.430 12.449563
55.435 12.322547
55.440 11.854424
55.445 11.724687
55.450 11.390491
55.455 11.007743
55.460 10.679856
55.465 10.509244
55.470 10.560339
55.475 10.565656
55.480 10.519852
55.485 11.025505
55.490 11.141755
55.495 11.559972
55.500 11.229722
55.505 11.340303
55.510 11.784922
55.515 11.530015
55.520 10.843858
55.525 10.523132
55.530 10.178864
55.535 10.272921
55.540 9.805785
55.545 9.495151
55.550 10.064718
55.555 10.530409
55.560 10.822133
55.565 11.225921
55.570 11.462237
55.575 11.5449
55.580 11.458896
55.585 11.130574
55.590 11.322807
55.595 11.610744
55.600 11.269752
55.605 11.239584
55.610 11.290236
55.615 11.25098
55.620 11.335664
55.625 11.077609
55.630 11.394347
55.635 11.873912
55.640 11.73779
55.645 11.618138
55.650 11.654664
55.655 11.211308
55.660 10.993585
55.665 10.35912
55.670 9.953659
55.675 10.000462
55.680 9.991221
55.685 9.927957
55.690 10.624108
55.695 10.696369
55.700 10.681124
55.705 10.743205
55.710 10.736006
55.715 10.897528
55.720 10.914301
55.725 10.887025
55.730 10.892267
55.735 11.348236
55.740 11.859635
55.745 11.926911
55.750 11.687924
55.755 11.879812
55.760 11.78185
55.765 11.914001
55.770 11.281779
55.775 11.273082
55.780 11.449032
55.785 11.482224
55.790 11.457971
55.795 11.543298
55.800 11.429862
55.805 11.437782
55.810 10.858366
55.815 10.732775
55.820 10.669895
55.825 10.733414
55.830 10.821323
55.835 10.950732
55.840 10.863168
55.845 11.192521
55.850 11.519437
55.855 11.665996
55.860 11.31042
55.865 11.266455
55.870 11.391665
55.875 11.846501
55.880 12.052395
55.885 12.391257
55.890 12.255824
55.895 12.467777
55.900 12.468403
55.905 12.204184
55.910 12.816342
55.915 12.683867
55.920 12.617134
55.925 12.558815
55.930 12.244388
55.935 12.048155
55.940 12.18829
55.945 12.355629
55.950 12.521576
55.955 12.447549
55.960 12.865762
55.965 13.239682
55.970 13.600963
55.975 13.560366
55.980 13.107257
55.985 13.033744
55.990 12.86901
55.995 12.489923
56.000 12.0671
56.005 11.853122
56.010 11.951814
56.015 12.469356
56.020 12.472489
56.025 12.419625
56.030 12.936012
56.035 13.490338
56.040 13.696539
56.045 13.484103
56.050 12.939323
56.055 13.085689
56.060 13.242278
56.065 13.247894
56.070 13.039513
56.075 13.066738
56.080 12.702312
56.085 12.68232
56.090 12.346656
56.095 11.988703
56.100 11.697769
56.105 11.478852
56.110 11.758789
56.115 12.052253
56.120 12.536559
56.125 12.722437
56.130 12.704916
56.135 12.388009
56.140 12.497422
56.145 12.172002
56.150 11.725207
56.155 11.284714
56.160 11.11828
56.165 11.380518
56.170 11.944677
56.175 11.827326
56.180 11.422002
56.185 11.047272
56.190 11.038505
56.195 11.085787
56.200 10.62838
56.205 10.339261
56.210 10.357211
56.215 11.339081
56.220 12.774064
56.225 13.521248
56.230 14.100676
56.235 14.295718
56.240 14.022882
56.245 14.268674
56.250 13.552777
56.255 12.928783
56.260 12.600643
56.265 12.438671
56.270 13.154941
56.275 13.674137
56.280 13.873145
56.285 13.960059
56.290 13.318493
56.295 13.78685
56.300 13.907372
56.305 13.396327
56.310 13.14493
56.315 12.930927
56.320 13.24352
56.325 13.811031
56.330 13.296394
56.335 12.871513
56.340 12.882666
56.345 13.09269
56.350 12.856908
56.355 12.704245
56.360 12.169969
56.365 12.158438
56.370 12.753382
56.375 12.886376
56.380 12.742846
56.385 12.700925
56.390 12.606361
56.395 12.977108
56.400 13.20048
56.405 13.035934
56.410 12.747373
56.415 12.774816
56.420 12.446183
56.425 12.950064
56.430 13.139091
56.435 13.090984
56.440 13.243332
56.445 13.119009
56.450 13.095536
56.455 13.151598
56.460 12.866769
56.465 12.363412
56.470 11.69163
56.475 11.638391
56.480 11.788455
56.485 12.160466
56.490 12.456313
56.495 12.948064
56.500 13.296169
56.505 13.287762
56.510 13.339171
56.515 13.376396
56.520 12.944262
56.525 12.566163
56.530 11.737068
56.535 11.91532
56.540 12.05399
56.545 11.983343
56.550 12.219994
56.555 12.803284
56.560 13.003985
56.565 13.274732
56.570 13.235256
56.575 12.627668
56.580 12.287889
56.585 11.986901
56.590 11.472206
56.595 11.155503
56.600 10.427215
56.605 10.643749
56.610 11.127048
56.615 11.338661
56.620 11.451049
56.625 11.193284
56.630 11.519113
56.635 11.945366
56.640 11.615064
56.645 11.170656
56.650 11.105608
56.655 11.084907
56.660 11.049411
56.665 11.491907
56.670 12.041458
56.675 12.461044
56.680 12.649832
56.685 12.648498
56.690 13.065447
56.695 13.119816
56.700 12.751606
56.705 12.453848
56.710 12.24865
56.715 12.342617
56.720 12.276388
56.725 12.132709
56.730 12.22019
56.735 12.455113
56.740 12.348399
56.745 12.665215
56.750 12.883867
56.755 12.898955
56.760 12.983834
56.765 13.142769
56.770 12.838211
56.775 13.078014
56.780 13.111386
56.785 13.315236
56.790 13.25598
56.795 13.267924
56.800 13.209175
56.805 13.746102
56.810 14.121684
56.815 13.819999
56.820 13.728764
56.825 13.769392
56.830 13.985726
56.835 14.064709
56.840 13.021106
56.845 12.717206
56.850 12.912522
56.855 12.797921
56.860 12.824818
56.865 12.944793
56.870 13.13158
56.875 13.281546
56.880 13.351171
56.885 13.538408
56.890 13.718058
56.895 13.57993
56.900 13.18834
56.905 13.676795
56.910 13.829069
56.915 13.832173
56.920 13.427229
56.925 13.024549
56.930 13.007586
56.935 12.859146
56.940 12.501227
56.945 12.444586
56.950 12.307588
56.955 12.739367
56.960 13.643517
56.965 13.66097
56.970 13.700414
56.975 13.97364
56.980 13.965585
56.985 13.623768
56.990 13.102891
56.995 12.980138
57.000 13.352904
57.005 12.917664
57.010 12.480844
57.015 12.328579
57.020 12.6652
57.025 12.505722
57.030 11.997605
57.035 12.273187
57.040 12.75912
57.045 13.449963
57.050 13.875987
57.055 14.247243
57.060 14.505324
57.065 14.477992
57.070 14.142562
57.075 14.181963
57.080 13.913229
57.085 13.995811
57.090 13.739602
57.095 13.480542
57.100 13.347732
57.105 13.151364
57.110 12.558382
57.115 12.339935
57.120 11.9835
57.125 12.307388
57.130 12.243273
57.135 12.374861
57.140 12.716181
57.145 12.717686
57.150 12.747345
57.155 12.745919
57.160 12.679411
57.165 13.137619
57.170 13.494625
57.175 13.915536
57.180 14.334168
57.185 14.399161
57.190 14.34076
57.195 13.851306
57.200 13.321801
57.205 12.342247
57.210 12.295118
57.215 12.322433
57.220 12.558455
57.225 12.561872
57.230 12.838585
57.235 13.262996
57.240 13.61926
57.245 13.338499
57.250 13.18176
57.255 13.155925
57.260 13.41291
57.265 13.585744
57.270 13.692112
57.275 13.803458
57.280 14.061998
57.285 14.483809
57.290 14.820047
57.295 14.782166
57.300 14.562119
57.305 14.528547
57.310 14.306524
57.315 13.643393
57.320 13.048951
57.325 13.318659
57.330 13.164937
57.335 13.265493
57.340 13.193148
57.345 13.318687
57.350 13.552764
57.355 13.346063
57.360 12.572307
57.365 12.555293
57.370 12.660501
57.375 13.062675
57.380 14.080844
57.385 14.90477
57.390 15.424742
57.395 15.737554
57.400 15.919835
57.405 15.713758
57.410 15.205651
57.415 13.836105
57.420 13.042245
57.425 12.69471
57.430 12.766828
57.435 12.907317
57.440 13.361449
57.445 13.716674
57.450 14.500083
57.455 14.969852
57.460 15.400257
57.465 15.403309
57.470 15.439479
57.475 14.906213
57.480 14.91832
57.485 14.48261
57.490 13.726799
57.495 13.021146
57.500 13.139513
57.505 13.188042
57.510 13.555387
57.515 13.339256
57.520 13.295826
57.525 13.933234
57.530 14.153784
57.535 13.93605
57.540 14.419664
57.545 14.967787
57.550 15.32117
57.555 15.940619
57.560 15.871948
57.565 15.524132
57.570 15.266911
57.575 14.758473
57.580 14.083342
57.585 13.991552
57.590 13.479363
57.595 13.297339
57.600 14.010168
57.605 13.85078
57.610 13.425692
57.615 13.636403
57.620 13.745881
57.625 14.197879
57.630 14.783692
57.635 14.56249
57.640 14.501373
57.645 14.986406
57.650 15.33744
57.655 15.463422
57.660 15.082439
57.665 15.092208
57.670 15.711115
57.675 16.038904
57.680 15.686906
57.685 14.98245
57.690 15.16449
57.695 15.479826
57.700 14.942324
57.705 14.421747
57.710 14.49923
57.715 14.794162
57.720 15.008283
57.725 15.123971
57.730 15.048724
57.735 15.443521
57.740 15.592439
57.745 15.589955
57.750 15.860979
57.755 15.971432
57.760 15.606703
57.765 15.769215
57.770 15.511627
57.775 15.110306
57.780 14.503984
57.785 13.934351
57.790 13.30505
57.795 12.981489
57.800 12.563832
57.805 12.789059
57.810 13.477241
57.815 14.55667
57.820 14.887814
57.825 14.946539
57.830 15.480611
57.835 15.918916
57.840 15.589396
57.845 15.303525
57.850 14.802322
57.855 14.869723
57.860 15.550405
57.865 14.937884
57.870 14.740211
57.875 15.083494
57.880 15.200205
57.885 15.073858
57.890 14.958318
57.895 14.580791
57.900 14.716327
57.905 14.46911
57.910 14.339471
57.915 14.321409
57.920 14.077203
57.925 14.093267
57.930 14.263372
57.935 14.562587
57.940 14.713092
57.945 14.126206
57.950 14.237691
57.955 14.846211
57.960 15.16282
57.965 15.106258
57.970 15.18139
57.975 15.286057
57.980 16.07078
57.985 15.937353
57.990 15.163864
57.995 15.111598
58.000 15.273828
58.005 15.868752
58.010 16.449963
58.015 16.309687
58.020 16.626507
58.025 17.063278
58.030 16.711605
58.035 16.33918
58.040 15.767884
58.045 15.21475
58.050 15.230865
58.055 15.042493
58.060 14.985074
58.065 15.083296
58.070 15.251087
58.075 15.610012
58.080 15.445564
58.085 15.554294
58.090 15.963079
58.095 15.851709
58.100 16.227983
58.105 16.758411
58.110 16.677778
58.115 16.950748
58.120 16.974045
58.125 16.662533
58.130 17.178911
58.135 17.711414
58.140 17.32856
58.145 17.374666
58.150 17.375439
58.155 17.199785
58.160 17.063608
58.165 16.609413
58.170 16.289812
58.175 16.459888
58.180 16.974705
58.185 16.947977
58.190 16.508886
58.195 16.08181
58.200 16.035696
58.205 15.615875
58.210 14.94176
58.215 14.138623
58.220 14.824825
58.225 15.531157
58.230 16.272909
58.235 16.279591
58.240 16.421591
58.245 17.31513
58.250 17.632896
58.255 17.713179
58.260 17.651897
58.265 17.663971
58.270 17.955935
58.275 18.183252
58.280 18.183756
58.285 17.933107
58.290 17.79698
58.295 18.499769
58.300 18.918222
58.305 18.783894
58.310 18.965809
58.315 19.077625
58.320 19.526308
58.325 19.361809
58.330 18.800989
58.335 19.030272
58.340 18.941832
58.345 18.855623
58.350 19.136406
58.355 19.533211
58.360 19.556198
58.365 19.722231
58.370 19.964041
58.375 20.108654
58.380 19.634512
58.385 19.313652
58.390 19.936892
58.395 20.6779
58.400 21.110132
58.405 21.375916
58.410 21.784836
58.415 22.735182
58.420 22.559706
58.425 22.208107
58.430 22.216696
58.435 22.927788
58.440 23.890991
58.445 24.534977
58.450 24.583086
58.455 25.37022
58.460 26.100286
58.465 26.179075
58.470 25.849274
58.475 25.870113
58.480 26.250389
58.485 26.855659
58.490 27.326275
58.495 27.576239
58.500 27.258749
58.505 26.857712
58.510 26.208385
