!@!!GADDS PLOTSO FILE: Chi integration type
!@!!Title/SampleName: map-25
!@!!Comment: ?
!@!!User: Bruker Instrument Administrator
!@!!Site: University of Illinois Chicago
!@!!Frame: map-25_01_000.gfrm
!@!!Wavelengths    1.54184   1.54056   1.54439
!@!!Frame angles: 2Theta: 63.000 Omega: 50.000 Phi: 0.000 Chi: 90.000
!@!!Integration range: 2Theta: 53.000 to 73.000  Gamma: -105.000 to -75.000
!@!!Integration method: bin normalized
!@!N
!@!SS
!@!M
!@!L 0.0 0.0 0.0 0.0
!@!XDegrees
!@!YCounts
53.000 7.913118
53.005 7.975002
53.010 7.824074
53.015 7.46489
53.020 7.662122
53.025 7.4639
53.030 7.582808
53.035 7.334377
53.040 7.622862
53.045 7.944585
53.050 8.082945
53.055 8.029111
53.060 8.078055
53.065 7.99593
53.070 7.646576
53.075 7.415947
53.080 7.125702
53.085 7.129969
53.090 7.262532
53.095 7.350357
53.100 7.687934
53.105 8.224984
53.110 8.373178
53.115 7.972618
53.120 7.669584
53.125 7.273058
53.130 7.056774
53.135 6.667877
53.140 6.213583
53.145 6.32086
53.150 6.593271
53.155 6.581667
53.160 6.648522
53.165 6.861091
53.170 6.868003
53.175 7.141162
53.180 7.388748
53.185 7.512863
53.190 7.587171
53.195 7.457649
53.200 7.689939
53.205 7.623662
53.210 7.287097
53.215 6.925317
53.220 7.012085
53.225 7.152996
53.230 6.941515
53.235 6.954659
53.240 7.188899
53.245 7.263339
53.250 7.332886
53.255 7.518154
53.260 7.601717
53.265 7.689219
53.270 7.648846
53.275 7.581334
53.280 7.818318
53.285 8.210819
53.290 8.17804
53.295 8.304741
53.300 8.598741
53.305 8.29672
53.310 8.365781
53.315 8.71343
53.320 8.971488
53.325 8.802896
53.330 8.373169
53.335 8.443609
53.340 8.629138
53.345 8.356815
53.350 7.44632
53.355 6.912871
53.360 6.902511
53.365 7.193358
53.370 7.269
53.375 7.345638
53.380 7.540224
53.385 8.132242
53.390 8.533366
53.395 9.179864
53.400 9.111242
53.405 9.262456
53.410 9.696947
53.415 9.431154
53.420 8.890132
53.425 8.484443
53.430 8.163107
53.435 7.9502
53.440 7.656278
53.445 7.286799
53.450 7.4833
53.455 7.6791
53.460 7.992187
53.465 8.272757
53.470 8.253887
53.475 8.109754
53.480 8.069662
53.485 7.943502
53.490 8.184829
53.495 8.121872
53.500 7.780229
53.505 7.831004
53.510 8.041245
53.515 8.158381
53.520 8.328809
53.525 8.151362
53.530 8.229859
53.535 8.436849
53.540 8.376431
53.545 8.458469
53.550 8.616632
53.555 8.58186
53.560 8.674063
53.565 8.245554
53.570 8.26405
53.575 8.152798
53.580 8.219409
53.585 8.020408
53.590 8.134193
53.595 7.960741
53.600 7.750836
53.605 7.9374
53.610 8.123618
53.615 8.083791
53.620 7.988219
53.625 8.157328
53.630 8.495675
53.635 8.796551
53.640 8.896053
53.645 8.697253
53.650 8.582234
53.655 8.490873
53.660 8.220658
53.665 8.223597
53.670 8.04683
53.675 7.661309
53.680 7.973307
53.685 8.330317
53.690 8.370588
53.695 8.816881
53.700 8.931124
53.705 9.05596
53.710 8.869987
53.715 8.608939
53.720 9.020883
53.725 8.618742
53.730 8.145035
53.735 7.939701
53.740 8.099238
53.745 8.461636
53.750 8.445673
53.755 8.336801
53.760 8.758399
53.765 8.727096
53.770 8.724862
53.775 8.665812
53.780 8.372796
53.785 7.896237
53.790 7.854822
53.795 7.948849
53.800 7.913454
53.805 7.675241
53.810 7.594369
53.815 8.013741
53.820 8.28439
53.825 8.49663
53.830 8.395859
53.835 8.479725
53.840 8.421651
53.845 8.474179
53.850 8.527557
53.855 8.272132
53.860 7.822875
53.865 7.778666
53.870 8.003806
53.875 8.287461
53.880 8.190518
53.885 7.917772
53.890 8.15323
53.895 8.579821
53.900 8.383964
53.905 8.304551
53.910 8.595426
53.915 9.107088
53.920 9.55182
53.925 9.153473
53.930 9.13768
53.935 9.359672
53.940 9.385869
53.945 9.044261
53.950 8.894291
53.955 8.717535
53.960 8.770837
53.965 9.074804
53.970 9.378619
53.975 9.631602
53.980 9.916853
53.985 9.765743
53.990 9.634882
53.995 9.576907
54.000 9.027936
54.005 8.738062
54.010 8.266437
54.015 7.922301
54.020 7.975621
54.025 7.959023
54.030 8.11158
54.035 8.367199
54.040 8.765022
54.045 9.075523
54.050 9.432173
54.055 9.769592
54.060 9.883165
54.065 9.853426
54.070 10.08991
54.075 10.026563
54.080 9.917522
54.085 9.563378
54.090 9.553188
54.095 9.641276
54.100 9.578232
54.105 9.490657
54.110 9.296592
54.115 8.800282
54.120 8.814481
54.125 8.752554
54.130 8.317684
54.135 8.410127
54.140 8.461599
54.145 8.841875
54.150 9.279525
54.155 9.392883
54.160 9.398341
54.165 9.562409
54.170 9.093811
54.175 8.770737
54.180 8.889136
54.185 8.704562
54.190 8.786074
54.195 9.069878
54.200 9.509517
54.205 9.766759
54.210 9.945823
54.215 9.967626
54.220 10.112829
54.225 9.823676
54.230 9.321997
54.235 9.189318
54.240 8.984779
54.245 8.689197
54.250 8.518669
54.255 8.196686
54.260 8.428375
54.265 8.76594
54.270 8.918077
54.275 9.207531
54.280 9.737218
54.285 9.906231
54.290 10.260741
54.295 10.158164
54.300 9.967631
54.305 9.617095
54.310 9.09044
54.315 8.804159
54.320 8.742987
54.325 8.227164
54.330 8.124383
54.335 7.777872
54.340 8.579452
54.345 8.836668
54.350 8.798021
54.355 9.082623
54.360 9.632725
54.365 9.675337
54.370 9.679137
54.375 9.140965
54.380 9.691748
54.385 9.580413
54.390 9.44204
54.395 9.280436
54.400 9.303446
54.405 9.616942
54.410 9.600632
54.415 9.350129
54.420 9.549286
54.425 9.469772
54.430 9.531111
54.435 9.5222
54.440 9.367987
54.445 9.228774
54.450 8.945763
54.455 9.193464
54.460 8.972975
54.465 9.026844
54.470 8.826173
54.475 8.708817
54.480 8.514993
54.485 8.602853
54.490 8.588436
54.495 8.707442
54.500 8.838704
54.505 9.03251
54.510 9.295886
54.515 9.048413
54.520 9.137002
54.525 9.25082
54.530 9.415876
54.535 9.645125
54.540 10.129247
54.545 10.343452
54.550 10.676066
54.555 10.246956
54.560 10.360871
54.565 10.729604
54.570 10.304828
54.575 9.951921
54.580 10.233941
54.585 10.391945
54.590 10.532136
54.595 10.109081
54.600 9.603518
54.605 9.681076
54.610 9.404592
54.615 9.085088
54.620 9.640693
54.625 9.825009
54.630 9.503869
54.635 9.274933
54.640 9.975121
54.645 10.002091
54.650 9.374157
54.655 8.772576
54.660 9.124931
54.665 9.336333
54.670 9.703922
54.675 9.212687
54.680 9.448236
54.685 9.836009
54.690 9.986966
54.695 9.66527
54.700 9.522799
54.705 8.976766
54.710 8.548081
54.715 8.447834
54.720 8.338024
54.725 8.181449
54.730 8.381276
54.735 8.688247
54.740 8.85773
54.745 9.204106
54.750 9.298862
54.755 9.293503
54.760 9.186485
54.765 9.144273
54.770 9.29701
54.775 9.64846
54.780 9.922913
54.785 9.451481
54.790 9.227117
54.795 9.153076
54.800 9.100411
54.805 8.90156
54.810 8.530754
54.815 8.114069
54.820 8.682287
54.825 9.4355
54.830 9.619581
54.835 9.653214
54.840 9.882751
54.845 10.671986
54.850 10.709561
54.855 10.737108
54.860 10.299976
54.865 10.532583
54.870 10.787102
54.875 10.827983
54.880 10.844933
54.885 11.096089
54.890 11.187966
54.895 11.580873
54.900 11.562664
54.905 11.444906
54.910 11.376784
54.915 11.34842
54.920 11.820755
54.925 11.869343
54.930 11.603079
54.935 11.547953
54.940 11.295861
54.945 10.906475
54.950 10.428862
54.955 9.633459
54.960 9.259681
54.965 9.071173
54.970 9.489341
54.975 9.523832
54.980 9.76498
54.985 10.378206
54.990 10.651737
54.995 10.490737
55.000 10.545309
55.005 10.475227
55.010 10.690281
55.015 10.131413
55.020 9.979145
55.025 10.382431
55.030 10.945604
55.035 10.741329
55.040 10.290553
55.045 10.047998
55.050 10.203128
55.055 9.734037
55.060 9.576609
55.065 9.396123
55.070 9.720269
55.075 10.056258
55.080 10.617294
55.085 10.65723
55.090 10.540652
55.095 10.579838
55.100 10.670292
55.105 11.082392
55.110 10.888804
55.115 10.480193
55.120 10.610217
55.125 10.615036
55.130 10.621164
55.135 10.672976
55.140 10.258948
55.145 10.146361
55.150 10.03682
55.155 9.921659
55.160 9.820718
55.165 9.906845
55.170 9.449941
55.175 9.308066
55.180 9.437654
55.185 9.61473
55.190 10.290302
55.195 10.700706
55.200 10.101396
55.205 10.001657
55.210 10.067617
55.215 10.546807
55.220 10.43479
55.225 9.782623
55.230 9.989614
55.235 10.557628
55.240 10.976302
55.245 10.883603
55.250 10.094732
55.255 10.035066
55.260 10.222901
55.265 10.133597
55.270 9.628899
55.275 9.662155
55.280 10.19294
55.285 10.872131
55.290 11.027552
55.295 10.98917
55.300 10.862199
55.305 11.145309
55.310 10.915865
55.315 10.536873
55.320 10.624538
55.325 10.847419
55.330 10.755334
55.335 10.676803
55.340 10.667262
55.345 10.947636
55.350 10.849523
55.355 10.273124
55.360 10.056656
55.365 10.33443
55.370 10.472965
55.375 10.287742
55.380 9.986829
55.385 10.25156
55.390 10.462197
55.395 10.594813
55.400 10.255949
55.405 10.183824
55.410 10.60143
55.415 10.880932
55.420 10.777228
55.425 10.83196
55.430 10.543573
55.435 10.547598
55.440 10.336292
55.445 9.962
55.450 9.668585
55.455 9.676319
55.460 9.351512
55.465 9.897118
55.470 10.13763
55.475 10.125421
55.480 10.283779
55.485 10.938618
55.490 10.850328
55.495 10.969012
55.500 11.016374
55.505 10.913617
55.510 11.228128
55.515 10.995472
55.520 11.179647
55.525 11.567496
55.530 11.044382
55.535 11.243006
55.540 11.230193
55.545 11.177602
55.550 11.992586
55.555 12.055969
55.560 12.26168
55.565 12.794433
55.570 12.5162
55.575 12.955531
55.580 13.036171
55.585 12.552485
55.590 12.416221
55.595 12.190484
55.600 12.078819
55.605 12.517137
55.610 12.534472
55.615 12.549805
55.620 12.219701
55.625 12.201341
55.630 12.04217
55.635 11.863068
55.640 11.621857
55.645 11.207766
55.650 10.478012
55.655 10.587099
55.660 10.316375
55.665 9.97867
55.670 9.584928
55.675 9.336819
55.680 9.408799
55.685 9.637609
55.690 9.757872
55.695 10.195716
55.700 10.571188
55.705 10.769069
55.710 10.928371
55.715 10.654605
55.720 11.107809
55.725 11.122848
55.730 11.136192
55.735 11.433287
55.740 11.438737
55.745 11.227078
55.750 11.299679
55.755 11.150036
55.760 11.559477
55.765 11.621383
55.770 11.533985
55.775 11.95431
55.780 12.211435
55.785 11.965049
55.790 11.478091
55.795 11.154408
55.800 10.969269
55.805 11.21151
55.810 11.445539
55.815 11.381508
55.820 11.511914
55.825 11.502048
55.830 11.509985
55.835 11.774751
55.840 11.465569
55.845 11.026245
55.850 11.419183
55.855 11.691544
55.860 11.705624
55.865 11.819641
55.870 11.452178
55.875 11.163958
55.880 11.027145
55.885 10.885054
55.890 10.84667
55.895 10.540201
55.900 10.255306
55.905 10.231209
55.910 10.396867
55.915 10.786288
55.920 11.066089
55.925 11.024549
55.930 11.386206
55.935 11.177791
55.940 10.995234
55.945 11.458885
55.950 11.717071
55.955 11.056873
55.960 10.919695
55.965 10.926423
55.970 11.586454
55.975 12.031084
55.980 11.64149
55.985 11.709634
55.990 11.712933
55.995 11.842711
56.000 11.830338
56.005 11.483997
56.010 11.244329
56.015 10.970285
56.020 10.478188
56.025 10.932824
56.030 11.511553
56.035 12.083176
56.040 12.226768
56.045 12.339728
56.050 12.379629
56.055 12.491788
56.060 12.500225
56.065 11.559453
56.070 11.134757
56.075 11.379392
56.080 11.161336
56.085 11.326234
56.090 10.999355
56.095 10.774354
56.100 10.953407
56.105 10.908439
56.110 10.484737
56.115 10.323112
56.120 10.522339
56.125 10.430097
56.130 10.618881
56.135 10.871519
56.140 10.839559
56.145 11.213617
56.150 11.677002
56.155 11.797365
56.160 12.369226
56.165 12.371219
56.170 12.170807
56.175 12.308306
56.180 12.168605
56.185 12.19733
56.190 12.522516
56.195 12.4662
56.200 12.823478
56.205 13.021536
56.210 12.65595
56.215 12.90172
56.220 12.767303
56.225 12.54547
56.230 12.337196
56.235 11.946694
56.240 11.923664
56.245 11.954601
56.250 11.295794
56.255 11.090428
56.260 11.177027
56.265 11.142645
56.270 11.013151
56.275 11.339813
56.280 11.66853
56.285 11.637709
56.290 11.711845
56.295 11.681307
56.300 11.885895
56.305 12.111519
56.310 11.730692
56.315 11.455922
56.320 11.782338
56.325 11.566235
56.330 11.330924
56.335 11.428096
56.340 11.224092
56.345 11.268268
56.350 11.642177
56.355 11.149995
56.360 11.039416
56.365 10.877007
56.370 10.692465
56.375 10.725009
56.380 10.452183
56.385 9.900799
56.390 10.005854
56.395 10.337858
56.400 10.409851
56.405 10.761024
56.410 11.042191
56.415 11.403114
56.420 11.501438
56.425 12.213156
56.430 12.208645
56.435 12.071784
56.440 11.837888
56.445 11.699242
56.450 11.579588
56.455 11.845457
56.460 11.700334
56.465 12.308005
56.470 12.642785
56.475 12.328296
56.480 12.289637
56.485 12.303443
56.490 12.637851
56.495 12.569015
56.500 11.696211
56.505 11.251171
56.510 11.693477
56.515 12.296942
56.520 12.442312
56.525 12.204592
56.530 12.400954
56.535 12.309162
56.540 12.33482
56.545 11.91893
56.550 11.608755
56.555 11.451365
56.560 11.334054
56.565 10.817665
56.570 11.155463
56.575 11.550913
56.580 11.595876
56.585 11.466608
56.590 11.708358
56.595 11.993372
56.600 12.305731
56.605 12.454692
56.610 12.054336
56.615 12.20716
56.620 12.370853
56.625 12.326936
56.630 12.352505
56.635 11.974813
56.640 11.86909
56.645 12.297496
56.650 12.479922
56.655 12.668519
56.660 12.438287
56.665 12.64497
56.670 13.00104
56.675 12.912373
56.680 12.768521
56.685 12.712451
56.690 12.592223
56.695 12.328193
56.700 11.991606
56.705 12.096275
56.710 12.35445
56.715 12.064155
56.720 11.528918
56.725 11.781574
56.730 12.440655
56.735 12.864152
56.740 12.672508
56.745 12.958014
56.750 13.60154
56.755 14.006502
56.760 13.828061
56.765 13.370324
56.770 12.900896
56.775 13.01845
56.780 12.740088
56.785 12.516564
56.790 12.246065
56.795 12.141266
56.800 12.635571
56.805 13.150468
56.810 12.709607
56.815 12.852839
56.820 13.027063
56.825 13.830642
56.830 14.068116
56.835 13.717331
56.840 14.153941
56.845 14.096302
56.850 14.036397
56.855 13.661835
56.860 13.177435
56.865 13.224544
56.870 12.73777
56.875 12.268188
56.880 12.130091
56.885 12.130072
56.890 12.315156
56.895 12.020221
56.900 12.257867
56.905 12.300878
56.910 12.824627
56.915 13.238849
56.920 12.919976
56.925 13.198823
56.930 13.868485
56.935 13.806714
56.940 13.290087
56.945 12.973019
56.950 12.756966
56.955 12.587614
56.960 12.126522
56.965 11.590046
56.970 11.352822
56.975 11.848512
56.980 11.395558
56.985 11.405099
56.990 11.841221
56.995 12.100247
57.000 12.339439
57.005 12.399134
57.010 12.665393
57.015 13.214806
57.020 13.260815
57.025 13.296068
57.030 13.359518
57.035 13.034035
57.040 13.211723
57.045 12.687618
57.050 12.946801
57.055 13.302238
57.060 12.978993
57.065 12.797419
57.070 12.654972
57.075 12.516294
57.080 12.797088
57.085 12.298829
57.090 11.617651
57.095 11.620902
57.100 11.280917
57.105 11.331312
57.110 11.331815
57.115 11.274636
57.120 11.300417
57.125 11.466774
57.130 11.657876
57.135 12.234615
57.140 12.377492
57.145 12.31238
57.150 12.292494
57.155 12.433256
57.160 12.559404
57.165 12.367095
57.170 11.926343
57.175 11.750461
57.180 11.769071
57.185 11.981936
57.190 11.749496
57.195 11.82058
57.200 11.68714
57.205 11.978241
57.210 12.222942
57.215 12.674307
57.220 12.53661
57.225 12.651746
57.230 12.731529
57.235 12.747933
57.240 12.690259
57.245 13.303973
57.250 13.46417
57.255 13.533213
57.260 13.121808
57.265 13.403058
57.270 13.882558
57.275 13.739515
57.280 12.7503
57.285 12.676016
57.290 12.726237
57.295 13.068679
57.300 12.77661
57.305 12.268394
57.310 12.225124
57.315 12.61917
57.320 12.466969
57.325 12.821937
57.330 12.938461
57.335 13.164962
57.340 13.429499
57.345 13.190768
57.350 13.06986
57.355 12.593017
57.360 12.12167
57.365 11.396891
57.370 11.069745
57.375 11.53946
57.380 12.131115
57.385 12.255135
57.390 12.656819
57.395 13.008058
57.400 13.643574
57.405 13.52756
57.410 13.114044
57.415 12.710944
57.420 12.779703
57.425 13.355333
57.430 13.448681
57.435 13.509638
57.440 13.97925
57.445 14.192428
57.450 14.193899
57.455 14.764112
57.460 14.359869
57.465 14.352903
57.470 14.439082
57.475 14.621354
57.480 14.754576
57.485 14.350335
57.490 13.28517
57.495 13.271069
57.500 13.054912
57.505 12.622988
57.510 12.027694
57.515 11.580883
57.520 11.665252
57.525 12.17753
57.530 12.62429
57.535 12.626655
57.540 12.477272
57.545 12.747218
57.550 12.549148
57.555 12.989181
57.560 12.921025
57.565 12.6925
57.570 13.552686
57.575 13.884798
57.580 13.833774
57.585 14.258254
57.590 14.16152
57.595 13.881754
57.600 13.78417
57.605 13.608544
57.610 13.994256
57.615 14.68424
57.620 14.669244
57.625 14.971905
57.630 15.277192
57.635 14.895594
57.640 14.609197
57.645 13.909348
57.650 13.199212
57.655 13.147292
57.660 12.801776
57.665 12.663731
57.670 12.76822
57.675 12.627631
57.680 12.404876
57.685 12.375726
57.690 12.096745
57.695 11.822698
57.700 11.633744
57.705 11.315411
57.710 11.738214
57.715 12.57305
57.720 13.132877
57.725 13.56221
57.730 13.561884
57.735 13.748227
57.740 14.295411
57.745 13.942894
57.750 13.710525
57.755 13.218146
57.760 13.450616
57.765 13.918315
57.770 13.710243
57.775 13.396736
57.780 13.332482
57.785 13.246977
57.790 13.460531
57.795 13.192455
57.800 12.990234
57.805 12.740776
57.810 12.816803
57.815 12.903662
57.820 13.200181
57.825 13.32573
57.830 13.16121
57.835 13.462086
57.840 14.092702
57.845 13.853616
57.850 13.326954
57.855 13.152621
57.860 12.862033
57.865 12.151793
57.870 12.138614
57.875 12.311669
57.880 12.99343
57.885 13.194946
57.890 12.91637
57.895 13.410369
57.900 14.233093
57.905 14.306755
57.910 13.801361
57.915 13.476751
57.920 13.39314
57.925 13.214818
57.930 12.62863
57.935 12.222322
57.940 12.288212
57.945 12.228232
57.950 12.252235
57.955 12.517845
57.960 13.185946
57.965 13.302533
57.970 13.142843
57.975 12.932136
57.980 13.177091
57.985 13.194756
57.990 13.210488
57.995 12.807076
58.000 12.85705
58.005 12.629909
58.010 12.399048
58.015 12.475303
58.020 12.460975
58.025 12.913927
58.030 13.054489
58.035 13.298782
58.040 13.987321
58.045 14.00326
58.050 14.018776
58.055 13.833029
58.060 13.643788
58.065 13.441319
58.070 13.325112
58.075 12.966211
58.080 12.484244
58.085 12.749831
58.090 13.011896
58.095 12.874266
58.100 13.176526
58.105 13.432413
58.110 13.661616
58.115 14.102835
58.120 14.194908
58.125 13.758585
58.130 13.397225
58.135 12.943241
58.140 12.903416
58.145 13.187986
58.150 13.274662
58.155 13.368247
58.160 14.16196
58.165 14.523706
58.170 14.621169
58.175 14.343138
58.180 14.204041
58.185 13.889295
58.190 13.069467
58.195 12.438473
58.200 12.370519
58.205 12.171738
58.210 12.509405
58.215 12.904678
58.220 13.315619
58.225 13.556404
58.230 13.719416
58.235 14.184542
58.240 14.30951
58.245 13.894057
58.250 13.141566
58.255 12.96153
58.260 13.42311
58.265 13.276721
58.270 13.395864
58.275 13.844001
58.280 13.954684
58.285 14.451496
58.290 14.815428
58.295 14.970675
58.300 15.438487
58.305 15.559965
58.310 15.511164
58.315 15.208147
58.320 14.381433
58.325 13.949057
58.330 13.349431
58.335 13.435746
58.340 13.157048
58.345 12.688971
58.350 13.27603
58.355 13.777999
58.360 13.716492
58.365 14.178432
58.370 13.96302
58.375 13.646686
58.380 14.278509
58.385 14.148698
58.390 14.041025
58.395 14.109808
58.400 13.60199
58.405 13.420723
58.410 13.361444
58.415 12.925931
58.420 13.566738
58.425 14.001079
58.430 14.116042
58.435 14.033371
58.440 14.154913
58.445 14.481028
58.450 14.368693
58.455 13.868854
58.460 13.413286
58.465 13.138659
58.470 13.538387
58.475 13.460085
58.480 13.71314
58.485 13.730021
58.490 13.895122
58.495 14.370514
58.500 14.603934
58.505 14.655057
58.510 14.464498
58.515 14.389133
58.520 14.288312
58.525 14.193071
58.530 13.765484
58.535 13.787524
58.540 13.654055
58.545 13.586486
58.550 13.171748
