!@!!GADDS PLOTSO FILE: Chi integration type
!@!!Title/SampleName: map-fc
!@!!Comment: ?
!@!!User: Bruker Instrument Administrator
!@!!Site: University of Illinois Chicago
!@!!Frame: map-fc_01_000.gfrm
!@!!Wavelengths    1.54184   1.54056   1.54439
!@!!Frame angles: 2Theta: 63.000 Omega: 50.000 Phi: 0.000 Chi: 90.000
!@!!Integration range: 2Theta: 53.000 to 73.000  Gamma: -105.000 to -75.000
!@!!Integration method: bin normalized
!@!N
!@!SS
!@!M
!@!L 0.0 0.0 0.0 0.0
!@!XDegrees
!@!YCounts
53.000 5.20599
53.005 5.213133
53.010 5.251801
53.015 5.088392
53.020 4.656575
53.025 5.040986
53.030 5.358756
53.035 5.202676
53.040 4.979945
53.045 4.787374
53.050 4.708752
53.055 4.761367
53.060 4.474194
53.065 4.206343
53.070 4.442279
53.075 4.697231
53.080 4.755622
53.085 4.585349
53.090 4.278844
53.095 4.337449
53.100 4.635356
53.105 4.512525
53.110 4.399571
53.115 4.740377
53.120 4.858675
53.125 4.896741
53.130 4.816187
53.135 4.691209
53.140 4.534491
53.145 4.376576
53.150 4.081547
53.155 4.194311
53.160 4.698704
53.165 4.722083
53.170 4.873973
53.175 4.675525
53.180 4.652534
53.185 4.818436
53.190 4.870989
53.195 4.675244
53.200 4.680198
53.205 5.114918
53.210 5.685702
53.215 5.812734
53.220 5.642909
53.225 5.303301
53.230 5.201376
53.235 4.93086
53.240 4.427937
53.245 4.275629
53.250 4.114087
53.255 4.3887
53.260 4.543683
53.265 4.879992
53.270 5.131174
53.275 5.239979
53.280 5.407178
53.285 5.905685
53.290 6.068296
53.295 6.164927
53.300 6.183598
53.305 6.134907
53.310 6.200052
53.315 5.805762
53.320 5.225696
53.325 5.037448
53.330 4.979836
53.335 4.953886
53.340 4.843882
53.345 5.16504
53.350 5.523383
53.355 5.547988
53.360 5.307572
53.365 5.170537
53.370 5.027403
53.375 5.46197
53.380 5.335713
53.385 5.220427
53.390 5.148781
53.395 5.273188
53.400 5.605952
53.405 5.666913
53.410 5.193449
53.415 4.936268
53.420 5.219907
53.425 5.453552
53.430 5.12386
53.435 5.02354
53.440 5.047005
53.445 5.241375
53.450 5.362502
53.455 5.278598
53.460 5.389206
53.465 5.630005
53.470 5.823629
53.475 6.160966
53.480 6.188931
53.485 6.525669
53.490 6.590189
53.495 6.536405
53.500 6.324396
53.505 5.822762
53.510 5.509529
53.515 5.478562
53.520 5.288783
53.525 5.076007
53.530 5.098324
53.535 5.66142
53.540 6.040149
53.545 6.013514
53.550 5.875246
53.555 5.896302
53.560 6.125868
53.565 6.26053
53.570 5.577975
53.575 5.373556
53.580 5.64332
53.585 5.681551
53.590 5.233999
53.595 5.236558
53.600 5.017317
53.605 5.065885
53.610 5.075366
53.615 5.231902
53.620 5.250576
53.625 5.427049
53.630 5.144228
53.635 5.650541
53.640 5.785667
53.645 5.744062
53.650 5.727365
53.655 5.934031
53.660 6.260181
53.665 6.394659
53.670 5.94842
53.675 6.021667
53.680 6.03464
53.685 5.855165
53.690 5.781368
53.695 5.381602
53.700 5.307808
53.705 5.368905
53.710 5.23456
53.715 5.175622
53.720 5.255983
53.725 5.507516
53.730 5.807271
53.735 5.726619
53.740 5.773173
53.745 5.928338
53.750 5.917756
53.755 5.852128
53.760 5.832134
53.765 5.797368
53.770 5.77546
53.775 5.811999
53.780 6.011723
53.785 5.937724
53.790 5.848132
53.795 5.763085
53.800 6.055107
53.805 6.259963
53.810 5.958763
53.815 5.764231
53.820 5.911595
53.825 5.696084
53.830 5.534225
53.835 5.463866
53.840 5.671309
53.845 5.935155
53.850 5.840828
53.855 6.088321
53.860 6.208182
53.865 6.0042
53.870 6.071368
53.875 6.007742
53.880 5.889159
53.885 5.753163
53.890 5.882226
53.895 5.868619
53.900 5.924387
53.905 5.471909
53.910 5.210012
53.915 5.134463
53.920 5.100589
53.925 4.661641
53.930 4.973176
53.935 5.135979
53.940 5.793007
53.945 6.084718
53.950 6.29374
53.955 6.325506
53.960 6.252644
53.965 6.431321
53.970 6.682706
53.975 6.081124
53.980 5.850769
53.985 5.718856
53.990 5.90089
53.995 6.034309
54.000 5.569942
54.005 5.28304
54.010 5.433941
54.015 5.786229
54.020 5.98812
54.025 5.949213
54.030 5.833076
54.035 6.195281
54.040 6.092896
54.045 6.324802
54.050 6.328731
54.055 6.175938
54.060 6.509667
54.065 6.027952
54.070 5.842613
54.075 6.251967
54.080 6.157976
54.085 5.779328
54.090 5.306239
54.095 5.000901
54.100 5.032811
54.105 4.853233
54.110 4.432824
54.115 4.218834
54.120 4.81627
54.125 4.889067
54.130 5.15014
54.135 5.425969
54.140 5.467469
54.145 5.766993
54.150 6.066198
54.155 5.843583
54.160 6.107147
54.165 6.136036
54.170 6.191401
54.175 6.30627
54.180 6.244537
54.185 6.177543
54.190 6.351024
54.195 6.461494
54.200 6.238712
54.205 6.230565
54.210 5.927594
54.215 5.461157
54.220 5.158876
54.225 4.801545
54.230 4.715281
54.235 4.976086
54.240 5.029627
54.245 5.219111
54.250 5.219139
54.255 5.23153
54.260 5.396726
54.265 5.75192
54.270 5.700196
54.275 5.73554
54.280 5.956734
54.285 6.825743
54.290 7.200595
54.295 7.379251
54.300 7.233173
54.305 7.39029
54.310 7.574319
54.315 7.585201
54.320 7.321712
54.325 7.19771
54.330 7.03316
54.335 6.912343
54.340 6.416493
54.345 6.16149
54.350 6.26475
54.355 6.328912
54.360 6.417386
54.365 6.437233
54.370 6.477644
54.375 6.787199
54.380 7.011746
54.385 6.810028
54.390 6.71087
54.395 6.359241
54.400 6.1347
54.405 6.151007
54.410 6.173657
54.415 6.025753
54.420 5.989651
54.425 6.210256
54.430 6.621393
54.435 6.931472
54.440 7.13463
54.445 6.980936
54.450 6.857158
54.455 6.902177
54.460 6.580283
54.465 6.531035
54.470 6.542862
54.475 6.330387
54.480 6.322112
54.485 6.293674
54.490 6.233681
54.495 6.496533
54.500 6.541446
54.505 6.664296
54.510 6.658306
54.515 6.940356
54.520 6.825211
54.525 6.564655
54.530 6.151493
54.535 5.966558
54.540 5.737565
54.545 5.751914
54.550 5.610256
54.555 5.767786
54.560 6.028386
54.565 6.362156
54.570 6.704024
54.575 6.835648
54.580 6.615988
54.585 6.599883
54.590 6.561445
54.595 6.421377
54.600 6.236835
54.605 6.285079
54.610 6.594806
54.615 6.727722
54.620 6.800807
54.625 7.271487
54.630 7.564403
54.635 7.354776
54.640 6.736296
54.645 6.303438
54.650 6.149465
54.655 5.89348
54.660 5.641742
54.665 5.750135
54.670 5.953066
54.675 6.499347
54.680 6.715898
54.685 6.968805
54.690 7.540194
54.695 7.428021
54.700 7.301641
54.705 7.292513
54.710 7.228782
54.715 7.380779
54.720 7.318666
54.725 6.902902
54.730 6.930198
54.735 6.889918
54.740 7.203705
54.745 7.636803
54.750 7.134492
54.755 6.984487
54.760 7.080079
54.765 7.310719
54.770 7.286131
54.775 6.772214
54.780 6.367206
54.785 6.536665
54.790 6.482929
54.795 6.692373
54.800 6.713837
54.805 6.776331
54.810 6.857244
54.815 6.838699
54.820 7.100581
54.825 7.006692
54.830 6.524558
54.835 6.340574
54.840 6.058099
54.845 5.991233
54.850 6.293083
54.855 6.305835
54.860 6.512019
54.865 6.501158
54.870 6.764582
54.875 6.821835
54.880 7.238256
54.885 7.439536
54.890 7.364635
54.895 7.194079
54.900 7.181567
54.905 7.272965
54.910 7.46368
54.915 6.873488
54.920 6.861639
54.925 6.646856
54.930 6.571372
54.935 6.752595
54.940 6.740103
54.945 6.593034
54.950 6.23627
54.955 6.185297
54.960 6.421379
54.965 6.405995
54.970 6.317032
54.975 6.357023
54.980 6.329645
54.985 6.787559
54.990 6.796275
54.995 6.951027
55.000 6.743434
55.005 6.531093
55.010 6.555911
55.015 6.93071
55.020 6.961581
55.025 6.740897
55.030 6.96096
55.035 7.202728
55.040 7.128941
55.045 7.081632
55.050 6.685971
55.055 6.510743
55.060 6.719319
55.065 6.449748
55.070 6.584447
55.075 6.274855
55.080 6.334059
55.085 6.624232
55.090 6.33035
55.095 6.134211
55.100 6.272372
55.105 6.203121
55.110 6.30392
55.115 6.301085
55.120 5.89838
55.125 5.868859
55.130 5.766039
55.135 5.818621
55.140 5.472361
55.145 5.64514
55.150 5.776038
55.155 6.577087
55.160 6.932862
55.165 6.857918
55.170 7.026995
55.175 7.438797
55.180 7.209948
55.185 7.061244
55.190 6.917667
55.195 6.917208
55.200 7.298651
55.205 7.215787
55.210 7.473956
55.215 7.772337
55.220 7.765898
55.225 7.470162
55.230 7.386766
55.235 6.791585
55.240 7.031632
55.245 6.921662
55.250 7.000359
55.255 6.723393
55.260 6.757299
55.265 7.038254
55.270 7.398765
55.275 7.497998
55.280 7.472199
55.285 7.319293
55.290 7.480663
55.295 7.232937
55.300 6.940922
55.305 6.62261
55.310 6.697259
55.315 6.555377
55.320 6.709473
55.325 6.753453
55.330 6.827308
55.335 7.187226
55.340 7.314744
55.345 6.9616
55.350 7.408492
55.355 7.582149
55.360 7.998972
55.365 8.449238
55.370 8.081382
55.375 7.897014
55.380 7.92744
55.385 7.735017
55.390 7.42051
55.395 7.556251
55.400 7.272484
55.405 7.622484
55.410 7.911326
55.415 7.755621
55.420 7.487661
55.425 8.024916
55.430 7.584685
55.435 7.562278
55.440 7.621222
55.445 7.472465
55.450 7.744514
55.455 7.817606
55.460 7.557692
55.465 7.703126
55.470 7.974473
55.475 7.87951
55.480 7.649762
55.485 7.422312
55.490 7.22212
55.495 7.513775
55.500 8.127715
55.505 7.837366
55.510 7.759842
55.515 8.328074
55.520 8.589594
55.525 8.71985
55.530 8.00782
55.535 7.29689
55.540 7.07247
55.545 6.911545
55.550 6.332999
55.555 6.465077
55.560 6.993791
55.565 7.395316
55.570 7.841903
55.575 8.274706
55.580 8.664895
55.585 8.807737
55.590 8.438529
55.595 7.754427
55.600 7.791176
55.605 7.227455
55.610 6.878977
55.615 6.649745
55.620 6.776548
55.625 6.952313
55.630 7.154549
55.635 7.341414
55.640 7.950205
55.645 8.029521
55.650 8.349648
55.655 8.185944
55.660 7.910022
55.665 7.524079
55.670 7.162169
55.675 6.820582
55.680 6.958341
55.685 7.107873
55.690 7.076095
55.695 7.061893
55.700 7.500178
55.705 7.698174
55.710 7.632705
55.715 7.425228
55.720 7.666687
55.725 7.775529
55.730 7.900981
55.735 7.551174
55.740 7.304496
55.745 7.406912
55.750 7.450022
55.755 7.021392
55.760 7.197368
55.765 7.260271
55.770 7.593317
55.775 8.111463
55.780 8.101929
55.785 8.305872
55.790 8.644827
55.795 8.277162
55.800 8.380699
55.805 8.108027
55.810 7.982223
55.815 8.235113
55.820 7.469061
55.825 7.291289
55.830 7.549948
55.835 7.526365
55.840 7.777579
55.845 7.467302
55.850 7.816476
55.855 8.055276
55.860 7.791893
55.865 7.655343
55.870 7.335963
55.875 7.302054
55.880 7.287388
55.885 6.911871
55.890 7.30737
55.895 7.842366
55.900 7.999624
55.905 8.200843
55.910 8.051171
55.915 7.792252
55.920 7.264751
55.925 6.696786
55.930 6.421699
55.935 6.423476
55.940 6.498479
55.945 6.927238
55.950 7.680496
55.955 8.528476
55.960 8.800708
55.965 9.108878
55.970 9.159581
55.975 9.103186
55.980 8.946301
55.985 8.645247
55.990 8.17694
55.995 8.192009
56.000 8.620076
56.005 8.461051
56.010 8.41297
56.015 8.266275
56.020 8.296229
56.025 8.864344
56.030 8.569533
56.035 8.472943
56.040 8.794145
56.045 8.957055
56.050 9.015111
56.055 8.856861
56.060 8.69797
56.065 9.116097
56.070 8.860049
56.075 8.516501
56.080 8.386421
56.085 8.387761
56.090 8.373753
56.095 8.389473
56.100 7.797966
56.105 7.75986
56.110 8.310499
56.115 8.54248
56.120 8.413407
56.125 8.48655
56.130 8.603418
56.135 8.860852
56.140 9.193001
56.145 8.730058
56.150 8.708652
56.155 9.008335
56.160 9.01131
56.165 8.704973
56.170 8.572527
56.175 8.385018
56.180 8.067924
56.185 7.822932
56.190 7.861841
56.195 7.546033
56.200 7.555483
56.205 7.896193
56.210 7.614055
56.215 7.613909
56.220 7.57018
56.225 7.305981
56.230 7.732613
56.235 7.483562
56.240 7.171237
56.245 7.609585
56.250 7.276093
56.255 7.243461
56.260 7.048575
56.265 7.113139
56.270 7.424699
56.275 7.770727
56.280 8.342477
56.285 8.819223
56.290 8.944231
56.295 9.184695
56.300 9.26004
56.305 8.791436
56.310 8.252667
56.315 7.757379
56.320 7.846657
56.325 7.596961
56.330 7.302571
56.335 7.296041
56.340 7.399433
56.345 7.558054
56.350 8.020336
56.355 8.251801
56.360 8.418674
56.365 8.411064
56.370 8.623158
56.375 8.524785
56.380 8.538375
56.385 8.013395
56.390 7.803822
56.395 7.773902
56.400 7.608116
56.405 7.226946
56.410 7.149123
56.415 7.190259
56.420 7.181018
56.425 7.13417
56.430 7.37469
56.435 7.393282
56.440 7.494842
56.445 7.129687
56.450 6.785218
56.455 7.006342
56.460 7.389688
56.465 7.417225
56.470 7.528659
56.475 7.760032
56.480 8.026252
56.485 8.147478
56.490 8.482327
56.495 8.86341
56.500 8.565708
56.505 8.211426
56.510 8.481465
56.515 8.686548
56.520 9.009265
56.525 8.659554
56.530 8.098846
56.535 8.506865
56.540 8.673648
56.545 8.747063
56.550 8.935404
56.555 8.862694
56.560 9.105473
56.565 9.329634
56.570 9.44
56.575 9.469086
56.580 9.005198
56.585 8.786756
56.590 8.523027
56.595 8.317644
56.600 8.348797
56.605 8.314165
56.610 8.334267
56.615 8.704155
56.620 8.883682
56.625 9.130838
56.630 8.965073
56.635 8.388303
56.640 8.149818
56.645 8.40765
56.650 8.170384
56.655 8.281383
56.660 8.061968
56.665 8.189401
56.670 8.574185
56.675 8.531863
56.680 8.978917
56.685 8.878071
56.690 8.991101
56.695 9.225272
56.700 9.000907
56.705 9.330464
56.710 9.711128
56.715 9.181611
56.720 9.504721
56.725 9.3939
56.730 9.170095
56.735 9.662599
56.740 9.699004
56.745 9.220614
56.750 9.269563
56.755 9.261473
56.760 9.156862
56.765 9.213721
56.770 8.980044
56.775 8.911191
56.780 9.096713
56.785 9.239805
56.790 9.571065
56.795 9.786277
56.800 9.811738
56.805 9.652557
56.810 9.479524
56.815 9.557119
56.820 8.919998
56.825 8.669437
56.830 8.482905
56.835 8.802978
56.840 8.836314
56.845 8.923499
56.850 9.043842
56.855 9.249489
56.860 8.956208
56.865 8.824608
56.870 8.788151
56.875 9.094457
56.880 8.74203
56.885 8.306821
56.890 8.098261
56.895 8.293748
56.900 7.89522
56.905 7.558977
56.910 7.526133
56.915 7.854279
56.920 7.93542
56.925 8.149859
56.930 8.501657
56.935 9.027171
56.940 9.324024
56.945 9.064496
56.950 8.965981
56.955 9.588324
56.960 9.751983
56.965 9.566362
56.970 9.109264
56.975 9.790598
56.980 10.614409
56.985 10.861704
56.990 10.449774
56.995 10.372613
57.000 10.32875
57.005 10.73402
57.010 9.545684
57.015 9.180015
57.020 8.68688
57.025 8.931817
57.030 8.798742
57.035 8.697783
57.040 8.684296
57.045 8.965032
57.050 9.055589
57.055 9.105475
57.060 9.021385
57.065 9.125075
57.070 9.208657
57.075 9.077092
57.080 9.170448
57.085 8.902407
57.090 8.910552
57.095 8.503613
57.100 8.389916
57.105 8.164976
57.110 8.269082
57.115 8.256714
57.120 8.483037
57.125 8.327106
57.130 8.678988
57.135 8.569641
57.140 8.34902
57.145 7.778914
57.150 7.995358
57.155 8.305209
57.160 8.945509
57.165 9.084131
57.170 9.246742
57.175 9.848419
57.180 10.170403
57.185 9.77335
57.190 9.537906
57.195 9.240394
57.200 8.977926
57.205 9.011086
57.210 8.81299
57.215 8.928143
57.220 8.842619
57.225 8.703817
57.230 8.93808
57.235 9.556113
57.240 9.893624
57.245 9.969271
57.250 9.921091
57.255 10.093776
57.260 10.272431
57.265 10.563897
57.270 10.203697
57.275 10.101089
57.280 10.161619
57.285 9.957215
57.290 9.701053
57.295 9.918027
57.300 9.930374
57.305 10.043074
57.310 10.184464
57.315 10.725201
57.320 10.928176
57.325 10.969845
57.330 10.623379
57.335 10.241472
57.340 10.111493
57.345 9.578411
57.350 8.996622
57.355 8.977129
57.360 9.297494
57.365 9.417355
57.370 8.985652
57.375 8.771147
57.380 8.702953
57.385 8.676297
57.390 8.772344
57.395 9.134486
57.400 8.952971
57.405 9.173063
57.410 9.508848
57.415 9.58908
57.420 9.481083
57.425 9.406668
57.430 8.790258
57.435 8.999171
57.440 9.073499
57.445 9.318303
57.450 9.614425
57.455 9.58034
57.460 9.41567
57.465 9.66623
57.470 9.771966
57.475 9.36481
57.480 9.114422
57.485 9.304529
57.490 9.306849
57.495 9.228918
57.500 9.175283
57.505 9.305475
57.510 9.668112
57.515 9.813149
57.520 9.204402
57.525 9.304037
57.530 9.26862
57.535 9.061932
57.540 9.019502
57.545 8.881998
57.550 8.774885
57.555 9.126122
57.560 9.269461
57.565 9.61142
57.570 9.679196
57.575 9.745467
57.580 9.624541
57.585 9.664326
57.590 9.973538
57.595 9.78995
57.600 9.801737
57.605 9.797635
57.610 9.772164
57.615 9.798211
57.620 9.865141
57.625 9.469365
57.630 9.993823
57.635 9.734844
57.640 9.368346
57.645 9.255124
57.650 9.637219
57.655 10.071587
57.660 10.151569
57.665 9.672641
57.670 9.954037
57.675 10.436288
57.680 10.834991
57.685 10.835381
57.690 10.656198
57.695 11.07165
57.700 11.314058
57.705 11.367229
57.710 11.109564
57.715 10.976459
57.720 10.612051
57.725 10.116442
57.730 9.826739
57.735 9.497574
57.740 9.232358
57.745 9.215703
57.750 9.298824
57.755 9.50088
57.760 9.980917
57.765 10.091563
57.770 10.386509
57.775 10.540972
57.780 10.608568
57.785 10.241027
57.790 10.351009
57.795 10.179804
57.800 10.231072
57.805 10.440107
57.810 10.322368
57.815 10.541971
57.820 10.996383
57.825 11.118998
57.830 11.121044
57.835 10.961112
57.840 10.735414
57.845 10.759696
57.850 10.727025
57.855 10.546161
57.860 10.376863
57.865 10.283565
57.870 10.188972
57.875 10.277101
57.880 10.774148
57.885 10.669991
57.890 10.56393
57.895 10.585988
57.900 11.092924
57.905 11.331714
57.910 10.846944
57.915 10.598711
57.920 10.594096
57.925 10.632536
57.930 10.873931
57.935 10.646305
57.940 10.898448
57.945 11.423531
57.950 11.703361
57.955 11.789687
57.960 11.448966
57.965 11.264465
57.970 10.979569
57.975 10.528583
57.980 10.479255
57.985 9.882162
57.990 9.845724
57.995 10.326751
58.000 10.290886
58.005 10.877939
58.010 11.066449
58.015 11.106086
58.020 11.514812
58.025 11.821319
58.030 11.496835
58.035 11.262683
58.040 11.075954
58.045 11.22449
58.050 11.262076
58.055 11.283161
58.060 10.782272
58.065 10.667417
58.070 10.767609
58.075 10.706963
58.080 10.563666
58.085 10.157532
58.090 9.948959
58.095 10.096295
58.100 10.259115
58.105 10.139298
58.110 9.973536
58.115 10.213769
58.120 10.200944
58.125 10.156537
58.130 9.69269
58.135 10.051802
58.140 10.388282
58.145 11.027653
58.150 10.683597
58.155 10.604349
58.160 11.104094
58.165 11.591979
58.170 11.567932
58.175 11.276477
58.180 10.595812
58.185 10.965806
58.190 11.409739
58.195 11.268844
58.200 11.472415
58.205 11.475207
58.210 11.81937
58.215 12.116694
58.220 12.32641
58.225 12.087188
58.230 12.23225
58.235 12.140014
58.240 11.937798
58.245 11.930984
58.250 11.926683
58.255 11.71295
58.260 12.053452
58.265 12.079276
58.270 12.091839
58.275 12.255789
58.280 12.152555
58.285 12.385327
58.290 12.482333
58.295 12.134275
58.300 11.746951
58.305 12.201468
58.310 12.508799
58.315 12.093858
58.320 11.847688
58.325 12.046952
58.330 11.897754
58.335 11.770542
58.340 11.539022
58.345 11.724721
58.350 12.313017
58.355 12.320697
58.360 12.357141
58.365 13.14891
58.370 13.467168
58.375 14.001685
58.380 13.958245
58.385 13.802116
58.390 14.129132
58.395 14.597706
58.400 14.235912
58.405 14.440656
58.410 14.166414
58.415 14.175509
58.420 14.416142
58.425 14.492007
58.430 14.57958
58.435 14.865101
58.440 14.825149
58.445 14.534533
58.450 14.906242
58.455 15.004462
58.460 15.165852
58.465 15.453344
58.470 16.044912
58.475 16.430836
58.480 16.910583
58.485 17.052999
58.490 17.137667
58.495 17.36381
58.500 17.62816
58.505 18.177061
58.510 18.556261
58.515 18.970089
58.520 19.342169
58.525 19.601845
58.530 19.495407
58.535 19.334616
58.540 18.995838
58.545 18.596992
58.550 18.400629
58.555 19.021557
58.560 19.262489
58.565 19.779997
58.570 20.669502
58.575 21.494352
58.580 21.845819
58.585 22.019321
58.590 22.277529
58.595 22.885414
58.600 22.733326
58.605 22.176439
58.610 21.692539
58.615 21.84379
58.620 21.572832
58.625 21.224848
58.630 20.924925
58.635 20.568058
58.640 20.943588
58.645 21.198473
58.650 22.433165
58.655 23.168003
58.660 24.171202
58.665 24.343376
58.670 25.044516
58.675 25.198614
58.680 25.164202
58.685 24.365971
58.690 23.966787
58.695 24.030083
