!@!!GADDS PLOTSO FILE: Chi integration type
!@!!Title/SampleName: map-10f
!@!!Comment: ?
!@!!User: Bruker Instrument Administrator
!@!!Site: University of Illinois Chicago
!@!!Frame: map-10f_01_000.gfrm
!@!!Wavelengths    1.54184   1.54056   1.54439
!@!!Frame angles: 2Theta: 63.000 Omega: 50.000 Phi: 0.000 Chi: 90.000
!@!!Integration range: 2Theta: 53.000 to 73.000  Gamma: -105.000 to -75.000
!@!!Integration method: bin normalized
!@!N
!@!SS
!@!M
!@!L 0.0 0.0 0.0 0.0
!@!XDegrees
!@!YCounts
53.000 7.531475
53.005 7.562547
53.010 7.630569
53.015 7.577879
53.020 7.329577
53.025 7.474201
53.030 7.683252
53.035 7.629327
53.040 7.628975
53.045 7.787561
53.050 7.808735
53.055 8.180798
53.060 8.895098
53.065 9.200874
53.070 9.064495
53.075 9.301051
53.080 9.354193
53.085 9.398309
53.090 9.026865
53.095 8.358074
53.100 8.667812
53.105 9.053846
53.110 8.832177
53.115 9.050885
53.120 9.008976
53.125 9.137915
53.130 9.175864
53.135 8.784883
53.140 8.438452
53.145 8.589498
53.150 8.753944
53.155 9.539958
53.160 9.410895
53.165 9.366038
53.170 9.567243
53.175 9.888108
53.180 9.951637
53.185 9.492942
53.190 8.790249
53.195 9.294259
53.200 9.028566
53.205 8.831615
53.210 8.712527
53.215 8.474326
53.220 8.492481
53.225 8.986403
53.230 8.723771
53.235 8.914184
53.240 9.158319
53.245 9.114134
53.250 8.964506
53.255 8.544279
53.260 7.933487
53.265 8.044056
53.270 7.777313
53.275 7.341705
53.280 7.188207
53.285 7.429079
53.290 8.03467
53.295 8.09182
53.300 7.99272
53.305 8.155646
53.310 8.464992
53.315 8.699162
53.320 9.159959
53.325 9.299878
53.330 9.417853
53.335 9.553301
53.340 9.612074
53.345 9.431973
53.350 9.336084
53.355 8.593897
53.360 8.254269
53.365 8.385907
53.370 8.405055
53.375 8.545759
53.380 8.601521
53.385 8.571487
53.390 8.648918
53.395 9.006231
53.400 9.414219
53.405 10.03856
53.410 10.352962
53.415 10.138027
53.420 10.095977
53.425 10.019158
53.430 9.183537
53.435 8.351845
53.440 8.151362
53.445 7.94854
53.450 8.257543
53.455 8.473967
53.460 8.656322
53.465 8.964702
53.470 8.970929
53.475 8.583223
53.480 8.226982
53.485 7.675228
53.490 7.77242
53.495 7.999671
53.500 8.331759
53.505 8.238331
53.510 8.811526
53.515 9.103443
53.520 9.405932
53.525 9.186155
53.530 9.135816
53.535 8.893079
53.540 9.006486
53.545 8.834998
53.550 8.877545
53.555 8.75547
53.560 9.317764
53.565 9.475742
53.570 9.400323
53.575 9.243822
53.580 9.128162
53.585 9.380044
53.590 9.155765
53.595 8.358372
53.600 8.086975
53.605 8.424519
53.610 8.290419
53.615 8.342237
53.620 8.6704
53.625 8.813614
53.630 9.114208
53.635 9.204752
53.640 9.733938
53.645 9.926273
53.650 9.633542
53.655 9.265159
53.660 8.917328
53.665 9.130742
53.670 9.171507
53.675 8.88438
53.680 8.669133
53.685 8.562649
53.690 8.813819
53.695 9.314571
53.700 9.560078
53.705 9.642595
53.710 9.775208
53.715 9.892196
53.720 10.096579
53.725 9.854427
53.730 9.594653
53.735 9.204183
53.740 8.818994
53.745 9.179867
53.750 9.376088
53.755 9.496002
53.760 9.651394
53.765 9.444904
53.770 9.597929
53.775 9.387731
53.780 8.932117
53.785 8.524996
53.790 8.290775
53.795 7.978726
53.800 8.229497
53.805 8.402877
53.810 8.682539
53.815 8.572526
53.820 8.620766
53.825 8.77644
53.830 8.801986
53.835 8.467223
53.840 7.877275
53.845 7.81451
53.850 8.111221
53.855 7.945354
53.860 8.28048
53.865 8.236237
53.870 8.394016
53.875 8.604121
53.880 8.672815
53.885 8.641791
53.890 8.824252
53.895 8.672693
53.900 8.711562
53.905 8.826467
53.910 8.90532
53.915 9.246354
53.920 9.401573
53.925 9.42064
53.930 9.839519
53.935 9.760112
53.940 10.014509
53.945 9.939376
53.950 9.749263
53.955 9.413116
53.960 9.521364
53.965 9.332098
53.970 9.091221
53.975 8.601968
53.980 8.499889
53.985 8.696363
53.990 8.834664
53.995 8.772424
54.000 8.912269
54.005 9.378528
54.010 9.697672
54.015 9.866797
54.020 10.487019
54.025 10.629706
54.030 10.227328
54.035 9.747191
54.040 9.594187
54.045 9.383517
54.050 9.030869
54.055 8.381939
54.060 8.103344
54.065 7.980819
54.070 7.997319
54.075 8.076703
54.080 8.165991
54.085 8.102839
54.090 7.742821
54.095 7.602139
54.100 8.037696
54.105 8.220725
54.110 8.370586
54.115 8.600683
54.120 8.630725
54.125 8.976372
54.130 9.638443
54.135 9.872979
54.140 10.000463
54.145 9.297443
54.150 9.088673
54.155 9.310493
54.160 9.330451
54.165 8.953509
54.170 8.608285
54.175 8.595559
54.180 8.850635
54.185 9.261551
54.190 9.181923
54.195 9.288436
54.200 8.894135
54.205 8.896136
54.210 8.9895
54.215 9.014194
54.220 8.792489
54.225 8.819806
54.230 8.923355
54.235 9.512161
54.240 9.610624
54.245 9.404645
54.250 9.410219
54.255 9.653851
54.260 9.813299
54.265 10.184316
54.270 9.736256
54.275 9.72263
54.280 9.996776
54.285 9.746205
54.290 9.499074
54.295 9.281352
54.300 9.002734
54.305 9.148157
54.310 9.087639
54.315 9.21836
54.320 9.511005
54.325 9.685034
54.330 9.854645
54.335 9.690985
54.340 9.716077
54.345 9.891141
54.350 9.791192
54.355 9.418801
54.360 8.807628
54.365 8.574153
54.370 8.374367
54.375 8.257981
54.380 7.917831
54.385 7.924019
54.390 8.418406
54.395 8.657762
54.400 8.813337
54.405 9.101182
54.410 9.146044
54.415 9.715921
54.420 9.661981
54.425 9.798268
54.430 10.002357
54.435 10.271816
54.440 10.043792
54.445 9.455931
54.450 8.931905
54.455 9.007096
54.460 8.755433
54.465 8.62237
54.470 8.208359
54.475 8.487318
54.480 8.883657
54.485 9.235705
54.490 9.182407
54.495 9.432597
54.500 9.57858
54.505 9.658422
54.510 9.591617
54.515 9.43545
54.520 9.117179
54.525 8.841004
54.530 8.574819
54.535 8.235701
54.540 8.214862
54.545 8.35633
54.550 8.539454
54.555 8.874498
54.560 8.959881
54.565 9.410448
54.570 9.714406
54.575 9.944885
54.580 9.966843
54.585 9.91096
54.590 9.745211
54.595 9.618503
54.600 9.535152
54.605 9.584155
54.610 9.532299
54.615 9.382263
54.620 9.401842
54.625 9.611874
54.630 9.569488
54.635 9.532913
54.640 9.576678
54.645 9.822498
54.650 10.124835
54.655 9.608161
54.660 9.391212
54.665 9.158161
54.670 8.791901
54.675 8.390157
54.680 8.280633
54.685 8.562812
54.690 8.791996
54.695 8.907977
54.700 9.246859
54.705 9.357759
54.710 9.440526
54.715 9.883668
54.720 9.917951
54.725 9.930057
54.730 9.926548
54.735 9.665615
54.740 10.06099
54.745 9.491997
54.750 8.845005
54.755 9.008899
54.760 9.260492
54.765 9.281696
54.770 9.725066
54.775 10.165999
54.780 10.565076
54.785 10.725427
54.790 10.566473
54.795 10.538686
54.800 10.733488
54.805 10.314305
54.810 9.694414
54.815 9.37119
54.820 8.92874
54.825 8.795005
54.830 8.618188
54.835 8.416064
54.840 8.683198
54.845 9.336196
54.850 9.851569
54.855 9.685509
54.860 9.475207
54.865 9.528727
54.870 9.735415
54.875 9.461902
54.880 9.494868
54.885 9.609478
54.890 10.026396
54.895 10.269451
54.900 10.311734
54.905 9.984143
54.910 10.074939
54.915 9.817772
54.920 9.719043
54.925 9.399647
54.930 9.673717
54.935 9.349131
54.940 9.440676
54.945 9.154033
54.950 9.138166
54.955 9.057345
54.960 9.411326
54.965 9.303428
54.970 9.397883
54.975 9.484121
54.980 9.730269
54.985 9.872485
54.990 10.208132
54.995 10.307353
55.000 10.634639
55.005 10.640812
55.010 10.742265
55.015 10.141344
55.020 9.57922
55.025 9.142764
55.030 8.94299
55.035 9.054258
55.040 9.097996
55.045 9.158133
55.050 9.609032
55.055 9.98811
55.060 10.100042
55.065 9.837095
55.070 9.741817
55.075 9.71467
55.080 9.400197
55.085 9.25184
55.090 9.077954
55.095 9.076968
55.100 8.980181
55.105 8.921526
55.110 8.766999
55.115 8.855296
55.120 8.819081
55.125 9.121736
55.130 9.421145
55.135 9.389395
55.140 9.702641
55.145 9.988918
55.150 10.135817
55.155 10.395112
55.160 10.290328
55.165 10.464574
55.170 10.485417
55.175 10.257497
55.180 10.392162
55.185 10.252197
55.190 9.891295
55.195 9.451182
55.200 9.263186
55.205 9.334168
55.210 9.298717
55.215 8.943928
55.220 9.069593
55.225 9.353136
55.230 9.507351
55.235 9.102086
55.240 8.866266
55.245 9.042589
55.250 9.088878
55.255 8.873344
55.260 8.410106
55.265 8.375158
55.270 8.553729
55.275 8.882975
55.280 9.09753
55.285 9.505722
55.290 9.73813
55.295 9.78136
55.300 9.710796
55.305 10.027408
55.310 9.817098
55.315 9.60997
55.320 9.212128
55.325 9.154239
55.330 9.202112
55.335 9.257215
55.340 9.124574
55.345 8.938274
55.350 9.01612
55.355 9.334527
55.360 9.653648
55.365 10.086452
55.370 10.08667
55.375 9.630542
55.380 9.638309
55.385 9.702714
55.390 9.61302
55.395 9.290729
55.400 9.380934
55.405 9.981029
55.410 10.542702
55.415 10.328751
55.420 10.345717
55.425 10.563559
55.430 10.974089
55.435 10.54421
55.440 10.162828
55.445 9.930094
55.450 9.759385
55.455 9.563201
55.460 9.307499
55.465 9.592089
55.470 9.733286
55.475 9.884287
55.480 10.204567
55.485 10.477181
55.490 10.520081
55.495 10.762042
55.500 10.695057
55.505 10.76929
55.510 10.81079
55.515 11.081606
55.520 11.040241
55.525 11.05088
55.530 10.769547
55.535 10.694311
55.540 10.418051
55.545 9.998175
55.550 9.957639
55.555 10.138375
55.560 10.379483
55.565 10.822434
55.570 10.79644
55.575 10.909019
55.580 10.819133
55.585 10.379715
55.590 10.093025
55.595 9.816721
55.600 9.779214
55.605 9.910228
55.610 10.186658
55.615 10.432434
55.620 10.209138
55.625 9.878467
55.630 9.62237
55.635 9.016228
55.640 8.859464
55.645 8.913736
55.650 9.438615
55.655 10.096789
55.660 10.727334
55.665 10.936634
55.670 10.791921
55.675 10.66539
55.680 10.588368
55.685 10.102374
55.690 9.707002
55.695 9.176021
55.700 9.661899
55.705 9.900702
55.710 9.927876
55.715 9.699027
55.720 10.107777
55.725 10.519692
55.730 11.075897
55.735 10.851937
55.740 10.940955
55.745 10.689044
55.750 10.744846
55.755 10.444376
55.760 10.12967
55.765 9.536049
55.770 9.07841
55.775 9.03618
55.780 9.132043
55.785 9.121899
55.790 9.409522
55.795 10.080017
55.800 10.40274
55.805 10.627168
55.810 10.608618
55.815 10.683165
55.820 10.687644
55.825 10.345619
55.830 10.431143
55.835 10.471231
55.840 10.346727
55.845 10.70185
55.850 10.407235
55.855 10.284234
55.860 10.260743
55.865 9.723833
55.870 9.734873
55.875 9.933618
55.880 9.946867
55.885 10.093063
55.890 9.967782
55.895 9.931732
55.900 9.771879
55.905 9.983307
55.910 10.396822
55.915 10.640411
55.920 11.191949
55.925 11.439919
55.930 11.688193
55.935 11.787539
55.940 11.812161
55.945 11.762202
55.950 11.454844
55.955 11.06866
55.960 10.739787
55.965 10.59854
55.970 10.880612
55.975 10.466982
55.980 9.747122
55.985 9.501276
55.990 9.82868
55.995 10.292361
56.000 10.22638
56.005 9.965655
56.010 9.822804
56.015 10.012847
56.020 10.097214
56.025 9.56522
56.030 9.155593
56.035 9.117179
56.040 9.656919
56.045 10.114025
56.050 9.996416
56.055 10.269293
56.060 10.664695
56.065 10.96349
56.070 10.708834
56.075 9.996411
56.080 9.779919
56.085 9.580993
56.090 9.38705
56.095 9.157715
56.100 8.892394
56.105 8.863978
56.110 8.855406
56.115 8.855709
56.120 8.522092
56.125 8.40099
56.130 8.433824
56.135 8.729136
56.140 9.232607
56.145 9.660995
56.150 10.194201
56.155 10.949762
56.160 11.742435
56.165 11.859466
56.170 11.50915
56.175 11.457236
56.180 10.643521
56.185 10.013949
56.190 9.815634
56.195 9.285998
56.200 9.616401
56.205 9.960307
56.210 10.142566
56.215 10.792371
56.220 11.126582
56.225 10.840261
56.230 10.916891
56.235 10.555806
56.240 10.334484
56.245 10.129188
56.250 9.964445
56.255 9.680498
56.260 9.712513
56.265 9.85346
56.270 9.582337
56.275 9.595193
56.280 9.82396
56.285 10.379922
56.290 10.58588
56.295 10.158394
56.300 9.947881
56.305 10.297806
56.310 10.355803
56.315 10.129333
56.320 9.677758
56.325 9.939373
56.330 10.380562
56.335 10.319928
56.340 10.252007
56.345 9.934605
56.350 9.772266
56.355 9.8127
56.360 9.969603
56.365 9.781089
56.370 9.781238
56.375 9.747035
56.380 9.65304
56.385 10.210146
56.390 10.174554
56.395 9.935033
56.400 10.108348
56.405 9.946175
56.410 9.729425
56.415 9.643295
56.420 9.425282
56.425 9.678817
56.430 9.97214
56.435 10.250851
56.440 10.907793
56.445 11.346771
56.450 11.304613
56.455 10.972849
56.460 11.02039
56.465 10.269242
56.470 9.798227
56.475 9.635522
56.480 10.10212
56.485 10.19387
56.490 10.838646
56.495 10.959566
56.500 11.640402
56.505 11.706566
56.510 11.318043
56.515 11.019554
56.520 10.807961
56.525 10.558692
56.530 10.793993
56.535 10.619555
56.540 11.153201
56.545 11.206881
56.550 11.193791
56.555 11.396655
56.560 11.083052
56.565 11.112
56.570 11.358626
56.575 11.091184
56.580 11.34347
56.585 11.661539
56.590 11.551008
56.595 11.758082
56.600 11.631585
56.605 11.229451
56.610 11.181339
56.615 11.374466
56.620 11.485621
56.625 11.308466
56.630 10.755692
56.635 10.395524
56.640 10.03334
56.645 10.034211
56.650 9.889484
56.655 9.918894
56.660 10.431184
56.665 11.190234
56.670 11.865196
56.675 12.10702
56.680 11.785439
56.685 11.806591
56.690 11.903438
56.695 11.59208
56.700 11.166471
56.705 10.506063
56.710 10.575012
56.715 11.119047
56.720 10.567993
56.725 10.242867
56.730 10.270197
56.735 10.770813
56.740 11.174149
56.745 11.073748
56.750 10.836974
56.755 10.950321
56.760 10.940217
56.765 10.89454
56.770 10.797169
56.775 10.659175
56.780 10.951913
56.785 11.123559
56.790 11.434433
56.795 11.671987
56.800 11.482555
56.805 11.178498
56.810 11.178607
56.815 10.619705
56.820 10.786593
56.825 10.959193
56.830 10.890804
56.835 11.173841
56.840 10.898264
56.845 10.834548
56.850 10.857819
56.855 10.475894
56.860 9.607888
56.865 9.16623
56.870 9.064264
56.875 9.427416
56.880 9.592827
56.885 9.550397
56.890 9.655598
56.895 9.954123
56.900 10.432476
56.905 10.251492
56.910 9.813886
56.915 9.647498
56.920 9.423162
56.925 9.533966
56.930 9.76466
56.935 9.385446
56.940 9.362798
56.945 9.830194
56.950 10.075799
56.955 10.26324
56.960 9.843409
56.965 9.644946
56.970 9.699771
56.975 9.967773
56.980 9.278831
56.985 9.195864
56.990 9.329926
56.995 10.053279
57.000 10.307106
57.005 10.264684
57.010 10.077185
57.015 10.552744
57.020 10.572453
57.025 10.402869
57.030 9.764714
57.035 9.377293
57.040 9.252422
57.045 9.715981
57.050 9.815206
57.055 10.216703
57.060 10.302732
57.065 10.556455
57.070 10.98113
57.075 11.428936
57.080 11.135022
57.085 10.943484
57.090 10.929777
57.095 10.822304
57.100 10.778573
57.105 11.061223
57.110 11.316766
57.115 11.453127
57.120 11.484302
57.125 11.324947
57.130 11.47299
57.135 11.157138
57.140 10.420167
57.145 9.621486
57.150 9.203645
57.155 9.070709
57.160 9.531132
57.165 9.548796
57.170 9.528994
57.175 9.463052
57.180 10.133221
57.185 10.42434
57.190 10.078642
57.195 9.344172
57.200 9.237617
57.205 9.471096
57.210 9.743884
57.215 9.619505
57.220 9.963056
57.225 10.486044
57.230 10.891508
57.235 10.721456
57.240 10.695098
57.245 10.739358
57.250 10.826911
57.255 10.955152
57.260 10.95897
57.265 11.394837
57.270 12.009447
57.275 11.933064
57.280 11.969922
57.285 11.771886
57.290 11.396136
57.295 11.181392
57.300 10.616295
57.305 10.690469
57.310 10.754895
57.315 10.466561
57.320 10.298451
57.325 10.303441
57.330 10.239203
57.335 10.05131
57.340 10.155385
57.345 10.401223
57.350 10.967012
57.355 10.884189
57.360 11.160732
57.365 11.317006
57.370 11.301469
57.375 10.678566
57.380 11.017084
57.385 11.336931
57.390 11.525794
57.395 11.447877
57.400 11.71732
57.405 11.888523
57.410 12.061381
57.415 11.507775
57.420 10.790504
57.425 11.06655
57.430 11.246942
57.435 11.293722
57.440 11.333283
57.445 11.645636
57.450 11.350681
57.455 11.322325
57.460 10.593031
57.465 10.142842
57.470 9.721833
57.475 9.560273
57.480 9.523879
57.485 9.470649
57.490 9.667452
57.495 9.790381
57.500 9.680591
57.505 9.7189
57.510 9.563941
57.515 9.709055
57.520 10.303183
57.525 10.329638
57.530 10.568292
57.535 10.962132
57.540 11.255596
57.545 11.49835
57.550 11.106918
57.555 11.104575
57.560 11.145353
57.565 10.805746
57.570 11.024142
57.575 10.9238
57.580 10.885948
57.585 10.963376
57.590 11.400955
57.595 11.359972
57.600 11.449009
57.605 11.022055
57.610 10.631909
57.615 10.373507
57.620 10.117292
57.625 9.763439
57.630 10.283708
57.635 10.364292
57.640 10.444141
57.645 10.686564
57.650 10.823921
57.655 11.120941
57.660 11.207856
57.665 11.303335
57.670 11.346543
57.675 11.486531
57.680 11.986436
57.685 12.07751
57.690 11.801085
57.695 12.206878
57.700 11.996886
57.705 11.746272
57.710 11.672243
57.715 11.700185
57.720 11.723683
57.725 11.897616
57.730 11.842518
57.735 12.265538
57.740 12.266626
57.745 11.767351
57.750 11.830493
57.755 11.639735
57.760 11.447948
57.765 11.16227
57.770 10.935283
57.775 11.505076
57.780 11.85216
57.785 11.81376
57.790 12.127716
57.795 11.934712
57.800 11.144829
57.805 10.915145
57.810 10.962506
57.815 10.5116
57.820 10.304566
57.825 9.935514
57.830 10.010154
57.835 10.204569
57.840 10.050013
57.845 9.745688
57.850 9.994127
57.855 10.221305
57.860 10.562451
57.865 10.670873
57.870 10.997359
57.875 10.73626
57.880 10.61948
57.885 10.551155
57.890 10.296531
57.895 10.021118
57.900 9.799348
57.905 9.586151
57.910 9.939438
57.915 10.255589
57.920 10.267357
57.925 10.42252
57.930 10.555366
57.935 10.573348
57.940 10.613759
57.945 10.724298
57.950 10.336179
57.955 9.986533
57.960 9.902903
57.965 10.175367
57.970 10.092679
57.975 10.415755
57.980 10.355516
57.985 10.555881
57.990 10.662918
57.995 10.777661
58.000 10.659885
58.005 10.773819
58.010 10.526152
58.015 10.51386
58.020 11.140666
58.025 11.255392
58.030 11.298276
58.035 11.263841
58.040 11.444328
58.045 11.359437
58.050 11.298944
58.055 11.246323
58.060 11.781668
58.065 11.963913
58.070 12.203468
58.075 12.191133
58.080 12.960154
58.085 13.361979
58.090 12.85963
58.095 12.182603
58.100 12.184245
58.105 11.591866
58.110 11.358311
58.115 10.629075
58.120 10.131379
58.125 10.156897
58.130 10.157877
58.135 10.44224
58.140 10.838123
58.145 10.963808
58.150 10.97584
58.155 11.281511
58.160 11.437403
58.165 11.473184
58.170 11.413713
58.175 11.247334
58.180 10.883487
58.185 11.009353
58.190 10.626427
58.195 10.766631
58.200 10.438276
58.205 10.268024
58.210 10.99145
58.215 11.505853
58.220 11.549037
58.225 11.055375
58.230 11.112344
58.235 11.368392
58.240 11.347167
58.245 11.176114
58.250 10.789227
58.255 11.082818
58.260 11.454473
58.265 11.296882
58.270 11.413236
58.275 11.670538
58.280 11.879271
58.285 12.34882
58.290 11.832665
58.295 12.140838
58.300 12.118256
58.305 11.959723
58.310 11.601349
58.315 11.214018
58.320 11.095528
58.325 10.964696
58.330 11.03467
58.335 11.108366
58.340 10.811036
58.345 10.963964
58.350 10.811676
58.355 10.871095
58.360 11.119546
58.365 10.742932
58.370 10.962873
58.375 11.508513
58.380 11.376149
58.385 11.564815
58.390 11.401997
58.395 11.597803
58.400 11.766606
58.405 11.838606
58.410 11.524321
58.415 11.602951
58.420 11.431274
58.425 11.599525
58.430 11.812556
58.435 12.04791
58.440 11.947245
58.445 12.09689
58.450 12.273298
58.455 12.655575
58.460 12.616132
58.465 12.675789
58.470 12.620149
58.475 12.263667
58.480 12.658198
58.485 13.005937
58.490 12.886631
58.495 12.82653
58.500 12.587588
58.505 12.810854
58.510 13.484356
58.515 13.322308
58.520 13.257492
58.525 13.189054
58.530 13.115506
58.535 13.03535
58.540 12.603603
58.545 12.097822
58.550 11.622677
58.555 11.299698
58.560 11.056705
58.565 11.383096
58.570 11.32324
58.575 11.514318
58.580 11.404106
58.585 11.4812
58.590 11.537164
58.595 11.559595
58.600 11.124007
58.605 11.041102
