!@!!GADDS PLOTSO FILE: Chi integration type
!@!!Title/SampleName: map-64
!@!!Comment: ?
!@!!User: Bruker Instrument Administrator
!@!!Site: University of Illinois Chicago
!@!!Frame: map-64_01_000.gfrm
!@!!Wavelengths    1.54184   1.54056   1.54439
!@!!Frame angles: 2Theta: 63.000 Omega: 50.000 Phi: 0.000 Chi: 90.000
!@!!Integration range: 2Theta: 53.000 to 73.000  Gamma: -105.000 to -75.000
!@!!Integration method: bin normalized
!@!N
!@!SS
!@!M
!@!L 0.0 0.0 0.0 0.0
!@!XDegrees
!@!YCounts
53.000 9.495584
53.005 9.492446
53.010 9.391744
53.015 9.09478
53.020 9.210374
53.025 9.323306
53.030 9.187366
53.035 9.195401
53.040 8.972194
53.045 9.377427
53.050 9.841116
53.055 9.527097
53.060 9.164848
53.065 9.22473
53.070 9.179349
53.075 9.490351
53.080 9.736055
53.085 10.038287
53.090 10.744765
53.095 11.619384
53.100 12.063931
53.105 12.010739
53.110 11.865595
53.115 11.293118
53.120 10.890915
53.125 10.427965
53.130 10.594999
53.135 10.518017
53.140 10.421339
53.145 10.083481
53.150 9.823801
53.155 10.070967
53.160 9.856997
53.165 9.460118
53.170 9.606603
53.175 9.848117
53.180 9.86537
53.185 10.30556
53.190 10.215518
53.195 10.22725
53.200 10.350976
53.205 10.62781
53.210 10.887792
53.215 11.229788
53.220 11.24791
53.225 11.561149
53.230 12.08458
53.235 11.88027
53.240 11.795583
53.245 12.115699
53.250 11.880884
53.255 11.708579
53.260 11.047979
53.265 11.028658
53.270 11.149455
53.275 10.871769
53.280 10.66302
53.285 11.129346
53.290 11.370118
53.295 11.386354
53.300 10.831059
53.305 10.440413
53.310 10.474309
53.315 10.784187
53.320 10.964564
53.325 10.974489
53.330 11.293178
53.335 11.552797
53.340 11.81862
53.345 11.691425
53.350 11.333377
53.355 11.255787
53.360 11.014584
53.365 10.978524
53.370 10.922707
53.375 10.963413
53.380 10.644251
53.385 10.493173
53.390 10.032874
53.395 9.703139
53.400 9.568634
53.405 9.397575
53.410 9.460879
53.415 9.636939
53.420 9.600993
53.425 9.9959
53.430 10.01423
53.435 9.896562
53.440 9.933209
53.445 9.545175
53.450 9.491928
53.455 9.745601
53.460 10.274655
53.465 10.045829
53.470 10.152499
53.475 10.299066
53.480 10.375371
53.485 10.389305
53.490 10.136388
53.495 10.46897
53.500 11.304348
53.505 11.389353
53.510 11.162879
53.515 11.653968
53.520 11.587955
53.525 11.882423
53.530 11.49634
53.535 11.270481
53.540 11.570513
53.545 11.550459
53.550 11.427103
53.555 11.266976
53.560 10.953049
53.565 11.000144
53.570 10.838549
53.575 10.739187
53.580 10.739211
53.585 10.482268
53.590 10.852987
53.595 11.099734
53.600 10.846046
53.605 11.012453
53.610 11.128843
53.615 11.013355
53.620 11.040731
53.625 10.866885
53.630 10.729701
53.635 11.027705
53.640 11.246433
53.645 11.195222
53.650 11.471513
53.655 11.446496
53.660 11.485353
53.665 11.259612
53.670 11.215981
53.675 11.192653
53.680 11.200003
53.685 11.35532
53.690 11.301425
53.695 11.00132
53.700 11.037131
53.705 10.582129
53.710 10.252131
53.715 10.177735
53.720 10.004798
53.725 10.088272
53.730 10.264165
53.735 10.082007
53.740 10.305056
53.745 10.498418
53.750 10.097859
53.755 9.884933
53.760 10.229748
53.765 10.481501
53.770 10.616245
53.775 10.688162
53.780 10.91986
53.785 11.317869
53.790 11.48762
53.795 11.25741
53.800 11.056423
53.805 10.927581
53.810 10.753505
53.815 10.479446
53.820 10.455682
53.825 10.374672
53.830 10.404666
53.835 10.353096
53.840 10.286452
53.845 10.411709
53.850 10.683412
53.855 10.612287
53.860 10.667483
53.865 10.248429
53.870 10.370423
53.875 10.329355
53.880 10.133911
53.885 10.053438
53.890 10.177637
53.895 10.020563
53.900 10.596916
53.905 10.544292
53.910 10.713232
53.915 10.806142
53.920 10.840094
53.925 10.850105
53.930 10.882069
53.935 10.932177
53.940 10.716866
53.945 10.669869
53.950 10.925756
53.955 10.938001
53.960 10.862413
53.965 10.603778
53.970 10.696535
53.975 10.462666
53.980 9.946768
53.985 9.862761
53.990 9.673588
53.995 9.910859
54.000 9.945582
54.005 9.723882
54.010 10.037199
54.015 10.551588
54.020 10.909914
54.025 11.090205
54.030 11.098461
54.035 11.522546
54.040 12.05118
54.045 12.212433
54.050 11.886683
54.055 11.761122
54.060 12.279809
54.065 12.391622
54.070 12.086624
54.075 11.942393
54.080 11.565736
54.085 11.622391
54.090 11.522066
54.095 10.972813
54.100 10.716237
54.105 10.765676
54.110 10.827895
54.115 11.027527
54.120 10.72348
54.125 10.707664
54.130 11.478687
54.135 11.787555
54.140 11.562101
54.145 11.37862
54.150 11.662683
54.155 11.65841
54.160 11.744268
54.165 11.442695
54.170 11.265583
54.175 11.413648
54.180 11.432907
54.185 11.327206
54.190 12.219415
54.195 11.976387
54.200 11.980538
54.205 11.94022
54.210 12.364999
54.215 12.711319
54.220 12.421558
54.225 12.081474
54.230 12.359075
54.235 12.466645
54.240 12.550097
54.245 12.379459
54.250 12.583928
54.255 12.231939
54.260 11.964884
54.265 11.887662
54.270 12.18203
54.275 11.833843
54.280 11.47265
54.285 11.577528
54.290 11.740219
54.295 11.549654
54.300 11.523939
54.305 11.468808
54.310 12.082956
54.315 11.885612
54.320 12.112435
54.325 12.288428
54.330 12.537694
54.335 12.342561
54.340 12.228977
54.345 12.449301
54.350 13.008193
54.355 12.72365
54.360 12.439368
54.365 12.024425
54.370 11.925606
54.375 12.223511
54.380 11.45389
54.385 11.102296
54.390 11.594446
54.395 11.908645
54.400 11.814459
54.405 11.164994
54.410 10.876166
54.415 10.90772
54.420 10.838064
54.425 10.671567
54.430 10.869403
54.435 11.205278
54.440 11.454632
54.445 11.454262
54.450 11.682772
54.455 11.583932
54.460 11.210761
54.465 10.816224
54.470 11.165736
54.475 11.498219
54.480 11.554817
54.485 11.216117
54.490 11.52039
54.495 11.693295
54.500 11.774007
54.505 11.358005
54.510 11.223932
54.515 11.485698
54.520 11.520996
54.525 11.278467
54.530 11.293363
54.535 11.224625
54.540 11.349959
54.545 11.420977
54.550 11.485599
54.555 11.649088
54.560 11.665296
54.565 11.670298
54.570 11.141015
54.575 10.900517
54.580 10.961235
54.585 11.366937
54.590 12.009691
54.595 12.022076
54.600 12.459883
54.605 12.931955
54.610 12.545717
54.615 11.780277
54.620 11.159118
54.625 10.491748
54.630 10.469986
54.635 10.007689
54.640 10.30052
54.645 11.028913
54.650 11.926911
54.655 12.312479
54.660 12.032663
54.665 12.087052
54.670 12.137509
54.675 11.675895
54.680 10.980372
54.685 10.901164
54.690 10.690057
54.695 10.544379
54.700 10.109574
54.705 10.179741
54.710 10.297414
54.715 10.938773
54.720 10.892729
54.725 11.040813
54.730 11.257514
54.735 12.009433
54.740 12.376354
54.745 12.670094
54.750 12.524318
54.755 12.520916
54.760 12.599195
54.765 12.570864
54.770 12.314064
54.775 12.20027
54.780 12.402718
54.785 11.794925
54.790 11.795345
54.795 12.226497
54.800 12.455991
54.805 12.369167
54.810 11.948191
54.815 12.097672
54.820 12.731031
54.825 12.565849
54.830 12.038832
54.835 11.547936
54.840 11.43849
54.845 11.312179
54.850 11.282191
54.855 10.87262
54.860 11.012581
54.865 10.893698
54.870 10.725059
54.875 10.680068
54.880 11.058868
54.885 11.063624
54.890 11.14436
54.895 11.965343
54.900 12.775445
54.905 13.529928
54.910 13.719314
54.915 13.54947
54.920 13.313553
54.925 13.245179
54.930 12.816331
54.935 12.417668
54.940 11.838656
54.945 12.116041
54.950 12.185559
54.955 12.335879
54.960 12.392198
54.965 12.468888
54.970 12.746282
54.975 13.082865
54.980 13.150129
54.985 13.572667
54.990 13.92642
54.995 13.854524
55.000 13.412757
55.005 13.461386
55.010 13.070191
55.015 12.52358
55.020 11.868978
55.025 11.649936
55.030 11.651107
55.035 11.862934
55.040 11.183522
55.045 11.136799
55.050 11.317995
55.055 11.40743
55.060 11.343962
55.065 10.77294
55.070 10.976111
55.075 11.735423
55.080 12.033649
55.085 12.258946
55.090 12.195767
55.095 12.571235
55.100 13.294524
55.105 13.45125
55.110 13.843496
55.115 13.665415
55.120 13.621681
55.125 13.965357
55.130 13.537792
55.135 13.568096
55.140 13.316956
55.145 12.762344
55.150 12.632871
55.155 11.819977
55.160 11.511799
55.165 11.526337
55.170 10.874681
55.175 10.843555
55.180 10.998949
55.185 11.451371
55.190 12.05973
55.195 12.171776
55.200 11.915504
55.205 11.914021
55.210 12.034575
55.215 12.099274
55.220 11.50751
55.225 11.455268
55.230 11.127178
55.235 11.496803
55.240 11.605308
55.245 11.508876
55.250 11.553215
55.255 12.313557
55.260 12.765363
55.265 13.254552
55.270 13.38674
55.275 13.209393
55.280 12.605922
55.285 12.145088
55.290 12.12767
55.295 12.083226
55.300 11.611459
55.305 11.473198
55.310 11.630877
55.315 12.615533
55.320 13.091719
55.325 12.587201
55.330 11.823958
55.335 11.583722
55.340 11.470112
55.345 11.121856
55.350 10.386205
55.355 10.251561
55.360 10.597372
55.365 10.955758
55.370 11.258538
55.375 11.199818
55.380 11.515841
55.385 12.019227
55.390 11.455653
55.395 11.192206
55.400 11.125675
55.405 11.011713
55.410 11.505094
55.415 11.717122
55.420 11.61533
55.425 12.284526
55.430 12.452153
55.435 12.645355
55.440 13.076708
55.445 12.655562
55.450 12.332182
55.455 12.256006
55.460 12.29433
55.465 12.33331
55.470 12.282498
55.475 12.025068
55.480 12.346539
55.485 12.340702
55.490 12.126085
55.495 12.183866
55.500 12.237029
55.505 12.625657
55.510 12.889179
55.515 13.007374
55.520 13.034196
55.525 12.973568
55.530 13.375611
55.535 13.582309
55.540 13.400439
55.545 13.213408
55.550 12.933067
55.555 13.339171
55.560 13.383463
55.565 13.092037
55.570 12.471792
55.575 12.30059
55.580 12.692245
55.585 12.691798
55.590 12.598919
55.595 12.604429
55.600 12.352258
55.605 12.007817
55.610 11.937806
55.615 11.019205
55.620 10.989508
55.625 10.896249
55.630 11.442056
55.635 11.838204
55.640 13.220126
55.645 13.499147
55.650 14.114912
55.655 14.998181
55.660 15.124288
55.665 14.734423
55.670 14.170207
55.675 13.466674
55.680 13.217147
55.685 13.212307
55.690 12.61055
55.695 12.439641
55.700 12.800817
55.705 13.702834
55.710 13.608316
55.715 13.931414
55.720 13.986371
55.725 13.996527
55.730 13.820449
55.735 13.236268
55.740 12.705276
55.745 12.641562
55.750 12.65556
55.755 12.296254
55.760 12.203218
55.765 12.42333
55.770 12.794812
55.775 12.885204
55.780 12.810207
55.785 12.594041
55.790 12.270451
55.795 12.181123
55.800 11.939958
55.805 11.767095
55.810 11.688027
55.815 11.738178
55.820 12.015395
55.825 12.093192
55.830 11.887819
55.835 12.610568
55.840 13.029079
55.845 13.067946
55.850 13.062829
55.855 12.802275
55.860 13.155103
55.865 13.463072
55.870 12.795281
55.875 12.799391
55.880 12.599436
55.885 12.488365
55.890 12.768048
55.895 12.450687
55.900 12.144709
55.905 11.887461
55.910 12.270864
55.915 12.3395
55.920 12.259613
55.925 12.367873
55.930 12.534012
55.935 13.295313
55.940 13.572028
55.945 13.700146
55.950 14.179012
55.955 14.003769
55.960 13.831418
55.965 13.961826
55.970 13.651791
55.975 13.707222
55.980 13.609932
55.985 13.799345
55.990 13.980991
55.995 13.73899
56.000 13.729651
56.005 13.455555
56.010 13.415616
56.015 13.371085
56.020 13.351426
56.025 13.616762
56.030 13.794344
56.035 13.660269
56.040 13.787564
56.045 13.63485
56.050 13.730252
56.055 13.719077
56.060 13.72825
56.065 14.31739
56.070 14.415536
56.075 14.486506
56.080 14.330127
56.085 14.04369
56.090 13.582019
56.095 13.844092
56.100 13.873257
56.105 13.597889
56.110 12.994074
56.115 12.873199
56.120 12.859609
56.125 13.301288
56.130 13.273942
56.135 13.444757
56.140 13.779303
56.145 13.762327
56.150 13.758984
56.155 13.946107
56.160 13.749475
56.165 13.084388
56.170 12.83778
56.175 13.066624
56.180 13.159492
56.185 12.972366
56.190 12.56722
56.195 12.702459
56.200 13.196202
56.205 13.228774
56.210 13.485017
56.215 14.150021
56.220 14.330714
56.225 14.230614
56.230 13.916852
56.235 13.648768
56.240 13.679773
56.245 13.973153
56.250 14.220073
56.255 14.17274
56.260 14.103759
56.265 14.453152
56.270 14.456635
56.275 13.813061
56.280 13.16431
56.285 12.718378
56.290 13.169089
56.295 13.169677
56.300 13.098233
56.305 13.061364
56.310 13.22352
56.315 13.520568
56.320 13.673704
56.325 13.722615
56.330 13.792721
56.335 13.38074
56.340 13.268111
56.345 13.174212
56.350 13.122524
56.355 13.294755
56.360 13.226899
56.365 13.656856
56.370 14.128761
56.375 14.009039
56.380 14.094872
56.385 13.927426
56.390 14.038001
56.395 14.019923
56.400 13.115641
56.405 13.05105
56.410 13.605431
56.415 13.856898
56.420 13.450206
56.425 13.30039
56.430 13.588067
56.435 13.96023
56.440 13.870507
56.445 13.320354
56.450 12.710001
56.455 12.580973
56.460 12.382326
56.465 12.078221
56.470 12.107694
56.475 12.309067
56.480 12.54851
56.485 13.119464
56.490 13.193291
56.495 13.095165
56.500 13.011525
56.505 13.431258
56.510 13.386504
56.515 13.422054
56.520 13.137448
56.525 13.76463
56.530 13.846921
56.535 14.008608
56.540 13.878543
56.545 13.960666
56.550 13.721931
56.555 14.017888
56.560 14.106832
56.565 14.69767
56.570 14.589147
56.575 14.061818
56.580 14.116758
56.585 14.383423
56.590 14.079284
56.595 14.039741
56.600 13.63254
56.605 13.543999
56.610 13.500344
56.615 13.101185
56.620 12.660382
56.625 12.206452
56.630 12.257083
56.635 12.605886
56.640 12.822543
56.645 12.756683
56.650 12.476346
56.655 12.835961
56.660 13.226214
56.665 12.975677
56.670 12.543952
56.675 12.71876
56.680 13.333889
56.685 14.086744
56.690 14.384834
56.695 14.435789
56.700 14.609277
56.705 15.001059
56.710 15.358475
56.715 15.23378
56.720 14.915078
56.725 14.319238
56.730 14.123756
56.735 14.242052
56.740 14.095853
56.745 13.877815
56.750 14.043959
56.755 14.343491
56.760 14.667234
56.765 14.694017
56.770 14.654501
56.775 14.401508
56.780 14.188656
56.785 14.168008
56.790 14.02452
56.795 14.132376
56.800 13.96207
56.805 13.93964
56.810 14.263983
56.815 14.169273
56.820 13.955961
56.825 13.989443
56.830 13.599907
56.835 13.53523
56.840 13.264141
56.845 12.966648
56.850 12.925088
56.855 13.479067
56.860 13.986615
56.865 14.308087
56.870 14.487193
56.875 14.88818
56.880 15.353131
56.885 15.367719
56.890 14.449183
56.895 14.279611
56.900 14.367131
56.905 14.11854
56.910 14.103485
56.915 13.926229
56.920 13.716255
56.925 14.135832
56.930 14.260172
56.935 14.528986
56.940 14.2194
56.945 14.151651
56.950 14.193314
56.955 14.361828
56.960 14.048245
56.965 13.600312
56.970 13.751399
56.975 14.606995
56.980 14.843568
56.985 14.94099
56.990 15.206647
56.995 15.345145
57.000 15.772527
57.005 15.621389
57.010 15.547029
57.015 15.585702
57.020 15.207906
57.025 15.024987
57.030 15.221569
57.035 15.080811
57.040 14.53701
57.045 14.164543
57.050 14.438816
57.055 14.28476
57.060 13.702072
57.065 13.065342
57.070 13.248485
57.075 13.769525
57.080 13.629268
57.085 13.2689
57.090 13.425397
57.095 13.928669
57.100 14.378574
57.105 14.163269
57.110 13.799303
57.115 13.673079
57.120 14.286348
57.125 14.9794
57.130 14.790858
57.135 14.203769
57.140 14.022623
57.145 14.039248
57.150 13.662785
57.155 13.19851
57.160 13.033909
57.165 13.042556
57.170 13.078104
57.175 13.042499
57.180 12.572605
57.185 12.562915
57.190 13.004953
57.195 12.999583
57.200 13.462487
57.205 13.731463
57.210 14.554821
57.215 15.439065
57.220 15.662924
57.225 15.731564
57.230 16.124063
57.235 16.225845
57.240 16.775434
57.245 16.873627
57.250 17.040638
57.255 16.709858
57.260 16.020477
57.265 15.678179
57.270 15.075709
57.275 14.503722
57.280 14.276631
57.285 13.705465
57.290 14.086705
57.295 14.491244
57.300 14.701299
57.305 15.004131
57.310 14.600284
57.315 15.073553
57.320 15.256369
57.325 14.755446
57.330 14.626326
57.335 14.456096
57.340 14.726513
57.345 15.013282
57.350 14.482863
57.355 14.617661
57.360 14.7746
57.365 15.079576
57.370 14.957507
57.375 15.225993
57.380 15.169092
57.385 15.061352
57.390 14.755978
57.395 14.824314
57.400 14.654927
57.405 14.591954
57.410 14.591499
57.415 14.584657
57.420 14.826427
57.425 15.259217
57.430 15.212583
57.435 15.464418
57.440 15.901351
57.445 15.616854
57.450 15.776443
57.455 15.918504
57.460 15.962667
57.465 15.845413
57.470 15.6085
57.475 15.050941
57.480 15.561852
57.485 15.22878
57.490 14.73768
57.495 14.97803
57.500 15.035099
57.505 15.051373
57.510 14.985023
57.515 14.796333
57.520 15.489277
57.525 15.387469
57.530 15.296098
57.535 15.173532
57.540 15.324601
57.545 15.874447
57.550 15.939201
57.555 15.844412
57.560 15.646924
57.565 15.179179
57.570 15.579809
57.575 15.387667
57.580 15.174335
57.585 15.045299
57.590 15.372958
57.595 15.430488
57.600 15.815315
57.605 15.535935
57.610 15.689351
57.615 15.566173
57.620 15.467401
57.625 15.985014
57.630 16.059772
57.635 15.962863
57.640 15.719428
57.645 15.569432
57.650 15.460183
57.655 15.516299
57.660 14.982963
57.665 15.184376
57.670 15.775847
57.675 16.158867
57.680 16.443295
57.685 16.740234
57.690 16.644924
57.695 17.258242
57.700 17.618574
57.705 17.100262
57.710 16.738012
57.715 16.660326
57.720 16.206465
57.725 15.848112
57.730 14.992532
57.735 14.848175
57.740 15.041475
57.745 15.452592
57.750 15.971531
57.755 16.294405
57.760 16.304192
57.765 16.571325
57.770 16.139112
57.775 16.290907
57.780 16.131907
57.785 15.832575
57.790 15.947281
57.795 15.948889
57.800 15.864864
57.805 15.142565
57.810 14.457855
57.815 14.421803
57.820 14.802114
57.825 15.279532
57.830 15.453715
57.835 15.530632
57.840 15.997746
57.845 16.293514
57.850 15.846163
57.855 15.406037
57.860 14.643991
57.865 14.636855
57.870 14.768485
57.875 14.934702
57.880 15.031259
57.885 15.321795
57.890 15.614492
57.895 15.997311
57.900 16.0049
57.905 15.509478
57.910 15.406689
57.915 15.423284
57.920 15.60331
57.925 15.759031
57.930 15.703838
57.935 15.653033
57.940 16.328575
57.945 16.245422
57.950 16.164663
57.955 15.942172
57.960 15.640319
57.965 15.69385
57.970 15.592896
57.975 15.384676
57.980 15.712816
57.985 15.865383
57.990 15.816897
57.995 15.939632
58.000 16.18351
58.005 16.655859
58.010 16.996424
58.015 17.282595
58.020 17.17215
58.025 17.515709
58.030 17.803047
58.035 17.769236
58.040 18.053778
58.045 18.367357
58.050 18.366404
58.055 18.060661
58.060 17.376492
58.065 17.249237
58.070 17.407532
58.075 17.641489
58.080 17.070602
58.085 16.920141
58.090 16.937923
58.095 17.086136
58.100 16.92358
58.105 16.708794
58.110 16.763172
58.115 16.654356
58.120 16.664183
58.125 16.921812
58.130 16.782309
58.135 16.900927
58.140 16.743206
58.145 16.258871
58.150 16.384731
58.155 16.478188
58.160 16.209101
58.165 16.467113
58.170 16.744007
58.175 16.760891
58.180 16.287161
58.185 16.358154
58.190 16.55204
58.195 17.142252
58.200 17.049183
58.205 16.764528
58.210 17.103931
58.215 17.367067
58.220 17.462458
58.225 17.671747
58.230 17.687908
58.235 17.955006
58.240 17.730598
58.245 17.787006
58.250 18.436947
58.255 18.857229
58.260 18.899946
58.265 18.946962
58.270 19.026735
58.275 19.617487
58.280 19.345135
58.285 19.211977
58.290 18.912855
58.295 18.673473
58.300 18.333246
58.305 18.331905
58.310 18.282621
58.315 18.321289
58.320 18.196577
58.325 18.222244
58.330 18.622549
58.335 19.914619
58.340 19.781277
58.345 20.055059
58.350 20.690165
58.355 20.380491
58.360 20.036785
58.365 19.806906
58.370 18.888834
58.375 19.056257
58.380 19.135313
58.385 18.998922
58.390 19.676588
58.395 20.339035
58.400 20.606705
58.405 20.894781
58.410 20.671978
58.415 20.884279
58.420 21.129726
58.425 21.525389
58.430 21.713552
58.435 21.601233
58.440 21.773254
58.445 22.077896
58.450 22.118774
