!@!!GADDS PLOTSO FILE: Chi integration type
!@!!Title/SampleName: map-ea
!@!!Comment: ?
!@!!User: Bruker Instrument Administrator
!@!!Site: University of Illinois Chicago
!@!!Frame: map-ea_01_000.gfrm
!@!!Wavelengths    1.54184   1.54056   1.54439
!@!!Frame angles: 2Theta: 63.000 Omega: 50.000 Phi: 0.000 Chi: 90.000
!@!!Integration range: 2Theta: 53.000 to 73.000  Gamma: -105.000 to -75.000
!@!!Integration method: bin normalized
!@!N
!@!SS
!@!M
!@!L 0.0 0.0 0.0 0.0
!@!XDegrees
!@!YCounts
53.000 5.731936
53.005 5.236515
53.010 4.995905
53.015 4.78702
53.020 4.68977
53.025 5.05138
53.030 5.376664
53.035 5.893524
53.040 6.17729
53.045 6.119755
53.050 6.116652
53.055 6.15189
53.060 5.866601
53.065 5.683642
53.070 5.52325
53.075 5.538914
53.080 5.522498
53.085 5.842838
53.090 6.180466
53.095 6.321644
53.100 6.034007
53.105 5.738091
53.110 5.89679
53.115 5.65295
53.120 5.454085
53.125 5.699143
53.130 5.668448
53.135 5.77136
53.140 5.779889
53.145 5.683679
53.150 5.809418
53.155 5.183362
53.160 4.830105
53.165 5.215765
53.170 5.292971
53.175 5.272443
53.180 5.274646
53.185 5.143624
53.190 5.287915
53.195 5.291218
53.200 4.975837
53.205 4.867975
53.210 4.910486
53.215 5.179811
53.220 5.626784
53.225 5.844176
53.230 5.721014
53.235 5.915419
53.240 6.15498
53.245 6.30958
53.250 6.08853
53.255 6.268474
53.260 6.4111
53.265 6.06399
53.270 5.512493
53.275 5.212085
53.280 5.201203
53.285 5.048479
53.290 4.781962
53.295 4.830412
53.300 5.110878
53.305 5.203723
53.310 5.181038
53.315 4.998485
53.320 5.191931
53.325 5.165515
53.330 5.256042
53.335 5.673211
53.340 6.218833
53.345 6.219265
53.350 6.176687
53.355 6.346438
53.360 6.323442
53.365 6.130406
53.370 5.681826
53.375 5.556978
53.380 6.107753
53.385 6.278522
53.390 6.2414
53.395 6.224274
53.400 6.336377
53.405 6.309229
53.410 6.057614
53.415 5.877924
53.420 5.840989
53.425 6.066599
53.430 6.016694
53.435 5.872677
53.440 5.990794
53.445 5.959969
53.450 5.883255
53.455 5.412403
53.460 5.255573
53.465 5.367755
53.470 5.285287
53.475 5.018602
53.480 4.80581
53.485 4.799506
53.490 5.083188
53.495 4.933091
53.500 5.242144
53.505 5.65731
53.510 5.967832
53.515 5.853808
53.520 6.264086
53.525 6.285482
53.530 6.384964
53.535 6.506733
53.540 6.446726
53.545 6.690564
53.550 7.142915
53.555 6.658362
53.560 6.579946
53.565 6.710593
53.570 6.558789
53.575 6.33369
53.580 6.091362
53.585 5.759383
53.590 5.897619
53.595 5.947533
53.600 5.959544
53.605 5.933781
53.610 5.810017
53.615 5.761971
53.620 5.632508
53.625 5.510027
53.630 5.213622
53.635 4.818595
53.640 4.835073
53.645 5.203489
53.650 5.518014
53.655 5.701498
53.660 5.427099
53.665 5.611964
53.670 5.691429
53.675 5.662316
53.680 5.481719
53.685 5.529692
53.690 5.719033
53.695 6.252781
53.700 6.087177
53.705 6.161196
53.710 6.441751
53.715 6.545635
53.720 6.548288
53.725 6.407708
53.730 6.181859
53.735 6.230085
53.740 5.875066
53.745 5.433192
53.750 4.940353
53.755 4.632529
53.760 4.66335
53.765 4.656318
53.770 5.186976
53.775 5.357845
53.780 5.372832
53.785 5.62763
53.790 5.737822
53.795 5.348399
53.800 5.186092
53.805 5.246743
53.810 5.524411
53.815 5.703558
53.820 5.461614
53.825 5.678987
53.830 5.989431
53.835 5.796873
53.840 5.11953
53.845 4.977907
53.850 5.429542
53.855 5.627164
53.860 5.773733
53.865 5.660629
53.870 5.940184
53.875 6.249004
53.880 6.295133
53.885 6.388488
53.890 6.610278
53.895 6.322799
53.900 6.225823
53.905 6.090866
53.910 5.900712
53.915 5.688869
53.920 5.324358
53.925 5.147083
53.930 5.307508
53.935 5.30762
53.940 5.503203
53.945 5.589069
53.950 5.453744
53.955 5.423733
53.960 6.058202
53.965 6.722462
53.970 6.971419
53.975 6.929983
53.980 6.875646
53.985 7.059193
53.990 6.918612
53.995 6.080225
54.000 5.479871
54.005 5.197071
54.010 5.371499
54.015 5.682163
54.020 5.914137
54.025 6.098058
54.030 5.942993
54.035 5.807491
54.040 5.921268
54.045 5.725661
54.050 5.44172
54.055 5.131175
54.060 5.322751
54.065 5.73417
54.070 5.995521
54.075 6.091879
54.080 6.235158
54.085 6.224993
54.090 6.190128
54.095 5.967177
54.100 5.849567
54.105 5.87556
54.110 5.708549
54.115 5.641773
54.120 5.744084
54.125 5.906628
54.130 6.117469
54.135 6.282243
54.140 6.310921
54.145 6.252292
54.150 6.005021
54.155 5.801426
54.160 6.016548
54.165 6.33566
54.170 6.480724
54.175 6.232653
54.180 6.2946
54.185 6.783579
54.190 7.004563
54.195 6.620535
54.200 6.339478
54.205 6.170687
54.210 6.31586
54.215 6.324047
54.220 6.356519
54.225 6.647574
54.230 6.688392
54.235 6.673191
54.240 6.972847
54.245 6.93344
54.250 7.05135
54.255 6.688958
54.260 6.210284
54.265 6.326624
54.270 6.51245
54.275 6.341187
54.280 6.268188
54.285 6.0906
54.290 6.141497
54.295 6.485684
54.300 6.611866
54.305 6.726563
54.310 6.661454
54.315 6.535571
54.320 6.326958
54.325 6.361599
54.330 6.293145
54.335 6.140003
54.340 5.928365
54.345 5.92835
54.350 6.181501
54.355 6.608497
54.360 6.970398
54.365 6.717495
54.370 6.221574
54.375 6.731913
54.380 7.044855
54.385 6.944088
54.390 7.017842
54.395 6.667897
54.400 6.619554
54.405 6.691008
54.410 5.862083
54.415 5.465806
54.420 5.602074
54.425 5.332792
54.430 5.266332
54.435 5.408318
54.440 5.447726
54.445 5.957138
54.450 6.485722
54.455 6.407245
54.460 6.368431
54.465 6.243518
54.470 6.322168
54.475 6.412779
54.480 6.298763
54.485 6.071542
54.490 6.329402
54.495 6.557008
54.500 6.687159
54.505 6.448509
54.510 6.311509
54.515 6.779364
54.520 6.677835
54.525 6.462899
54.530 6.458503
54.535 6.431746
54.540 6.500294
54.545 6.29441
54.550 5.849764
54.555 6.033726
54.560 5.968336
54.565 6.037687
54.570 6.283731
54.575 6.652568
54.580 6.4705
54.585 6.265944
54.590 5.984619
54.595 5.846109
54.600 5.842632
54.605 5.619158
54.610 5.620105
54.615 6.005023
54.620 5.966797
54.625 6.318312
54.630 6.459452
54.635 6.437462
54.640 6.516767
54.645 6.342014
54.650 6.237785
54.655 6.353529
54.660 6.071717
54.665 6.234936
54.670 6.248879
54.675 6.045676
54.680 5.864486
54.685 5.857928
54.690 5.816706
54.695 5.64223
54.700 5.331128
54.705 5.440636
54.710 5.568303
54.715 5.847078
54.720 5.934424
54.725 6.072486
54.730 6.315958
54.735 6.408609
54.740 6.618334
54.745 6.611137
54.750 6.588501
54.755 6.544189
54.760 6.495399
54.765 6.598166
54.770 6.69566
54.775 6.884367
54.780 6.946772
54.785 6.710472
54.790 6.515152
54.795 6.642141
54.800 6.554752
54.805 6.593445
54.810 6.378231
54.815 6.377495
54.820 6.427448
54.825 6.853426
54.830 6.718895
54.835 6.750824
54.840 6.63286
54.845 6.732523
54.850 6.791869
54.855 6.829509
54.860 6.709895
54.865 6.845584
54.870 6.88658
54.875 6.727156
54.880 6.690495
54.885 6.531927
54.890 6.727967
54.895 7.117173
54.900 7.523136
54.905 7.532042
54.910 7.397547
54.915 7.544944
54.920 7.863806
54.925 7.603668
54.930 7.322793
54.935 6.825611
54.940 6.872876
54.945 7.019927
54.950 7.201045
54.955 6.780488
54.960 6.563853
54.965 6.46517
54.970 6.573227
54.975 6.491674
54.980 6.111377
54.985 6.02493
54.990 6.216836
54.995 6.315147
55.000 6.105066
55.005 6.01283
55.010 6.187563
55.015 6.291019
55.020 6.246343
55.025 6.177227
55.030 6.422335
55.035 6.539852
55.040 6.414082
55.045 6.49301
55.050 6.414682
55.055 6.955377
55.060 6.717676
55.065 6.513068
55.070 6.48341
55.075 6.733405
55.080 6.855311
55.085 6.845444
55.090 6.328725
55.095 6.650583
55.100 6.678362
55.105 6.645444
55.110 6.610766
55.115 6.76433
55.120 6.639256
55.125 6.469095
55.130 6.421315
55.135 6.564742
55.140 6.464024
55.145 6.710505
55.150 6.390297
55.155 6.655871
55.160 7.037387
55.165 7.192307
55.170 7.014454
55.175 7.157219
55.180 6.828853
55.185 6.792813
55.190 6.710784
55.195 6.527141
55.200 6.427927
55.205 6.518064
55.210 6.181356
55.215 6.037014
55.220 6.326226
55.225 6.519879
55.230 6.281199
55.235 6.243208
55.240 6.24865
55.245 6.800108
55.250 6.800002
55.255 6.412275
55.260 6.048513
55.265 6.015195
55.270 5.966752
55.275 6.04543
55.280 5.556099
55.285 5.873
55.290 6.580812
55.295 6.735476
55.300 6.816182
55.305 6.877054
55.310 6.616683
55.315 6.713364
55.320 6.407406
55.325 6.329157
55.330 6.382458
55.335 6.128811
55.340 6.220448
55.345 6.363924
55.350 6.574072
55.355 6.410881
55.360 6.53168
55.365 6.633207
55.370 6.871326
55.375 6.518194
55.380 6.470939
55.385 6.318478
55.390 6.519044
55.395 6.436435
55.400 6.341566
55.405 6.360628
55.410 6.766131
55.415 6.98229
55.420 6.943341
55.425 6.437941
55.430 6.615326
55.435 6.895631
55.440 6.927623
55.445 7.053115
55.450 7.110949
55.455 7.416198
55.460 7.542599
55.465 7.4063
55.470 7.226747
55.475 7.129091
55.480 7.179224
55.485 7.301483
55.490 7.595616
55.495 7.630647
55.500 7.330187
55.505 7.171299
55.510 6.731452
55.515 6.050235
55.520 5.556279
55.525 5.594771
55.530 5.724693
55.535 5.65911
55.540 5.732638
55.545 5.938266
55.550 6.162162
55.555 6.155471
55.560 5.637975
55.565 5.569038
55.570 5.83623
55.575 6.165236
55.580 6.570921
55.585 6.742088
55.590 6.97741
55.595 7.229006
55.600 7.313607
55.605 7.226876
55.610 7.213862
55.615 6.883459
55.620 6.601345
55.625 6.551363
55.630 6.520535
55.635 6.431126
55.640 6.370221
55.645 6.243618
55.650 6.819518
55.655 7.333063
55.660 7.087182
55.665 7.457416
55.670 7.394642
55.675 7.287672
55.680 7.1727
55.685 6.840981
55.690 7.023404
55.695 7.125141
55.700 6.870144
55.705 7.127996
55.710 7.306212
55.715 7.376713
55.720 7.079976
55.725 6.680553
55.730 6.701439
55.735 6.73752
55.740 6.71587
55.745 6.915022
55.750 6.981396
55.755 7.202441
55.760 7.01029
55.765 7.067723
55.770 6.683161
55.775 6.859733
55.780 6.762136
55.785 6.418691
55.790 6.55911
55.795 7.047896
55.800 7.452396
55.805 7.601762
55.810 7.300377
55.815 7.15811
55.820 7.490784
55.825 7.417572
55.830 6.811837
55.835 6.486024
55.840 6.796565
55.845 7.478117
55.850 7.885109
55.855 7.978219
55.860 8.232081
55.865 8.436022
55.870 8.411281
55.875 8.014546
55.880 7.351303
55.885 6.923488
55.890 6.573837
55.895 6.3134
55.900 6.040809
55.905 5.858535
55.910 6.212416
55.915 6.395056
55.920 6.655696
55.925 6.829595
55.930 7.039292
55.935 7.370626
55.940 7.664455
55.945 7.759729
55.950 7.517134
55.955 7.81432
55.960 7.857641
55.965 7.76222
55.970 7.779236
55.975 7.769876
55.980 7.676552
55.985 7.518682
55.990 7.098084
55.995 7.029844
56.000 7.062871
56.005 6.994145
56.010 6.723448
56.015 6.637823
56.020 6.298952
56.025 6.307209
56.030 6.12266
56.035 5.972553
56.040 6.008132
56.045 6.1811
56.050 6.290124
56.055 6.738496
56.060 6.76183
56.065 6.691477
56.070 6.770428
56.075 6.91151
56.080 6.977785
56.085 7.076344
56.090 7.192553
56.095 7.5521
56.100 7.547417
56.105 7.323588
56.110 7.235555
56.115 7.230441
56.120 7.258742
56.125 7.211544
56.130 6.919446
56.135 7.033982
56.140 7.306589
56.145 6.924337
56.150 7.137276
56.155 7.028177
56.160 6.714459
56.165 6.824008
56.170 7.108531
56.175 7.086098
56.180 7.116115
56.185 6.833177
56.190 7.214013
56.195 7.490796
56.200 7.643104
56.205 7.291667
56.210 7.147794
56.215 7.283194
56.220 7.564947
56.225 7.555293
56.230 7.966545
56.235 8.013196
56.240 8.675083
56.245 8.862531
56.250 8.653987
56.255 8.504806
56.260 8.169477
56.265 8.165662
56.270 8.075014
56.275 7.709648
56.280 7.844019
56.285 7.937645
56.290 7.811367
56.295 7.908065
56.300 7.906188
56.305 7.750624
56.310 7.769143
56.315 7.676855
56.320 7.822203
56.325 7.865417
56.330 7.651055
56.335 7.692707
56.340 7.526519
56.345 7.226173
56.350 7.066131
56.355 7.360004
56.360 7.326387
56.365 7.118291
56.370 6.881803
56.375 7.020382
56.380 7.276448
56.385 6.979784
56.390 6.790386
56.395 7.335117
56.400 7.495596
56.405 7.544624
56.410 7.457732
56.415 7.36852
56.420 7.153923
56.425 7.001686
56.430 6.627846
56.435 6.507542
56.440 6.484605
56.445 6.515526
56.450 6.898817
56.455 7.307224
56.460 6.807394
56.465 6.77939
56.470 6.607298
56.475 6.574259
56.480 6.608192
56.485 6.213254
56.490 6.429883
56.495 7.036595
56.500 7.329772
56.505 7.802267
56.510 7.634828
56.515 7.492129
56.520 7.725547
56.525 7.374242
56.530 7.208991
56.535 7.199492
56.540 7.002546
56.545 7.707952
56.550 7.970129
56.555 7.906801
56.560 7.928989
56.565 8.149333
56.570 8.11944
56.575 7.971673
56.580 7.40059
56.585 7.007704
56.590 7.390518
56.595 7.382561
56.600 6.890939
56.605 6.867166
56.610 6.902954
56.615 6.945426
56.620 7.281101
56.625 7.016621
56.630 6.646534
56.635 6.808993
56.640 6.893012
56.645 7.156873
56.650 7.373279
56.655 7.41298
56.660 7.978715
56.665 8.636915
56.670 8.599137
56.675 8.484241
56.680 8.533798
56.685 8.55827
56.690 8.284306
56.695 8.121625
56.700 8.195874
56.705 8.136478
56.710 8.531003
56.715 8.742773
56.720 8.770629
56.725 8.582254
56.730 8.075595
56.735 7.796959
56.740 7.753866
56.745 7.285242
56.750 6.832745
56.755 6.731262
56.760 6.60496
56.765 6.241099
56.770 6.005773
56.775 6.301475
56.780 6.513359
56.785 6.737076
56.790 6.865535
56.795 6.865287
56.800 7.115732
56.805 7.365226
56.810 7.33041
56.815 7.201193
56.820 7.004575
56.825 7.09313
56.830 7.205452
56.835 7.936671
56.840 8.213677
56.845 8.36243
56.850 8.241817
56.855 8.343542
56.860 8.39959
56.865 8.730068
56.870 8.129658
56.875 7.416164
56.880 7.453021
56.885 7.783645
56.890 7.717983
56.895 7.549368
56.900 7.37329
56.905 7.577938
56.910 7.711923
56.915 7.312229
56.920 7.10158
56.925 7.297472
56.930 7.376373
56.935 7.337371
56.940 7.574019
56.945 7.574793
56.950 7.684718
56.955 7.615181
56.960 7.193567
56.965 7.164036
56.970 7.066613
56.975 6.837427
56.980 6.876817
56.985 7.015207
56.990 7.087954
56.995 7.265595
57.000 7.325816
57.005 7.114396
57.010 6.837364
57.015 6.718496
57.020 6.52471
57.025 6.583013
57.030 6.763859
57.035 7.21806
57.040 7.68243
57.045 8.130012
57.050 8.478004
57.055 8.793633
57.060 8.846346
57.065 8.760828
57.070 8.083144
57.075 7.62407
57.080 7.567214
57.085 7.549806
57.090 7.382811
57.095 6.900682
57.100 6.808912
57.105 6.865361
57.110 7.059045
57.115 6.9625
57.120 6.755755
57.125 6.741289
57.130 6.734128
57.135 6.857351
57.140 7.271928
57.145 7.532834
57.150 7.680048
57.155 7.525184
57.160 7.513974
57.165 7.911491
57.170 7.878831
57.175 7.720651
57.180 7.214302
57.185 6.840625
57.190 7.129691
57.195 7.332492
57.200 6.8655
57.205 6.931748
57.210 6.458579
57.215 6.657995
57.220 6.976782
57.225 6.788015
57.230 6.82192
57.235 7.020534
57.240 7.103246
57.245 7.511178
57.250 7.64487
57.255 7.760096
57.260 7.837512
57.265 7.493171
57.270 7.308046
57.275 7.281234
57.280 7.721623
57.285 7.561793
57.290 7.515391
57.295 7.745168
57.300 8.132954
57.305 8.344061
57.310 8.381738
57.315 8.171213
57.320 8.446355
57.325 8.498109
57.330 8.450247
57.335 8.556399
57.340 8.520582
57.345 8.548419
57.350 8.325521
57.355 8.362172
57.360 8.619541
57.365 8.470998
57.370 8.352451
57.375 8.518517
57.380 8.511543
57.385 8.268612
57.390 7.8044
57.395 7.684362
57.400 7.640065
57.405 7.289936
57.410 6.842817
57.415 6.904869
57.420 7.524537
57.425 7.723724
57.430 7.419627
57.435 7.496862
57.440 8.01474
57.445 7.983154
57.450 8.067049
57.455 8.129633
57.460 7.933898
57.465 8.007495
57.470 7.874928
57.475 7.780823
57.480 7.908383
57.485 7.774081
57.490 7.572372
57.495 7.678125
57.500 7.45155
57.505 7.455757
57.510 7.492131
57.515 7.557824
57.520 7.393483
57.525 6.979986
57.530 7.073717
57.535 7.465703
57.540 7.641366
57.545 7.604263
57.550 7.628898
57.555 7.530942
57.560 7.561337
57.565 7.770762
57.570 7.508919
57.575 7.100269
57.580 7.13415
57.585 7.007224
57.590 6.933886
57.595 7.042846
57.600 6.731354
57.605 6.85943
57.610 7.302048
57.615 7.693381
57.620 8.07886
57.625 8.782963
57.630 9.360209
57.635 9.257497
57.640 9.203807
57.645 9.168445
57.650 9.102398
57.655 9.0128
57.660 8.897641
57.665 8.939386
57.670 9.087787
57.675 9.114345
57.680 9.144953
57.685 8.771421
57.690 8.523085
57.695 8.113579
57.700 7.850425
57.705 8.16084
57.710 8.178482
57.715 8.003503
57.720 8.018884
57.725 8.132957
57.730 7.921284
57.735 8.067456
57.740 7.980267
57.745 7.725427
57.750 7.91863
57.755 8.153641
57.760 8.32945
57.765 8.537484
57.770 8.176006
57.775 8.092512
57.780 8.254438
57.785 8.247804
57.790 8.264675
57.795 8.131984
57.800 8.398059
57.805 8.59044
57.810 8.602477
57.815 8.330462
57.820 7.673458
57.825 7.743663
57.830 7.764029
57.835 7.689032
57.840 7.644974
57.845 7.743805
57.850 8.267984
57.855 8.774463
57.860 8.628026
57.865 8.688616
57.870 8.329996
57.875 8.500374
57.880 8.987842
57.885 8.794049
57.890 8.6541
57.895 8.720259
57.900 9.08579
57.905 9.269342
57.910 8.897061
57.915 8.267882
57.920 8.305155
57.925 8.16303
57.930 7.754668
57.935 7.386385
57.940 7.330879
57.945 7.492832
57.950 7.971535
57.955 8.306631
57.960 8.349572
57.965 8.4682
57.970 8.615028
57.975 8.734216
57.980 8.893014
57.985 8.557456
57.990 8.575521
57.995 8.869065
58.000 9.301353
58.005 9.610085
58.010 9.45819
58.015 9.201619
58.020 8.941923
58.025 8.751357
58.030 8.877386
58.035 8.969174
58.040 8.818551
58.045 9.266339
58.050 9.511326
58.055 9.959996
58.060 9.53875
58.065 9.367939
58.070 9.20359
58.075 9.018618
58.080 9.015762
58.085 9.217352
58.090 9.068557
58.095 9.247219
58.100 9.297348
58.105 9.356586
58.110 9.316315
58.115 8.940314
58.120 8.781822
58.125 8.951811
58.130 9.072243
58.135 8.468991
58.140 8.169309
58.145 8.263086
58.150 8.392075
58.155 8.485607
58.160 8.084702
58.165 8.343803
58.170 9.140635
58.175 9.820251
58.180 9.998081
58.185 10.070961
58.190 9.771604
58.195 10.062667
58.200 9.60501
58.205 9.414165
58.210 8.765217
58.215 8.510228
58.220 8.401327
58.225 8.645657
58.230 8.741359
58.235 8.931417
58.240 8.678486
58.245 8.740546
58.250 8.703097
58.255 8.978915
58.260 8.900043
58.265 8.464731
58.270 8.370393
58.275 8.36784
58.280 8.557781
58.285 8.700886
58.290 8.385406
58.295 8.660334
58.300 9.116195
58.305 9.736832
58.310 9.85037
58.315 10.181223
58.320 10.384994
58.325 10.618116
58.330 10.921922
58.335 10.951077
58.340 10.965809
58.345 11.339562
58.350 11.107524
58.355 11.264901
58.360 11.279258
58.365 11.322731
58.370 11.828308
58.375 11.752578
58.380 11.672373
58.385 11.96611
58.390 11.940411
58.395 12.039152
58.400 11.763717
58.405 11.410359
58.410 11.289291
58.415 11.354328
58.420 11.175675
58.425 11.122733
58.430 11.523153
58.435 11.481554
58.440 11.141277
58.445 11.290577
58.450 11.23832
58.455 11.415977
58.460 11.339965
58.465 11.130854
58.470 11.007053
58.475 10.936197
58.480 10.916375
58.485 10.842805
58.490 10.995367
58.495 11.124945
58.500 11.748395
58.505 12.567955
58.510 13.20627
58.515 13.52279
58.520 14.020666
58.525 14.183146
58.530 14.716578
58.535 14.714746
58.540 14.609573
58.545 14.643022
58.550 14.854515
58.555 14.805753
58.560 14.872212
58.565 14.778203
58.570 14.485268
58.575 14.941091
58.580 15.439143
58.585 15.636281
58.590 16.226425
58.595 16.907663
58.600 16.861542
58.605 16.936499
58.610 16.514114
58.615 15.923269
58.620 15.82622
58.625 16.303724
58.630 16.568415
58.635 16.800753
58.640 17.314447
58.645 17.490122
58.650 17.552359
58.655 17.686949
58.660 16.650745
58.665 16.207575
58.670 15.785152
58.675 15.28561
58.680 15.389706
58.685 15.682343
58.690 15.701566
58.695 16.370003
58.700 16.150909
58.705 16.218826
58.710 16.612896
58.715 15.991423
58.720 15.897016
58.725 16.027811
58.730 15.897064
58.735 16.175564
58.740 16.384714
