!@!!GADDS PLOTSO FILE: Chi integration type
!@!!Title/SampleName: map-17b
!@!!Comment: ?
!@!!User: Bruker Instrument Administrator
!@!!Site: University of Illinois Chicago
!@!!Frame: map-17b_01_000.gfrm
!@!!Wavelengths    1.54184   1.54056   1.54439
!@!!Frame angles: 2Theta: 63.000 Omega: 50.000 Phi: 0.000 Chi: 90.000
!@!!Integration range: 2Theta: 53.000 to 73.000  Gamma: -105.000 to -75.000
!@!!Integration method: bin normalized
!@!N
!@!SS
!@!M
!@!L 0.0 0.0 0.0 0.0
!@!XDegrees
!@!YCounts
53.000 8.991464
53.005 9.090243
53.010 8.86985
53.015 8.473018
53.020 8.155776
53.025 7.884044
53.030 7.972699
53.035 7.920475
53.040 7.80458
53.045 7.775639
53.050 7.895323
53.055 7.980637
53.060 7.955656
53.065 7.850852
53.070 7.770768
53.075 7.872247
53.080 8.076686
53.085 8.13025
53.090 8.207843
53.095 8.30124
53.100 8.319233
53.105 8.192962
53.110 8.301237
53.115 8.235168
53.120 7.843451
53.125 7.590616
53.130 7.718906
53.135 7.754818
53.140 7.85137
53.145 7.679576
53.150 7.963202
53.155 8.228739
53.160 8.160589
53.165 8.046519
53.170 8.041758
53.175 7.805387
53.180 7.586427
53.185 7.478661
53.190 7.662216
53.195 7.847074
53.200 7.827881
53.205 7.630551
53.210 7.802724
53.215 7.698556
53.220 7.721343
53.225 7.876825
53.230 7.69497
53.235 8.041018
53.240 8.203303
53.245 8.131629
53.250 8.015126
53.255 7.959861
53.260 7.612937
53.265 7.636472
53.270 7.362391
53.275 7.431347
53.280 7.506785
53.285 8.029151
53.290 7.944561
53.295 7.721852
53.300 8.046155
53.305 7.856185
53.310 7.779057
53.315 7.681669
53.320 7.292668
53.325 7.367709
53.330 7.224406
53.335 7.217684
53.340 7.655971
53.345 7.847869
53.350 8.631258
53.355 8.746453
53.360 8.977347
53.365 9.127707
53.370 8.949564
53.375 8.446515
53.380 8.136965
53.385 7.935679
53.390 8.329889
53.395 8.302394
53.400 8.327146
53.405 8.84803
53.410 9.039256
53.415 9.096027
53.420 8.658392
53.425 8.511703
53.430 8.725405
53.435 8.725225
53.440 8.425798
53.445 8.2372
53.450 7.847946
53.455 7.585515
53.460 7.788628
53.465 7.793727
53.470 7.739469
53.475 8.003625
53.480 8.201188
53.485 8.746873
53.490 9.175047
53.495 8.898764
53.500 9.25724
53.505 8.913401
53.510 8.525383
53.515 8.373762
53.520 7.949577
53.525 8.080497
53.530 8.076745
53.535 8.146532
53.540 8.479438
53.545 8.384414
53.550 8.539608
53.555 8.861349
53.560 8.873205
53.565 8.585498
53.570 8.170412
53.575 8.256819
53.580 8.719437
53.585 8.769759
53.590 8.342062
53.595 8.267009
53.600 8.530162
53.605 8.633109
53.610 8.98515
53.615 8.860376
53.620 8.589872
53.625 9.073478
53.630 9.105374
53.635 9.089123
53.640 8.767123
53.645 8.193516
53.650 8.492279
53.655 8.423974
53.660 7.940291
53.665 7.640728
53.670 7.955822
53.675 7.923621
53.680 7.725395
53.685 7.398734
53.690 7.417982
53.695 7.775958
53.700 7.963314
53.705 7.830738
53.710 8.20179
53.715 8.582667
53.720 8.811856
53.725 9.138103
53.730 8.832833
53.735 8.971693
53.740 8.99008
53.745 8.97942
53.750 8.77806
53.755 8.408278
53.760 8.491412
53.765 8.840664
53.770 8.80578
53.775 8.750208
53.780 8.593282
53.785 8.447059
53.790 8.216187
53.795 7.914149
53.800 7.998372
53.805 7.911956
53.810 7.853425
53.815 8.17844
53.820 8.451262
53.825 8.826697
53.830 8.590132
53.835 8.492301
53.840 8.752212
53.845 9.21899
53.850 9.271868
53.855 9.229932
53.860 9.19437
53.865 9.299607
53.870 9.02789
53.875 9.066315
53.880 8.553233
53.885 8.651834
53.890 9.277422
53.895 9.604317
53.900 9.52104
53.905 9.580931
53.910 9.599762
53.915 9.892062
53.920 9.519359
53.925 8.873796
53.930 8.632193
53.935 8.420237
53.940 8.202838
53.945 7.973269
53.950 7.748488
53.955 8.041434
53.960 8.269975
53.965 8.302732
53.970 8.470842
53.975 8.512791
53.980 8.503316
53.985 8.332664
53.990 7.85022
53.995 7.61732
54.000 7.476291
54.005 7.444432
54.010 7.729602
54.015 7.940084
54.020 7.883724
54.025 7.989203
54.030 7.799897
54.035 8.485868
54.040 8.819488
54.045 8.726658
54.050 8.845643
54.055 9.201011
54.060 9.942126
54.065 10.489799
54.070 10.328737
54.075 10.352894
54.080 10.388766
54.085 10.501919
54.090 10.60606
54.095 9.873199
54.100 9.349681
54.105 9.146129
54.110 9.016307
54.115 8.920155
54.120 8.52073
54.125 8.653156
54.130 9.462692
54.135 9.452832
54.140 9.503981
54.145 9.695368
54.150 9.836735
54.155 9.719893
54.160 9.473592
54.165 9.068256
54.170 9.335299
54.175 9.22087
54.180 9.144165
54.185 9.088653
54.190 9.199388
54.195 9.328109
54.200 9.050698
54.205 8.775394
54.210 8.346432
54.215 7.933805
54.220 7.597806
54.225 7.487793
54.230 7.616776
54.235 8.421203
54.240 8.595998
54.245 8.673683
54.250 9.29993
54.255 9.367821
54.260 9.251307
54.265 8.843013
54.270 8.201631
54.275 8.491217
54.280 8.327842
54.285 7.952135
54.290 8.091444
54.295 8.013251
54.300 8.252486
54.305 8.626134
54.310 8.815995
54.315 9.050954
54.320 9.177299
54.325 9.276048
54.330 9.295287
54.335 9.014781
54.340 8.908517
54.345 9.374543
54.350 9.746716
54.355 10.085419
54.360 10.023537
54.365 10.424098
54.370 10.174174
54.375 9.889879
54.380 9.116502
54.385 8.733562
54.390 8.130442
54.395 8.272766
54.400 8.13171
54.405 8.199721
54.410 8.284324
54.415 8.525762
54.420 8.61107
54.425 9.119672
54.430 8.850993
54.435 9.142274
54.440 9.275561
54.445 9.320059
54.450 9.552457
54.455 9.566047
54.460 9.234246
54.465 9.235525
54.470 8.686749
54.475 8.698488
54.480 8.831615
54.485 8.975295
54.490 9.05738
54.495 9.076432
54.500 9.462049
54.505 10.282965
54.510 10.181737
54.515 9.842438
54.520 9.82568
54.525 9.98868
54.530 9.914891
54.535 9.700243
54.540 8.812221
54.545 9.067193
54.550 9.158328
54.555 9.273404
54.560 9.643091
54.565 9.70378
54.570 10.157442
54.575 10.172456
54.580 9.890738
54.585 9.826653
54.590 9.341417
54.595 8.89003
54.600 8.812444
54.605 8.821086
54.610 9.361742
54.615 9.488102
54.620 9.626164
54.625 9.849806
54.630 9.963837
54.635 9.769572
54.640 9.911282
54.645 10.030029
54.650 9.973987
54.655 9.948058
54.660 10.271723
54.665 10.573759
54.670 10.572407
54.675 10.04725
54.680 9.337898
54.685 9.621943
54.690 9.734067
54.695 9.181563
54.700 8.698324
54.705 8.726247
54.710 9.113696
54.715 9.393855
54.720 8.709716
54.725 8.796689
54.730 9.384574
54.735 9.91923
54.740 10.053075
54.745 10.021635
54.750 10.187724
54.755 10.237471
54.760 10.054059
54.765 9.85003
54.770 9.674327
54.775 9.658709
54.780 9.729964
54.785 9.553022
54.790 9.629546
54.795 9.344323
54.800 8.712468
54.805 8.56803
54.810 8.323746
54.815 8.612279
54.820 9.477956
54.825 9.842565
54.830 10.185572
54.835 10.730764
54.840 10.719368
54.845 10.442592
54.850 10.069931
54.855 9.182283
54.860 8.95875
54.865 9.11216
54.870 8.998499
54.875 9.213254
54.880 9.535568
54.885 9.773044
54.890 9.904142
54.895 9.639261
54.900 9.43602
54.905 9.362328
54.910 9.21457
54.915 9.269542
54.920 9.097297
54.925 9.142142
54.930 9.145373
54.935 9.217686
54.940 9.713778
54.945 9.946198
54.950 10.010647
54.955 10.355755
54.960 10.684618
54.965 10.431071
54.970 10.346145
54.975 9.836992
54.980 9.915739
54.985 9.627463
54.990 9.651397
54.995 9.977763
55.000 10.340786
55.005 10.104517
55.010 10.145804
55.015 10.399729
55.020 11.133463
55.025 11.199852
55.030 11.103846
55.035 11.122281
55.040 11.345331
55.045 11.32673
55.050 10.838316
55.055 9.921627
55.060 9.313498
55.065 8.71147
55.070 8.278477
55.075 8.465426
55.080 8.341683
55.085 8.458962
55.090 8.57189
55.095 8.691656
55.100 9.100657
55.105 9.64428
55.110 9.67583
55.115 9.745289
55.120 9.854969
55.125 9.796606
55.130 9.953547
55.135 9.743999
55.140 9.294733
55.145 9.24645
55.150 9.261525
55.155 9.463029
55.160 9.944617
55.165 10.0002
55.170 10.287383
55.175 10.453198
55.180 10.460995
55.185 10.177114
55.190 9.702003
55.195 8.969447
55.200 9.088319
55.205 9.052984
55.210 9.193207
55.215 9.322619
55.220 9.329618
55.225 9.414931
55.230 9.552894
55.235 9.503157
55.240 9.299514
55.245 9.152637
55.250 9.282273
55.255 9.334153
55.260 9.586753
55.265 9.447354
55.270 9.636458
55.275 9.953392
55.280 9.931604
55.285 9.903234
55.290 10.152244
55.295 9.887788
55.300 10.066612
55.305 9.787276
55.310 9.711962
55.315 9.880612
55.320 9.777609
55.325 9.964068
55.330 10.138061
55.335 10.244917
55.340 10.446402
55.345 10.414645
55.350 9.982922
55.355 9.988962
55.360 9.877484
55.365 9.838666
55.370 9.929991
55.375 9.845733
55.380 9.899191
55.385 10.186005
55.390 9.913893
55.395 9.587677
55.400 9.565066
55.405 9.077025
55.410 8.861904
55.415 8.665175
55.420 9.059999
55.425 9.277839
55.430 9.71057
55.435 10.131272
55.440 10.816749
55.445 10.968564
55.450 10.928802
55.455 10.632912
55.460 10.758997
55.465 10.615834
55.470 10.62982
55.475 10.116116
55.480 10.373987
55.485 10.147373
55.490 10.512952
55.495 10.567412
55.500 10.399921
55.505 10.10366
55.510 10.349921
55.515 10.095431
55.520 10.596928
55.525 10.7258
55.530 11.011213
55.535 11.029766
55.540 11.067695
55.545 10.642698
55.550 11.024364
55.555 10.440606
55.560 9.864355
55.565 9.782866
55.570 9.955964
55.575 10.357623
55.580 10.726295
55.585 10.880755
55.590 11.402884
55.595 11.540206
55.600 11.749861
55.605 11.687142
55.610 11.302152
55.615 11.218768
55.620 11.064337
55.625 10.646847
55.630 10.228039
55.635 9.997355
55.640 10.128898
55.645 10.064249
55.650 10.048853
55.655 10.032693
55.660 10.548777
55.665 10.746397
55.670 10.574684
55.675 10.80871
55.680 11.136971
55.685 11.253574
55.690 11.121454
55.695 10.846122
55.700 10.645832
55.705 10.510592
55.710 9.685966
55.715 9.359342
55.720 8.909777
55.725 8.404027
55.730 8.478895
55.735 8.974771
55.740 9.165238
55.745 9.729887
55.750 10.291763
55.755 10.724032
55.760 11.207464
55.765 11.204387
55.770 11.494143
55.775 11.008319
55.780 10.616186
55.785 10.358901
55.790 10.029852
55.795 9.502182
55.800 9.014232
55.805 8.476287
55.810 8.41092
55.815 8.538868
55.820 8.655306
55.825 8.686838
55.830 9.164229
55.835 9.19013
55.840 9.087137
55.845 9.320647
55.850 9.469339
55.855 9.557733
55.860 10.097977
55.865 10.36378
55.870 10.883385
55.875 11.149342
55.880 11.203478
55.885 10.812221
55.890 10.144177
55.895 10.200267
55.900 10.044332
55.905 10.020053
55.910 9.802216
55.915 9.752208
55.920 9.994816
55.925 10.140897
55.930 9.647933
55.935 9.860029
55.940 9.99453
55.945 10.557081
55.950 10.705159
55.955 10.76666
55.960 10.918872
55.965 10.760953
55.970 10.873433
55.975 10.801378
55.980 10.659866
55.985 10.663972
55.990 10.799072
55.995 10.787197
56.000 10.812631
56.005 10.199334
56.010 9.864407
56.015 9.669915
56.020 9.575423
56.025 9.54814
56.030 9.382542
56.035 9.851519
56.040 10.203181
56.045 10.373454
56.050 10.346726
56.055 10.458694
56.060 10.280659
56.065 10.479278
56.070 10.129345
56.075 10.151614
56.080 9.82094
56.085 9.601637
56.090 9.154379
56.095 9.473284
56.100 9.691441
56.105 9.696901
56.110 9.543175
56.115 9.593081
56.120 9.624572
56.125 9.911114
56.130 9.867222
56.135 9.610332
56.140 9.977795
56.145 10.059026
56.150 9.970122
56.155 10.266853
56.160 10.135069
56.165 9.689607
56.170 9.269917
56.175 8.914362
56.180 9.048863
56.185 9.185363
56.190 9.145002
56.195 9.035606
56.200 9.075304
56.205 9.234293
56.210 9.252548
56.215 9.188863
56.220 9.52303
56.225 9.45762
56.230 9.600118
56.235 9.79738
56.240 9.86325
56.245 10.212386
56.250 10.273522
56.255 9.822659
56.260 9.717227
56.265 9.691545
56.270 9.869304
56.275 9.827028
56.280 9.586576
56.285 9.883263
56.290 10.441943
56.295 10.289962
56.300 10.376901
56.305 10.271873
56.310 10.46646
56.315 10.418563
56.320 10.273171
56.325 10.09223
56.330 10.215432
56.335 10.44154
56.340 10.576226
56.345 10.288631
56.350 10.207022
56.355 9.809402
56.360 9.653227
56.365 9.430451
56.370 9.231615
56.375 9.466882
56.380 9.674031
56.385 9.724942
56.390 9.788732
56.395 9.663793
56.400 10.330363
56.405 10.330955
56.410 9.897665
56.415 9.724435
56.420 10.246903
56.425 10.678967
56.430 11.311836
56.435 10.796661
56.440 10.60315
56.445 10.89412
56.450 11.127876
56.455 11.191561
56.460 10.992666
56.465 10.555861
56.470 10.612597
56.475 10.802374
56.480 11.253843
56.485 11.252923
56.490 10.863692
56.495 10.477425
56.500 10.50193
56.505 10.511313
56.510 10.525312
56.515 10.023846
56.520 10.124076
56.525 10.54108
56.530 10.835541
56.535 11.014816
56.540 11.282711
56.545 11.085165
56.550 10.990296
56.555 10.475977
56.560 9.929978
56.565 10.037266
56.570 10.128755
56.575 10.068511
56.580 10.349299
56.585 10.376665
56.590 11.106703
56.595 11.952243
56.600 12.222747
56.605 12.097368
56.610 12.004938
56.615 11.557703
56.620 11.905331
56.625 11.703215
56.630 11.328273
56.635 11.573948
56.640 11.758463
56.645 11.603774
56.650 11.921478
56.655 12.075418
56.660 12.481037
56.665 12.460505
56.670 12.251997
56.675 12.276855
56.680 12.646582
56.685 12.788825
56.690 12.450799
56.695 12.185205
56.700 12.293736
56.705 12.149852
56.710 12.286411
56.715 12.254527
56.720 12.090931
56.725 11.932378
56.730 11.804316
56.735 11.834632
56.740 12.106285
56.745 11.852905
56.750 11.576671
56.755 11.687454
56.760 12.021428
56.765 11.391423
56.770 11.416363
56.775 11.384176
56.780 11.561873
56.785 11.656497
56.790 11.437925
56.795 11.446812
56.800 11.428885
56.805 11.037824
56.810 11.12979
56.815 10.944139
56.820 10.801341
56.825 10.583817
56.830 10.466283
56.835 10.6939
56.840 10.983697
56.845 11.238735
56.850 11.425065
56.855 11.530608
56.860 11.664263
56.865 11.997085
56.870 12.407415
56.875 12.450383
56.880 12.088412
56.885 11.686554
56.890 11.440486
56.895 11.23173
56.900 11.112214
56.905 10.397489
56.910 9.818686
56.915 9.779498
56.920 10.374282
56.925 11.16309
56.930 11.391113
56.935 11.095124
56.940 11.587397
56.945 11.866246
56.950 11.646029
56.955 11.72062
56.960 11.703961
56.965 11.810929
56.970 12.072072
56.975 12.211814
56.980 12.064014
56.985 11.894159
56.990 11.667648
56.995 11.203241
57.000 11.229522
57.005 11.038445
57.010 10.911627
57.015 11.414221
57.020 12.09503
57.025 11.905261
57.030 11.961484
57.035 11.922102
57.040 11.562308
57.045 11.422489
57.050 11.445069
57.055 11.476865
57.060 11.54493
57.065 11.635407
57.070 11.721562
57.075 12.076116
57.080 12.374648
57.085 12.106894
57.090 11.684403
57.095 11.707202
57.100 11.623349
57.105 11.553775
57.110 11.287415
57.115 10.997296
57.120 10.694422
57.125 10.483541
57.130 10.313333
57.135 10.04144
57.140 10.144603
57.145 10.022
57.150 9.820961
57.155 10.052175
57.160 10.077003
57.165 10.229101
57.170 10.547411
57.175 10.581538
57.180 10.81231
57.185 11.204403
57.190 12.231049
57.195 12.627391
57.200 12.660901
57.205 12.554513
57.210 12.498968
57.215 12.246351
57.220 11.711212
57.225 10.91848
57.230 10.657773
57.235 10.652384
57.240 10.769692
57.245 10.79485
57.250 11.124934
57.255 11.243585
57.260 11.522993
57.265 11.668299
57.270 11.913988
57.275 11.880116
57.280 12.205227
57.285 12.310123
57.290 12.656531
57.295 12.603404
57.300 12.793828
57.305 13.192371
57.310 12.962996
57.315 13.775104
57.320 14.122669
57.325 13.852194
57.330 13.521136
57.335 12.83234
57.340 12.633212
57.345 12.648258
57.350 11.774135
57.355 11.364534
57.360 11.491769
57.365 11.946458
57.370 11.86004
57.375 11.947763
57.380 12.117165
57.385 12.115911
57.390 12.677617
57.395 12.668818
57.400 12.135541
57.405 12.177547
57.410 12.194486
57.415 12.02168
57.420 12.330906
57.425 11.718856
57.430 11.71634
57.435 12.193567
57.440 12.545471
57.445 12.157247
57.450 11.939405
57.455 11.459634
57.460 11.528361
57.465 11.713089
57.470 12.010468
57.475 12.110703
57.480 12.621197
57.485 13.134696
57.490 13.864356
57.495 14.182763
57.500 13.679383
57.505 13.183599
57.510 13.168057
57.515 13.153522
57.520 12.720898
57.525 11.788478
57.530 11.199667
57.535 11.66796
57.540 12.060345
57.545 11.936144
57.550 11.754529
57.555 11.73489
57.560 12.436418
57.565 13.004405
57.570 12.509808
57.575 12.278101
57.580 11.900156
57.585 11.665837
57.590 11.805481
57.595 11.90536
57.600 11.878072
57.605 12.20543
57.610 12.871581
57.615 13.367126
57.620 13.503268
57.625 13.704375
57.630 13.329963
57.635 13.138062
57.640 12.898088
57.645 12.258526
57.650 12.166728
57.655 12.170232
57.660 11.647294
57.665 11.449986
57.670 11.393822
57.675 11.334525
57.680 11.217277
57.685 11.198873
57.690 11.121261
57.695 11.580925
57.700 11.782948
57.705 11.761844
57.710 11.778726
57.715 12.221532
57.720 12.022822
57.725 11.998622
57.730 11.610662
57.735 11.492508
57.740 11.32883
57.745 11.272497
57.750 11.124655
57.755 11.65415
57.760 11.971151
57.765 12.215501
57.770 12.602233
57.775 13.058834
57.780 13.349987
57.785 13.790795
57.790 13.797926
57.795 13.455046
57.800 13.074217
57.805 12.960215
57.810 12.715874
57.815 12.465829
57.820 12.375866
57.825 12.691602
57.830 12.803338
57.835 12.799846
57.840 12.722083
57.845 12.497056
57.850 12.213881
57.855 11.613567
57.860 11.478522
57.865 11.593023
57.870 11.593304
57.875 12.035916
57.880 12.504018
57.885 12.604835
57.890 12.334602
57.895 12.294146
57.900 12.232824
57.905 12.06974
57.910 11.617229
57.915 12.230968
57.920 12.445473
57.925 12.506471
57.930 12.160794
57.935 12.313826
57.940 12.553096
57.945 12.463582
57.950 12.01736
57.955 11.818405
57.960 12.087799
57.965 12.469494
57.970 12.5302
57.975 12.80226
57.980 12.739557
57.985 12.325144
57.990 12.408748
57.995 12.227938
58.000 11.879883
58.005 11.340693
58.010 11.647697
58.015 11.536634
58.020 11.258652
58.025 11.378027
58.030 11.821827
58.035 12.317921
58.040 12.979123
58.045 12.56534
58.050 12.577031
58.055 13.241792
58.060 13.492969
58.065 12.92834
58.070 12.274757
58.075 12.111696
58.080 12.182122
58.085 12.749806
58.090 12.655086
58.095 12.325924
58.100 12.684157
58.105 12.840128
58.110 12.53869
58.115 12.695597
58.120 12.712235
58.125 12.938935
58.130 12.9527
58.135 13.202839
58.140 13.896678
58.145 14.361841
58.150 14.708231
58.155 14.447136
58.160 14.059153
58.165 14.145411
58.170 13.631081
58.175 13.461655
58.180 13.162127
58.185 12.599192
58.190 13.015676
58.195 13.149622
58.200 13.383058
58.205 13.861693
58.210 14.365474
58.215 14.645175
58.220 14.791663
58.225 14.980006
58.230 14.858839
58.235 14.39314
58.240 13.880261
58.245 13.847425
58.250 14.025684
58.255 13.97201
58.260 13.990367
58.265 14.075656
58.270 14.41921
58.275 14.500942
58.280 13.941027
58.285 13.909964
58.290 14.2492
58.295 13.942628
58.300 14.517064
58.305 14.832428
58.310 15.308301
58.315 15.580217
58.320 15.779173
58.325 16.061193
58.330 16.873417
58.335 17.134008
58.340 17.18001
58.345 17.408745
58.350 17.034409
58.355 16.805141
58.360 16.355093
58.365 16.1635
58.370 15.705575
58.375 15.428216
58.380 15.623218
58.385 16.326635
58.390 16.891239
58.395 17.281775
58.400 17.20178
58.405 17.046276
58.410 17.313271
58.415 17.613255
58.420 17.691795
58.425 17.630575
58.430 17.866322
58.435 18.451368
58.440 19.263172
58.445 19.219711
58.450 18.737677
58.455 18.231777
58.460 18.126087
58.465 17.478186
58.470 17.172337
58.475 17.48068
58.480 17.704666
58.485 18.047295
58.490 19.631052
58.495 20.474302
58.500 20.746403
58.505 21.058094
58.510 20.904581
58.515 21.226103
58.520 21.541592
58.525 20.973873
58.530 21.550966
58.535 22.539021
58.540 22.464123
58.545 22.141916
58.550 21.579718
58.555 21.444817
58.560 22.231745
58.565 21.756308
58.570 21.456282
58.575 21.667425
58.580 22.155493
58.585 22.876675
