!@!!GADDS PLOTSO FILE: Chi integration type
!@!!Title/SampleName: map-173
!@!!Comment: ?
!@!!User: Bruker Instrument Administrator
!@!!Site: University of Illinois Chicago
!@!!Frame: map-173_01_000.gfrm
!@!!Wavelengths    1.54184   1.54056   1.54439
!@!!Frame angles: 2Theta: 63.000 Omega: 50.000 Phi: 0.000 Chi: 90.000
!@!!Integration range: 2Theta: 53.000 to 73.000  Gamma: -105.000 to -75.000
!@!!Integration method: bin normalized
!@!N
!@!SS
!@!M
!@!L 0.0 0.0 0.0 0.0
!@!XDegrees
!@!YCounts
53.000 3.621351
53.005 3.59921
53.010 3.924296
53.015 4.06469
53.020 4.259176
53.025 4.497108
53.030 4.817548
53.035 4.807052
53.040 4.659284
53.045 4.111319
53.050 3.863661
53.055 3.912632
53.060 3.990717
53.065 3.602634
53.070 3.34927
53.075 3.279802
53.080 3.378766
53.085 3.339312
53.090 3.168605
53.095 3.678151
53.100 4.167254
53.105 4.644149
53.110 4.698739
53.115 4.827551
53.120 5.021479
53.125 4.964656
53.130 4.518208
53.135 4.547818
53.140 4.681212
53.145 4.821256
53.150 4.998682
53.155 5.054795
53.160 5.079499
53.165 4.816716
53.170 4.453024
53.175 4.131898
53.180 3.958842
53.185 3.731976
53.190 3.570815
53.195 3.400596
53.200 3.426617
53.205 3.460312
53.210 3.418702
53.215 3.145134
53.220 3.007079
53.225 2.991969
53.230 2.983602
53.235 2.932664
53.240 3.172327
53.245 3.533621
53.250 3.476618
53.255 3.478137
53.260 3.373183
53.265 3.288126
53.270 3.245091
53.275 3.080824
53.280 3.35947
53.285 3.895037
53.290 3.948334
53.295 4.548406
53.300 4.816876
53.305 5.05852
53.310 5.034009
53.315 4.737655
53.320 4.833705
53.325 4.725471
53.330 4.242507
53.335 4.044116
53.340 3.638975
53.345 3.540715
53.350 3.586542
53.355 3.593509
53.360 3.533184
53.365 3.582158
53.370 3.723581
53.375 3.718063
53.380 3.662233
53.385 3.596523
53.390 3.518037
53.395 3.674321
53.400 3.708872
53.405 3.787431
53.410 3.882669
53.415 3.70568
53.420 3.741957
53.425 3.967998
53.430 4.271938
53.435 4.241272
53.440 4.188553
53.445 4.572961
53.450 4.446039
53.455 4.245914
53.460 3.798036
53.465 3.418186
53.470 3.413125
53.475 3.492676
53.480 3.395016
53.485 3.421377
53.490 3.135971
53.495 3.349057
53.500 3.486983
53.505 3.523102
53.510 3.42762
53.515 3.440449
53.520 3.568814
53.525 4.057901
53.530 3.903105
53.535 3.74203
53.540 3.542034
53.545 3.332502
53.550 3.277118
53.555 3.379348
53.560 3.122849
53.565 3.082967
53.570 3.217165
53.575 3.429113
53.580 3.403219
53.585 3.440055
53.590 3.284797
53.595 3.558198
53.600 3.521465
53.605 3.23469
53.610 3.358531
53.615 3.365116
53.620 3.517663
53.625 3.756835
53.630 3.959217
53.635 4.331114
53.640 4.321444
53.645 4.046464
53.650 4.174878
53.655 3.855064
53.660 3.454345
53.665 2.919294
53.670 2.831495
53.675 2.940659
53.680 3.079439
53.685 3.016873
53.690 3.311548
53.695 3.373066
53.700 3.507776
53.705 3.260562
53.710 3.242022
53.715 3.338675
53.720 3.415511
53.725 3.642885
53.730 3.685123
53.735 3.976088
53.740 4.127137
53.745 4.033978
53.750 4.021254
53.755 3.953963
53.760 3.998546
53.765 4.105427
53.770 3.978289
53.775 4.297965
53.780 4.20841
53.785 4.001083
53.790 3.765387
53.795 3.610389
53.800 3.466904
53.805 3.388435
53.810 3.464169
53.815 3.623932
53.820 3.550627
53.825 3.726292
53.830 3.807084
53.835 3.928369
53.840 3.935782
53.845 3.647462
53.850 3.479539
53.855 3.603506
53.860 3.568931
53.865 3.660471
53.870 3.5102
53.875 3.472161
53.880 3.4472
53.885 3.552313
53.890 3.458841
53.895 3.617112
53.900 3.701548
53.905 3.7754
53.910 3.651303
53.915 3.684797
53.920 3.544448
53.925 3.500901
53.930 3.384023
53.935 3.420753
53.940 3.433652
53.945 3.502087
53.950 3.546154
53.955 3.524483
53.960 3.332676
53.965 3.162884
53.970 3.062438
53.975 3.107966
53.980 3.416078
53.985 3.777081
53.990 3.646127
53.995 3.877961
54.000 3.879179
54.005 3.961677
54.010 3.966433
54.015 3.645303
54.020 3.635011
54.025 3.835608
54.030 3.759705
54.035 3.371777
54.040 3.492584
54.045 3.235555
54.050 3.31477
54.055 3.210872
54.060 2.996363
54.065 2.818546
54.070 2.905026
54.075 2.946053
54.080 3.032665
54.085 3.138216
54.090 3.370498
54.095 3.392479
54.100 3.696314
54.105 3.928209
54.110 3.749524
54.115 3.689531
54.120 3.516949
54.125 3.41693
54.130 3.649068
54.135 3.387051
54.140 3.316088
54.145 3.448302
54.150 3.56353
54.155 3.665496
54.160 3.49155
54.165 3.773802
54.170 3.848428
54.175 3.954142
54.180 4.227289
54.185 4.15571
54.190 4.069983
54.195 4.037376
54.200 4.146344
54.205 4.099653
54.210 3.936819
54.215 3.750769
54.220 3.911072
54.225 4.058237
54.230 4.201695
54.235 4.149018
54.240 4.18787
54.245 4.298182
54.250 4.269743
54.255 4.205578
54.260 4.064352
54.265 3.822536
54.270 4.04213
54.275 4.093724
54.280 3.974798
54.285 4.325388
54.290 4.357968
54.295 4.407744
54.300 4.315084
54.305 4.070518
54.310 3.888787
54.315 3.820603
54.320 3.543514
54.325 3.527262
54.330 3.558351
54.335 3.787179
54.340 3.853334
54.345 4.199511
54.350 4.098168
54.355 4.0756
54.360 4.006531
54.365 3.958403
54.370 3.457701
54.375 3.392466
54.380 3.540869
54.385 3.838134
54.390 3.802572
54.395 3.529882
54.400 3.554369
54.405 3.833405
54.410 3.405872
54.415 2.801598
54.420 2.41802
54.425 2.734879
54.430 2.901632
54.435 2.796462
54.440 2.584249
54.445 2.85787
54.450 3.242084
54.455 3.287471
54.460 3.127766
54.465 3.253284
54.470 3.61237
54.475 4.009406
54.480 3.724701
54.485 3.632691
54.490 3.727133
54.495 3.749505
54.500 3.698907
54.505 3.755167
54.510 3.578106
54.515 3.923979
54.520 4.090615
54.525 4.223325
54.530 4.375664
54.535 4.415134
54.540 4.178892
54.545 4.096429
54.550 3.889504
54.555 3.718613
54.560 3.46922
54.565 3.499474
54.570 3.664801
54.575 3.925252
54.580 3.986616
54.585 4.07818
54.590 4.22663
54.595 4.06478
54.600 3.844994
54.605 3.684015
54.610 3.917429
54.615 3.899097
54.620 3.830955
54.625 3.776988
54.630 3.845757
54.635 3.81833
54.640 3.668947
54.645 3.342191
54.650 3.257399
54.655 3.264609
54.660 3.293388
54.665 3.489411
54.670 3.693597
54.675 3.411966
54.680 3.410156
54.685 3.432411
54.690 3.698142
54.695 3.778991
54.700 3.739243
54.705 3.842876
54.710 4.111143
54.715 4.351249
54.720 4.49038
54.725 4.522238
54.730 4.509195
54.735 4.314667
54.740 4.189672
54.745 4.074811
54.750 4.12931
54.755 4.270907
54.760 4.196513
54.765 4.193004
54.770 4.092184
54.775 3.889786
54.780 3.81077
54.785 3.680853
54.790 3.539012
54.795 3.468384
54.800 3.743679
54.805 3.958863
54.810 4.278438
54.815 4.551921
54.820 4.254415
54.825 4.426903
54.830 4.265466
54.835 4.21822
54.840 4.084413
54.845 4.205948
54.850 4.098073
54.855 4.067711
54.860 4.139561
54.865 4.07405
54.870 4.106629
54.875 4.258018
54.880 3.909242
54.885 3.675032
54.890 3.716303
54.895 3.911041
54.900 4.008409
54.905 4.193561
54.910 4.149012
54.915 4.830828
54.920 5.215096
54.925 5.211673
54.930 4.859315
54.935 4.60578
54.940 4.277637
54.945 4.438694
54.950 4.244564
54.955 4.400239
54.960 4.497261
54.965 4.718601
54.970 4.659053
54.975 4.401097
54.980 4.069049
54.985 3.576864
54.990 3.397742
54.995 3.331889
55.000 3.210149
55.005 3.243573
55.010 3.505335
55.015 3.755723
55.020 3.814163
55.025 3.685456
55.030 3.495373
55.035 3.582316
55.040 3.56332
55.045 3.330926
55.050 3.161434
55.055 2.920616
55.060 2.651112
55.065 2.789518
55.070 2.701858
55.075 2.828768
55.080 2.972709
55.085 3.066253
55.090 3.344175
55.095 3.615853
55.100 3.83044
55.105 3.926035
55.110 4.082428
55.115 4.668242
55.120 4.901557
55.125 5.063019
55.130 5.110413
55.135 5.013404
55.140 5.090543
55.145 5.003046
55.150 4.35795
55.155 4.405659
55.160 4.432121
55.165 4.325529
55.170 4.327414
55.175 4.049599
55.180 3.756984
55.185 3.820161
55.190 3.596593
55.195 3.695587
55.200 3.812366
55.205 3.917836
55.210 4.095728
55.215 4.330365
55.220 4.42561
55.225 4.305645
55.230 4.173338
55.235 4.220077
55.240 4.129875
55.245 3.921488
55.250 3.823233
55.255 3.720389
55.260 3.620267
55.265 3.413689
55.270 3.400964
55.275 3.5948
55.280 3.636666
55.285 3.833941
55.290 3.87771
55.295 4.320598
55.300 4.439686
55.305 4.41029
55.310 4.283549
55.315 4.147466
55.320 3.934977
55.325 3.985777
55.330 3.652139
55.335 3.34424
55.340 3.108585
55.345 3.001893
55.350 3.047057
55.355 3.202469
55.360 3.489221
55.365 3.786001
55.370 3.933482
55.375 4.188192
55.380 4.786794
55.385 5.203076
55.390 5.048522
55.395 4.762418
55.400 4.70797
55.405 4.691433
55.410 4.51707
55.415 4.417552
55.420 4.378126
55.425 4.292991
55.430 4.062774
55.435 4.269638
55.440 4.344824
55.445 4.272466
55.450 3.910501
55.455 3.811993
55.460 3.986424
55.465 4.431032
55.470 4.402836
55.475 4.554119
55.480 4.59383
55.485 4.650484
55.490 4.640094
55.495 4.595135
55.500 4.310766
55.505 4.142098
55.510 3.87945
55.515 3.668275
55.520 3.647751
55.525 3.675653
55.530 3.659218
55.535 3.900777
55.540 4.409126
55.545 4.950458
55.550 5.285416
55.555 5.123781
55.560 5.289873
55.565 5.454367
55.570 5.088087
55.575 4.763711
55.580 4.71915
55.585 4.689466
55.590 4.842781
55.595 4.62041
55.600 4.277198
55.605 4.360169
55.610 4.099961
55.615 3.919192
55.620 3.908459
55.625 4.046783
55.630 4.182812
55.635 4.513022
55.640 4.770061
55.645 5.073238
55.650 5.256826
55.655 5.105684
55.660 4.828899
55.665 4.682787
55.670 4.445945
55.675 4.290761
55.680 4.020424
55.685 3.803953
55.690 3.789588
55.695 3.771057
55.700 3.486845
55.705 3.180767
55.710 3.221825
55.715 3.479061
55.720 3.49493
55.725 3.633716
55.730 3.792192
55.735 3.974831
55.740 4.442977
55.745 4.444512
55.750 4.151318
55.755 4.017129
55.760 3.89007
55.765 4.002411
55.770 4.085892
55.775 3.949898
55.780 4.218424
55.785 4.384556
55.790 4.353684
55.795 4.178245
55.800 4.207624
55.805 4.571193
55.810 4.267786
55.815 4.138904
55.820 4.260108
55.825 4.402909
55.830 4.703587
55.835 4.567698
55.840 4.170258
55.845 4.260327
55.850 4.343856
55.855 4.330683
55.860 4.293688
55.865 4.061601
55.870 4.061925
55.875 4.112792
55.880 4.361646
55.885 4.410293
55.890 4.453356
55.895 4.400918
55.900 4.534514
55.905 4.340885
55.910 4.321334
55.915 3.886631
55.920 3.826491
55.925 3.773828
55.930 3.940189
55.935 3.857937
55.940 4.032933
55.945 4.128949
55.950 4.596997
55.955 5.106429
55.960 5.148678
55.965 5.104324
55.970 5.167501
55.975 5.068599
55.980 5.094132
55.985 4.613131
55.990 3.902717
55.995 3.706843
56.000 3.80337
56.005 3.759249
56.010 3.811769
56.015 3.898383
56.020 3.742475
56.025 4.073385
56.030 4.047832
56.035 3.937537
56.040 3.876583
56.045 3.821097
56.050 3.648206
56.055 3.626911
56.060 3.570503
56.065 3.73278
56.070 3.712991
56.075 3.825977
56.080 3.442667
56.085 3.47293
56.090 3.640381
56.095 3.570097
56.100 3.517893
56.105 3.716473
56.110 4.224034
56.115 4.561757
56.120 4.540442
56.125 4.400864
56.130 4.525464
56.135 4.45845
56.140 4.180868
56.145 3.848813
56.150 3.973304
56.155 4.264037
56.160 4.521103
56.165 4.602296
56.170 4.738719
56.175 4.647525
56.180 4.723513
56.185 4.961622
56.190 4.651602
56.195 4.623524
56.200 4.497939
56.205 4.451155
56.210 4.433311
56.215 4.406715
56.220 4.383892
56.225 4.577456
56.230 4.729515
56.235 4.778088
56.240 5.21313
56.245 5.033067
56.250 4.598927
56.255 4.687111
56.260 4.634264
56.265 4.500971
56.270 4.305506
56.275 4.165613
56.280 4.493503
56.285 4.802891
56.290 4.486406
56.295 4.339884
56.300 4.363575
56.305 4.297165
56.310 4.249856
56.315 4.184044
56.320 3.910642
56.325 4.22512
56.330 4.397062
56.335 4.408775
56.340 4.558872
56.345 4.499042
56.350 4.512476
56.355 4.344383
56.360 4.097309
56.365 4.379013
56.370 4.321641
56.375 4.405025
56.380 4.434556
56.385 4.286847
56.390 4.469315
56.395 4.654934
56.400 4.628886
56.405 4.643663
56.410 4.307053
56.415 4.199631
56.420 4.038353
56.425 3.935617
56.430 3.564922
56.435 3.341094
56.440 3.590646
56.445 4.016429
56.450 3.994749
56.455 4.324062
56.460 4.353806
56.465 4.339264
56.470 4.260714
56.475 3.881987
56.480 3.911516
56.485 4.087341
56.490 4.619172
56.495 5.068083
56.500 5.098904
56.505 4.931044
56.510 5.076642
56.515 5.016093
56.520 5.135137
56.525 4.785729
56.530 4.671467
56.535 4.840891
56.540 4.950214
56.545 4.97175
56.550 5.079725
56.555 5.131309
56.560 4.866708
56.565 4.846891
56.570 4.969496
56.575 5.234485
56.580 5.461823
56.585 5.335609
56.590 5.16046
56.595 5.373841
56.600 5.247277
56.605 5.031407
56.610 4.872419
56.615 4.716137
56.620 4.925982
56.625 4.722491
56.630 4.62124
56.635 4.692342
56.640 4.682012
56.645 4.72151
56.650 4.559929
56.655 4.652893
56.660 4.754179
56.665 4.492476
56.670 4.368484
56.675 4.403355
56.680 4.623499
56.685 4.685718
56.690 4.695828
56.695 4.909883
56.700 4.799472
56.705 4.786235
56.710 4.881812
56.715 4.684017
56.720 4.381051
56.725 4.321457
56.730 4.257621
56.735 4.337075
56.740 4.225017
56.745 4.019178
56.750 4.132041
56.755 4.536765
56.760 4.522406
56.765 4.295457
56.770 4.512668
56.775 5.027107
56.780 5.47648
56.785 5.615435
56.790 5.686977
56.795 5.974961
56.800 6.189465
56.805 6.131304
56.810 5.85843
56.815 5.838392
56.820 5.55371
56.825 5.234196
56.830 4.989799
56.835 5.090101
56.840 4.993421
56.845 5.089776
56.850 4.703925
56.855 4.568756
56.860 4.538812
56.865 4.653197
56.870 4.74276
56.875 4.962517
56.880 4.954298
56.885 5.169473
56.890 5.148588
56.895 5.231598
56.900 4.932364
56.905 4.58847
56.910 4.173347
56.915 3.736091
56.920 3.602337
56.925 3.738198
56.930 3.893264
56.935 4.138841
56.940 4.310014
56.945 4.521304
56.950 4.661783
56.955 4.748388
56.960 4.704945
56.965 4.564871
56.970 4.499304
56.975 4.357595
56.980 4.230409
56.985 4.235415
56.990 4.420675
56.995 4.367949
57.000 4.534085
57.005 4.53115
57.010 4.582068
57.015 4.676513
57.020 4.664768
57.025 4.367034
57.030 4.407502
57.035 4.227718
57.040 4.070338
57.045 3.909305
57.050 3.992519
57.055 4.298386
57.060 4.267201
57.065 4.033392
57.070 4.092298
57.075 4.193928
57.080 4.299698
57.085 4.010071
57.090 3.761193
57.095 3.898293
57.100 3.902676
57.105 3.892079
57.110 4.004605
57.115 3.985404
57.120 4.14966
57.125 4.296998
57.130 4.520876
57.135 4.638313
57.140 4.536895
57.145 4.684996
57.150 4.922844
57.155 4.88073
57.160 4.932903
57.165 4.824477
57.170 4.8027
57.175 4.860249
57.180 4.90717
57.185 4.671708
57.190 5.093118
57.195 5.237658
57.200 5.400849
57.205 5.732059
57.210 5.944521
57.215 5.892146
57.220 6.185447
57.225 5.857422
57.230 5.862085
57.235 5.868798
57.240 5.940604
57.245 5.786207
57.250 5.529021
57.255 5.178759
57.260 5.033081
57.265 4.851976
57.270 4.329184
57.275 4.12165
57.280 4.227657
57.285 4.525881
57.290 4.849047
57.295 5.215969
57.300 5.322587
57.305 5.64019
57.310 5.231062
57.315 5.046179
57.320 4.676303
57.325 4.235575
57.330 3.866368
57.335 3.820097
57.340 3.928931
57.345 4.299842
57.350 4.779155
57.355 5.081944
57.360 5.205314
57.365 5.406069
57.370 5.917062
57.375 6.165774
57.380 6.251287
57.385 6.22884
57.390 6.218622
57.395 6.209618
57.400 5.883774
57.405 5.625964
57.410 5.419034
57.415 5.195505
57.420 5.151822
57.425 5.284527
57.430 5.373951
57.435 5.587683
57.440 5.455498
57.445 5.413333
57.450 5.503045
57.455 5.468369
57.460 5.701706
57.465 5.883578
57.470 5.751332
57.475 5.668593
57.480 5.931612
57.485 5.872942
57.490 5.503483
57.495 4.945388
57.500 4.942971
57.505 5.023121
57.510 4.723109
57.515 4.349333
57.520 4.198765
57.525 4.42158
57.530 4.562973
57.535 4.210191
57.540 4.424493
57.545 4.757845
57.550 4.976974
57.555 5.271852
57.560 5.530076
57.565 5.897791
57.570 6.210857
57.575 6.213207
57.580 6.141098
57.585 6.103716
57.590 5.84517
57.595 5.548194
57.600 5.371293
57.605 5.52491
57.610 5.716712
57.615 5.589854
57.620 5.564125
57.625 5.64075
57.630 5.547865
57.635 5.39651
57.640 5.114216
57.645 4.654816
57.650 4.683065
57.655 4.788097
57.660 4.940138
57.665 5.312154
57.670 5.096255
57.675 5.117252
57.680 5.306609
57.685 5.413159
57.690 5.528057
57.695 5.783181
57.700 5.640822
57.705 5.879165
57.710 5.974858
57.715 5.922862
57.720 5.780843
57.725 5.466533
57.730 5.038344
57.735 4.818026
57.740 4.602236
57.745 4.703438
57.750 4.918833
57.755 4.874218
57.760 5.253929
57.765 5.282895
57.770 5.284134
57.775 5.266608
57.780 5.050635
57.785 4.986485
57.790 5.06419
57.795 4.789059
57.800 5.118496
57.805 5.356481
57.810 5.519054
57.815 5.842551
57.820 5.798134
57.825 5.847977
57.830 5.731753
57.835 5.195552
57.840 5.113724
57.845 5.020316
57.850 4.823587
57.855 4.915405
57.860 4.896882
57.865 4.921268
57.870 5.275246
57.875 5.310535
57.880 4.925832
57.885 4.789719
57.890 4.536479
57.895 4.663683
57.900 4.726748
57.905 4.775583
57.910 4.601978
57.915 4.686867
57.920 4.709963
57.925 4.906595
57.930 4.931143
57.935 4.701865
57.940 4.406768
57.945 4.46347
57.950 4.41648
57.955 4.092709
57.960 3.96805
57.965 3.794651
57.970 4.176378
57.975 4.390641
57.980 4.526286
57.985 4.734658
57.990 5.23289
57.995 5.351613
58.000 5.462626
58.005 5.429574
58.010 5.317894
58.015 5.290082
58.020 5.3709
58.025 4.668622
58.030 4.525694
58.035 4.445271
58.040 4.610011
58.045 4.757682
58.050 4.932359
58.055 5.311134
58.060 5.613285
58.065 5.816681
58.070 6.153097
58.075 6.370053
58.080 6.475986
58.085 6.388187
58.090 5.96151
58.095 6.093544
58.100 5.64777
58.105 5.657503
58.110 5.245275
58.115 4.749199
58.120 4.722982
58.125 4.816165
58.130 4.918138
58.135 5.126362
58.140 5.02547
58.145 5.488161
58.150 5.893876
58.155 5.761985
58.160 5.648935
58.165 5.493901
58.170 5.475903
58.175 5.165504
58.180 4.794909
58.185 4.730508
58.190 4.937287
58.195 5.215189
58.200 5.347277
58.205 5.267376
58.210 5.26361
58.215 5.200903
58.220 5.23497
58.225 5.08717
58.230 4.996931
58.235 4.723637
58.240 4.811706
58.245 5.269224
58.250 5.230177
58.255 5.138862
58.260 4.92182
58.265 4.678767
58.270 4.777191
58.275 4.743006
58.280 4.581672
58.285 4.61551
58.290 5.075968
58.295 5.175134
58.300 5.41922
58.305 5.714806
58.310 5.830814
58.315 5.620526
58.320 5.679008
58.325 5.568107
58.330 5.866901
58.335 5.802397
58.340 5.473616
58.345 5.295323
58.350 5.227548
58.355 5.182037
58.360 5.155023
58.365 5.217045
58.370 5.397153
58.375 5.706741
58.380 5.92493
58.385 6.064997
58.390 5.997858
58.395 5.619585
58.400 5.358389
58.405 5.458117
58.410 5.007939
58.415 5.00317
58.420 5.356361
58.425 5.539078
58.430 6.108555
58.435 6.044706
58.440 5.811833
58.445 6.360093
58.450 6.369845
58.455 6.050291
58.460 5.940795
58.465 5.769022
58.470 5.715518
58.475 5.570291
58.480 5.620914
58.485 5.974301
58.490 6.4465
58.495 6.756655
58.500 6.948539
58.505 7.42376
58.510 7.856307
58.515 7.70899
58.520 7.239717
58.525 6.902875
58.530 6.692961
58.535 6.683367
58.540 6.495788
58.545 6.191798
58.550 6.112689
58.555 6.380781
58.560 6.832298
58.565 6.817651
58.570 6.65994
58.575 6.728021
58.580 6.93687
58.585 6.955433
58.590 7.016482
58.595 6.792333
58.600 6.538433
58.605 6.813134
58.610 6.597066
58.615 6.425179
58.620 6.662554
58.625 6.668997
58.630 6.818911
58.635 7.166929
58.640 6.92636
58.645 7.358689
58.650 7.363745
58.655 7.701763
58.660 7.695026
58.665 7.638623
58.670 7.27242
58.675 7.319044
58.680 7.666843
58.685 7.564121
58.690 7.18364
58.695 7.4755
58.700 7.638366
58.705 7.792754
58.710 7.576629
58.715 7.136964
58.720 7.196557
58.725 7.402586
58.730 7.224405
58.735 7.137774
58.740 7.426221
58.745 7.304461
58.750 7.388155
58.755 7.324244
58.760 6.905437
