!@!!GADDS PLOTSO FILE: Chi integration type
!@!!Title/SampleName: map-9c
!@!!Comment: ?
!@!!User: Bruker Instrument Administrator
!@!!Site: University of Illinois Chicago
!@!!Frame: map-9c_01_000.gfrm
!@!!Wavelengths    1.54184   1.54056   1.54439
!@!!Frame angles: 2Theta: 63.000 Omega: 50.000 Phi: 0.000 Chi: 90.000
!@!!Integration range: 2Theta: 53.000 to 73.000  Gamma: -105.000 to -75.000
!@!!Integration method: bin normalized
!@!N
!@!SS
!@!M
!@!L 0.0 0.0 0.0 0.0
!@!XDegrees
!@!YCounts
53.000 10.957586
53.005 10.854918
53.010 10.364046
53.015 10.190031
53.020 10.162377
53.025 9.623638
53.030 9.346632
53.035 9.261326
53.040 9.162214
53.045 9.026057
53.050 8.793159
53.055 9.026349
53.060 9.316752
53.065 9.920101
53.070 10.228042
53.075 10.392126
53.080 10.507936
53.085 10.473158
53.090 10.574346
53.095 10.366833
53.100 10.31521
53.105 10.088077
53.110 10.353892
53.115 10.317166
53.120 10.206416
53.125 10.205012
53.130 10.228676
53.135 10.274866
53.140 10.243078
53.145 9.706711
53.150 9.614029
53.155 9.792855
53.160 9.88077
53.165 9.74165
53.170 9.296574
53.175 9.48899
53.180 9.701285
53.185 9.737807
53.190 9.410455
53.195 9.612095
53.200 9.635115
53.205 9.915651
53.210 10.479923
53.215 9.987551
53.220 9.469087
53.225 9.523167
53.230 8.980489
53.235 8.957954
53.240 8.475474
53.245 8.279142
53.250 8.842021
53.255 9.24197
53.260 9.196203
53.265 9.361619
53.270 9.431808
53.275 9.590272
53.280 9.67345
53.285 9.889499
53.290 9.986319
53.295 10.252483
53.300 10.787808
53.305 10.869897
53.310 10.873542
53.315 11.034276
53.320 10.980204
53.325 11.162179
53.330 11.047104
53.335 10.442119
53.340 10.105959
53.345 9.817835
53.350 9.963744
53.355 9.990655
53.360 9.766997
53.365 9.931127
53.370 10.290055
53.375 10.724362
53.380 10.816318
53.385 10.433348
53.390 10.41479
53.395 10.09102
53.400 9.855565
53.405 10.026303
53.410 9.883737
53.415 9.450945
53.420 9.441376
53.425 9.684141
53.430 10.123163
53.435 10.429061
53.440 10.404388
53.445 10.532751
53.450 10.957839
53.455 10.944057
53.460 10.739564
53.465 10.587245
53.470 10.270911
53.475 10.366971
53.480 10.060826
53.485 10.106142
53.490 10.40365
53.495 10.248112
53.500 10.200359
53.505 10.159616
53.510 9.908101
53.515 9.829906
53.520 9.343211
53.525 8.941644
53.530 8.756091
53.535 8.864915
53.540 8.801896
53.545 8.706047
53.550 8.662274
53.555 9.184245
53.560 9.768426
53.565 10.549598
53.570 10.785802
53.575 11.254264
53.580 11.401575
53.585 11.594589
53.590 10.950074
53.595 10.727047
53.600 10.44578
53.605 10.504421
53.610 10.779063
53.615 10.792109
53.620 10.760546
53.625 11.201822
53.630 11.144996
53.635 10.997409
53.640 10.987242
53.645 10.939584
53.650 11.384709
53.655 11.654675
53.660 11.666913
53.665 11.831324
53.670 11.519114
53.675 11.358167
53.680 11.238937
53.685 10.975905
53.690 10.591085
53.695 10.812463
53.700 10.82455
53.705 10.798649
53.710 10.814223
53.715 10.728795
53.720 10.452347
53.725 10.298009
53.730 10.077173
53.735 10.064301
53.740 10.388897
53.745 10.490086
53.750 10.736362
53.755 11.073104
53.760 11.184518
53.765 10.847394
53.770 10.551142
53.775 10.470063
53.780 10.572414
53.785 11.077454
53.790 11.354957
53.795 11.046177
53.800 11.192477
53.805 11.430552
53.810 10.776403
53.815 10.070575
53.820 9.084656
53.825 8.95673
53.830 9.144882
53.835 8.705363
53.840 8.681969
53.845 8.95244
53.850 9.099858
53.855 9.395103
53.860 9.860658
53.865 9.887307
53.870 10.218018
53.875 10.124847
53.880 10.506056
53.885 10.89924
53.890 11.156981
53.895 11.353215
53.900 11.641486
53.905 11.749493
53.910 11.526902
53.915 11.437153
53.920 11.603561
53.925 11.416924
53.930 11.023819
53.935 10.663001
53.940 10.870711
53.945 11.139052
53.950 10.792993
53.955 10.383554
53.960 10.647201
53.965 11.14769
53.970 11.289116
53.975 11.637669
53.980 11.824266
53.985 12.016306
53.990 11.858178
53.995 11.901639
54.000 12.126242
54.005 11.902451
54.010 11.260813
54.015 10.79715
54.020 10.990852
54.025 11.282638
54.030 11.188868
54.035 10.612226
54.040 10.434648
54.045 10.735278
54.050 11.549926
54.055 12.16851
54.060 11.886971
54.065 11.982495
54.070 12.410827
54.075 12.755372
54.080 13.244644
54.085 12.78493
54.090 12.268106
54.095 12.247041
54.100 12.513032
54.105 12.988383
54.110 12.717639
54.115 11.93901
54.120 11.435146
54.125 11.768604
54.130 11.531486
54.135 11.11449
54.140 10.69852
54.145 10.605564
54.150 11.283945
54.155 11.767214
54.160 11.434872
54.165 10.700924
54.170 10.272378
54.175 10.314898
54.180 10.20479
54.185 10.166361
54.190 10.002264
54.195 10.205182
54.200 10.410343
54.205 10.689363
54.210 11.287423
54.215 11.198412
54.220 10.82252
54.225 10.643148
54.230 10.696298
54.235 11.042565
54.240 11.249415
54.245 10.693405
54.250 10.442906
54.255 10.962858
54.260 11.328772
54.265 11.503113
54.270 11.802246
54.275 11.419881
54.280 12.332344
54.285 12.955737
54.290 12.546567
54.295 12.842678
54.300 12.84933
54.305 12.536036
54.310 12.661782
54.315 12.346979
54.320 12.49846
54.325 12.573436
54.330 12.04474
54.335 11.439939
54.340 11.139381
54.345 10.699773
54.350 10.819909
54.355 10.710091
54.360 10.618678
54.365 10.769049
54.370 10.833728
54.375 11.099088
54.380 11.073164
54.385 10.434254
54.390 10.700434
54.395 10.691874
54.400 10.744615
54.405 10.870865
54.410 11.100945
54.415 11.247334
54.420 11.633942
54.425 11.2753
54.430 11.462476
54.435 11.590503
54.440 11.732789
54.445 11.543373
54.450 11.591573
54.455 11.056144
54.460 11.199753
54.465 11.054144
54.470 11.372619
54.475 11.43489
54.480 11.412621
54.485 10.886596
54.490 10.937889
54.495 10.97947
54.500 11.005921
54.505 10.26081
54.510 10.245711
54.515 10.545375
54.520 10.950485
54.525 11.208493
54.530 10.88448
54.535 11.304852
54.540 11.90764
54.545 12.354017
54.550 12.363896
54.555 12.610949
54.560 12.37857
54.565 12.647225
54.570 12.509217
54.575 12.062783
54.580 12.061256
54.585 12.091815
54.590 12.076723
54.595 12.116858
54.600 11.893027
54.605 11.92135
54.610 11.850654
54.615 11.256577
54.620 11.112313
54.625 10.904318
54.630 11.028974
54.635 11.389115
54.640 11.46874
54.645 11.011691
54.650 11.086411
54.655 11.073497
54.660 11.228995
54.665 11.413925
54.670 11.421032
54.675 11.349933
54.680 11.800758
54.685 12.15568
54.690 12.550035
54.695 12.776246
54.700 12.716803
54.705 12.39843
54.710 12.170343
54.715 12.007818
54.720 11.614186
54.725 11.391111
54.730 11.409986
54.735 11.231097
54.740 12.086846
54.745 13.108796
54.750 13.215158
54.755 13.141615
54.760 12.785202
54.765 11.775404
54.770 11.770209
54.775 10.744409
54.780 10.052301
54.785 10.290386
54.790 10.513329
54.795 10.962346
54.800 11.667966
54.805 11.683283
54.810 11.921418
54.815 12.074329
54.820 12.064034
54.825 12.109283
54.830 11.815636
54.835 11.821974
54.840 11.615915
54.845 12.055938
54.850 12.359221
54.855 12.192726
54.860 12.293765
54.865 12.482314
54.870 12.008919
54.875 12.003732
54.880 11.421486
54.885 11.025662
54.890 10.933154
54.895 10.342813
54.900 10.237638
54.905 10.498744
54.910 10.898888
54.915 11.348899
54.920 11.825819
54.925 11.923474
54.930 12.426067
54.935 12.615595
54.940 12.280772
54.945 11.541018
54.950 10.786226
54.955 10.025474
54.960 9.566381
54.965 9.543131
54.970 9.987992
54.975 10.531573
54.980 11.594915
54.985 12.490967
54.990 13.258897
54.995 13.572901
55.000 13.402849
55.005 12.914334
55.010 12.415812
55.015 12.140098
55.020 12.226615
55.025 12.384411
55.030 12.416642
55.035 12.689262
55.040 12.830894
55.045 12.943605
55.050 12.62754
55.055 12.426441
55.060 12.089697
55.065 11.839763
55.070 11.649663
55.075 11.719285
55.080 11.821003
55.085 11.830772
55.090 11.734798
55.095 12.204944
55.100 12.703086
55.105 12.717557
55.110 13.082541
55.115 13.093649
55.120 13.315108
55.125 12.79112
55.130 12.127498
55.135 11.625863
55.140 11.972631
55.145 11.678577
55.150 11.32692
55.155 11.57861
55.160 12.204673
55.165 12.690508
55.170 13.100053
55.175 12.831635
55.180 12.948927
55.185 13.105934
55.190 12.814247
55.195 12.862995
55.200 12.770825
55.205 12.432886
55.210 12.463617
55.215 12.500852
55.220 12.29812
55.225 11.877973
55.230 11.87158
55.235 11.669231
55.240 11.486583
55.245 11.035327
55.250 10.715449
55.255 11.29425
55.260 11.416287
55.265 11.470687
55.270 11.48247
55.275 11.800596
55.280 12.013283
55.285 12.109287
55.290 11.813719
55.295 12.164794
55.300 11.789896
55.305 11.973091
55.310 11.952583
55.315 12.160574
55.320 12.218496
55.325 12.056385
55.330 11.706342
55.335 11.809786
55.340 11.601169
55.345 11.436183
55.350 11.500554
55.355 11.695313
55.360 11.895779
55.365 12.574642
55.370 12.958016
55.375 13.50893
55.380 13.427297
55.385 13.360376
55.390 12.905776
55.395 12.436081
55.400 11.792119
55.405 11.445183
55.410 11.297168
55.415 11.044609
55.420 11.309361
55.425 12.243992
55.430 12.647478
55.435 12.949479
55.440 13.302561
55.445 12.732531
55.450 12.421754
55.455 12.103293
55.460 11.580353
55.465 11.546827
55.470 11.534234
55.475 11.791978
55.480 12.796017
55.485 13.604877
55.490 13.597116
55.495 13.363696
55.500 13.306106
55.505 13.052943
55.510 12.660587
55.515 12.299317
55.520 12.203398
55.525 12.241701
55.530 12.0984
55.535 11.914262
55.540 11.80605
55.545 11.676178
55.550 11.309766
55.555 11.281787
55.560 11.140185
55.565 11.175556
55.570 11.348701
55.575 11.685054
55.580 11.828243
55.585 12.331274
55.590 12.702279
55.595 13.182194
55.600 13.592092
55.605 13.483303
55.610 13.380229
55.615 13.247253
55.620 12.640607
55.625 12.632614
55.630 12.54285
55.635 12.330734
55.640 12.135873
55.645 12.193681
55.650 12.402645
55.655 12.238223
55.660 11.807971
55.665 11.919427
55.670 11.78213
55.675 12.094702
55.680 12.222306
55.685 12.461453
55.690 12.848159
55.695 12.811851
55.700 12.478687
55.705 12.927433
55.710 12.581538
55.715 12.364357
55.720 12.750245
55.725 12.961243
55.730 13.052622
55.735 13.640162
55.740 13.616878
55.745 14.106981
55.750 14.09447
55.755 13.79342
55.760 13.154016
55.765 12.489559
55.770 11.764297
55.775 11.909524
55.780 12.184855
55.785 12.008717
55.790 12.323281
55.795 13.118071
55.800 13.754652
55.805 14.028988
55.810 13.588363
55.815 13.422091
55.820 13.914763
55.825 14.266199
55.830 13.790661
55.835 13.935431
55.840 13.943906
55.845 14.401625
55.850 14.45547
55.855 13.711379
55.860 13.618523
55.865 14.222919
55.870 14.481682
55.875 14.728941
55.880 14.459587
55.885 14.50048
55.890 14.674392
55.895 14.129094
55.900 13.933845
55.905 13.200717
55.910 12.807824
55.915 12.856749
55.920 12.844949
55.925 13.01909
55.930 13.693658
55.935 13.696877
55.940 14.584908
55.945 14.697191
55.950 14.487497
55.955 14.778717
55.960 14.471054
55.965 13.835311
55.970 13.842423
55.975 13.67353
55.980 13.825395
55.985 13.631844
55.990 13.50815
55.995 13.139836
56.000 13.348262
56.005 12.839068
56.010 12.735653
56.015 12.824762
56.020 12.917675
56.025 12.282827
56.030 12.692868
56.035 12.701947
56.040 12.444965
56.045 12.201615
56.050 11.924637
56.055 12.236492
56.060 13.043199
56.065 13.401415
56.070 13.332615
56.075 13.519956
56.080 13.182611
56.085 13.41378
56.090 13.312676
56.095 13.522291
56.100 13.153342
56.105 13.63693
56.110 14.052967
56.115 14.582697
56.120 14.205674
56.125 13.528712
56.130 13.648335
56.135 14.203528
56.140 14.307465
56.145 13.967113
56.150 13.7654
56.155 13.998682
56.160 14.223868
56.165 13.774252
56.170 13.816706
56.175 13.63435
56.180 13.699327
56.185 13.179938
56.190 13.073076
56.195 13.036489
56.200 12.987619
56.205 12.883188
56.210 13.290728
56.215 13.202633
56.220 13.687961
56.225 13.63649
56.230 13.789549
56.235 13.557873
56.240 13.419394
56.245 13.273605
56.250 13.132706
56.255 13.173995
56.260 13.173735
56.265 13.09568
56.270 12.73545
56.275 12.616771
56.280 12.497352
56.285 12.268405
56.290 12.839438
56.295 13.358672
56.300 13.546803
56.305 13.746781
56.310 13.516469
56.315 13.846122
56.320 14.880365
56.325 14.621651
56.330 14.266268
56.335 14.401331
56.340 14.384585
56.345 14.460094
56.350 13.868369
56.355 13.254806
56.360 12.344954
56.365 12.21118
56.370 12.258788
56.375 12.632798
56.380 12.525322
56.385 12.966846
56.390 13.346511
56.395 14.198134
56.400 14.236241
56.405 13.899254
56.410 13.623499
56.415 13.94354
56.420 13.938315
56.425 13.705994
56.430 13.825706
56.435 13.673403
56.440 14.068931
56.445 14.180952
56.450 13.891746
56.455 13.546257
56.460 13.288565
56.465 13.301163
56.470 13.227596
56.475 12.578867
56.480 12.296038
56.485 12.148484
56.490 12.784649
56.495 12.811429
56.500 12.353685
56.505 12.675971
56.510 13.071733
56.515 13.255127
56.520 12.844458
56.525 12.36835
56.530 12.891387
56.535 13.514853
56.540 13.569736
56.545 13.602009
56.550 13.699466
56.555 13.913323
56.560 13.816363
56.565 13.250017
56.570 12.402593
56.575 12.007162
56.580 11.930559
56.585 12.476253
56.590 13.1076
56.595 13.263006
56.600 13.529936
56.605 14.281012
56.610 14.677849
56.615 14.710306
56.620 14.308527
56.625 14.518569
56.630 14.285029
56.635 14.034625
56.640 13.393331
56.645 13.223421
56.650 13.737123
56.655 13.720218
56.660 13.372045
56.665 13.419459
56.670 13.525448
56.675 13.829042
56.680 13.570415
56.685 12.858981
56.690 13.045292
56.695 12.809313
56.700 12.684515
56.705 12.747353
56.710 12.810463
56.715 12.574494
56.720 12.588965
56.725 12.40795
56.730 12.947665
56.735 12.997448
56.740 13.457148
56.745 13.488862
56.750 13.842269
56.755 13.834622
56.760 13.782568
56.765 13.713809
56.770 13.770278
56.775 13.750491
56.780 14.0182
56.785 14.023188
56.790 14.227142
56.795 14.477699
56.800 14.947334
56.805 15.138195
56.810 14.693564
56.815 14.256323
56.820 13.950506
56.825 13.879779
56.830 14.005176
56.835 13.534586
56.840 13.138804
56.845 13.687281
56.850 13.924326
56.855 14.007216
56.860 13.446724
56.865 13.129023
56.870 13.987937
56.875 14.112664
56.880 13.954504
56.885 14.36357
56.890 14.60906
56.895 15.071972
56.900 15.340967
56.905 14.869146
56.910 14.579462
56.915 14.89328
56.920 15.350229
56.925 15.697298
56.930 15.546302
56.935 14.612677
56.940 14.115416
56.945 14.51456
56.950 13.946572
56.955 13.35772
56.960 12.71512
56.965 12.563807
56.970 12.895103
56.975 13.448276
56.980 13.617171
56.985 13.989765
56.990 14.092436
56.995 14.293061
57.000 14.130198
57.005 14.217091
57.010 13.97749
57.015 13.466249
57.020 13.301552
57.025 13.674162
57.030 13.758826
57.035 13.912664
57.040 13.936788
57.045 13.935717
57.050 13.593525
57.055 13.491241
57.060 13.468313
57.065 13.443032
57.070 13.139889
57.075 13.639263
57.080 14.243399
57.085 14.335989
57.090 14.134233
57.095 14.192813
57.100 14.585071
57.105 15.132275
57.110 14.710455
57.115 14.345211
57.120 14.600464
57.125 14.409499
57.130 14.111297
57.135 14.013396
57.140 13.674823
57.145 13.152504
57.150 13.26064
57.155 13.226849
57.160 13.371971
57.165 13.717687
57.170 13.447357
57.175 13.712351
57.180 14.169644
57.185 14.19169
57.190 15.2709
57.195 15.523544
57.200 15.601354
57.205 16.121939
57.210 16.308899
57.215 16.031403
57.220 15.519036
57.225 14.369597
57.230 13.909167
57.235 13.472341
57.240 13.040318
57.245 13.410663
57.250 14.25602
57.255 14.130122
57.260 14.577524
57.265 14.618684
57.270 14.966931
57.275 14.878956
57.280 14.220224
57.285 14.104585
57.290 14.547659
57.295 14.803528
57.300 15.859209
57.305 16.024647
57.310 15.586944
57.315 15.931414
57.320 15.822268
57.325 15.884758
57.330 15.603784
57.335 14.804198
57.340 14.679082
57.345 14.892278
57.350 14.75397
57.355 14.75594
57.360 14.43793
57.365 13.796903
57.370 13.596692
57.375 13.83049
57.380 13.691405
57.385 13.851977
57.390 14.079187
57.395 14.386613
57.400 14.67373
57.405 14.76834
57.410 15.004311
57.415 15.497861
57.420 15.64641
57.425 15.576517
57.430 15.560736
57.435 15.848527
57.440 16.112791
57.445 15.794126
57.450 16.071205
57.455 15.575429
57.460 14.955242
57.465 15.083766
57.470 15.400488
57.475 15.349474
57.480 15.53177
57.485 15.278374
57.490 16.100857
57.495 17.021507
57.500 16.896616
57.505 17.011229
57.510 17.063005
57.515 16.996712
57.520 16.504772
57.525 16.099726
57.530 15.522757
57.535 15.440331
57.540 15.090338
57.545 15.210584
57.550 15.055647
57.555 14.349609
57.560 13.923892
57.565 14.189518
57.570 14.567491
57.575 14.394087
57.580 14.358815
57.585 14.832806
57.590 15.957642
57.595 16.351763
57.600 16.597912
57.605 16.521221
57.610 16.666599
57.615 16.689518
57.620 16.519609
57.625 16.296953
57.630 16.616135
57.635 16.664671
57.640 16.785603
57.645 16.881929
57.650 17.057327
57.655 17.444204
57.660 17.408079
57.665 17.013618
57.670 16.266699
57.675 16.018108
57.680 16.078119
57.685 16.216646
57.690 16.115175
57.695 16.252308
57.700 16.154999
57.705 16.28779
57.710 16.27438
57.715 16.0427
57.720 15.526615
57.725 15.582596
57.730 15.305024
57.735 15.693526
57.740 16.05685
57.745 16.429428
57.750 16.932688
57.755 17.116312
57.760 16.793016
57.765 16.178738
57.770 16.251944
57.775 16.708433
57.780 16.374813
57.785 15.792421
57.790 15.753264
57.795 15.903235
57.800 16.022051
57.805 15.666287
57.810 14.859347
57.815 15.092557
57.820 15.397341
57.825 15.34578
57.830 15.708396
57.835 15.903394
57.840 15.613922
57.845 15.428464
57.850 15.336555
57.855 15.104964
57.860 14.852613
57.865 14.95754
57.870 15.553944
57.875 16.078024
57.880 16.34366
57.885 16.470551
57.890 16.739872
57.895 16.675449
57.900 16.723213
57.905 16.654417
57.910 16.439165
57.915 16.471823
57.920 16.648281
57.925 16.740158
57.930 16.726606
57.935 15.947444
57.940 15.882221
57.945 15.948436
57.950 15.816518
57.955 15.583396
57.960 15.677225
57.965 16.114704
57.970 16.236464
57.975 16.103571
57.980 15.916979
57.985 15.861501
57.990 15.794682
57.995 15.65479
58.000 15.568505
58.005 15.302837
58.010 15.958422
58.015 17.143133
58.020 17.491213
58.025 17.6432
58.030 17.887417
58.035 17.824717
58.040 18.083908
58.045 17.81567
58.050 17.187088
58.055 17.07704
58.060 17.481501
58.065 17.635559
58.070 18.278553
58.075 18.7442
58.080 18.618649
58.085 18.641069
58.090 18.326687
58.095 17.909098
58.100 17.951433
58.105 18.171396
58.110 18.259357
58.115 18.037025
58.120 18.212873
58.125 18.226109
58.130 18.045082
58.135 17.750877
58.140 18.115473
58.145 17.983944
58.150 18.106688
58.155 18.284269
58.160 18.557014
58.165 19.106091
58.170 19.191948
58.175 18.537842
58.180 18.011858
58.185 18.111465
58.190 18.334869
58.195 18.395346
58.200 18.382662
58.205 18.76635
58.210 18.730774
58.215 18.873566
58.220 18.767612
58.225 18.447994
58.230 18.423733
58.235 18.338501
58.240 18.074583
58.245 17.865259
58.250 18.171156
58.255 18.415245
58.260 18.935141
58.265 19.373272
58.270 19.539614
58.275 19.841814
58.280 20.521814
58.285 20.569799
58.290 20.386345
58.295 19.918884
58.300 19.673237
58.305 19.459932
58.310 19.573854
58.315 20.092697
58.320 20.67342
58.325 21.019112
58.330 21.58835
58.335 21.884451
58.340 22.301373
58.345 22.767504
58.350 22.687338
58.355 22.902691
58.360 22.795664
58.365 22.890707
58.370 23.597353
58.375 23.732542
58.380 23.407806
58.385 22.503561
58.390 22.449808
58.395 23.386997
58.400 23.569229
58.405 23.410191
58.410 23.410707
58.415 23.938444
58.420 25.552416
58.425 25.866226
58.430 26.191433
58.435 26.418541
58.440 26.36199
58.445 26.944944
58.450 26.765854
58.455 26.516495
58.460 26.735004
