!@!!GADDS PLOTSO FILE: Chi integration type
!@!!Title/SampleName: map-186
!@!!Comment: ?
!@!!User: Bruker Instrument Administrator
!@!!Site: University of Illinois Chicago
!@!!Frame: map-186_01_000.gfrm
!@!!Wavelengths    1.54184   1.54056   1.54439
!@!!Frame angles: 2Theta: 63.000 Omega: 50.000 Phi: 0.000 Chi: 90.000
!@!!Integration range: 2Theta: 53.000 to 73.000  Gamma: -105.000 to -75.000
!@!!Integration method: bin normalized
!@!N
!@!SS
!@!M
!@!L 0.0 0.0 0.0 0.0
!@!XDegrees
!@!YCounts
53.000 9.813055
53.005 9.416
53.010 9.074229
53.015 9.314474
53.020 9.475094
53.025 9.410179
53.030 9.564145
53.035 9.822474
53.040 10.204011
53.045 9.991762
53.050 9.357474
53.055 9.279313
53.060 9.83775
53.065 9.781792
53.070 9.883736
53.075 10.398398
53.080 10.405266
53.085 10.884112
53.090 10.979649
53.095 11.502686
53.100 11.525796
53.105 11.22811
53.110 11.167164
53.115 11.252447
53.120 10.660667
53.125 10.158114
53.130 9.618133
53.135 9.319395
53.140 9.00408
53.145 8.85417
53.150 8.816643
53.155 8.811218
53.160 8.462787
53.165 8.478085
53.170 8.868768
53.175 8.727415
53.180 8.779138
53.185 9.014697
53.190 9.136751
53.195 9.990783
53.200 10.313681
53.205 10.290674
53.210 10.596219
53.215 10.217987
53.220 10.294581
53.225 10.520082
53.230 10.469869
53.235 10.523075
53.240 10.684678
53.245 10.522092
53.250 10.742935
53.255 10.450782
53.260 10.022816
53.265 9.87007
53.270 9.418296
53.275 9.439407
53.280 9.459901
53.285 9.994582
53.290 10.132601
53.295 10.234865
53.300 10.341355
53.305 10.429928
53.310 10.454118
53.315 10.448985
53.320 9.76714
53.325 9.929048
53.330 9.717806
53.335 9.895243
53.340 9.704552
53.345 9.545023
53.350 9.89796
53.355 9.75987
53.360 9.900586
53.365 9.696234
53.370 9.668527
53.375 9.640315
53.380 9.379415
53.385 8.960548
53.390 9.311538
53.395 9.137136
53.400 9.341069
53.405 9.674286
53.410 10.098915
53.415 10.717637
53.420 11.604027
53.425 12.108341
53.430 12.254803
53.435 12.085955
53.440 12.584119
53.445 12.858128
53.450 12.318979
53.455 11.869654
53.460 11.557824
53.465 11.686117
53.470 11.356023
53.475 10.944431
53.480 10.804946
53.485 11.071171
53.490 11.079792
53.495 10.803955
53.500 10.429294
53.505 10.318273
53.510 10.271507
53.515 10.214222
53.520 10.322966
53.525 10.769607
53.530 10.797255
53.535 11.29339
53.540 11.234871
53.545 11.033887
53.550 10.661675
53.555 10.039787
53.560 9.485019
53.565 9.691597
53.570 9.860859
53.575 9.995335
53.580 10.055243
53.585 10.325515
53.590 10.09178
53.595 10.449648
53.600 10.362204
53.605 10.474977
53.610 10.50516
53.615 10.580513
53.620 10.600497
53.625 10.715223
53.630 10.405274
53.635 10.27331
53.640 10.425583
53.645 10.772076
53.650 10.992274
53.655 10.956672
53.660 10.892974
53.665 10.976041
53.670 10.982039
53.675 10.605934
53.680 10.275451
53.685 10.352835
53.690 10.752415
53.695 11.080589
53.700 10.931503
53.705 11.044825
53.710 11.050792
53.715 10.891504
53.720 11.196344
53.725 10.811489
53.730 10.785192
53.735 10.610478
53.740 10.543801
53.745 10.444552
53.750 10.416977
53.755 10.594783
53.760 10.722744
53.765 10.722099
53.770 11.054007
53.775 11.421384
53.780 11.951195
53.785 12.300445
53.790 12.112932
53.795 12.074809
53.800 12.677874
53.805 12.858605
53.810 12.849112
53.815 12.632455
53.820 12.124903
53.825 12.086279
53.830 12.118163
53.835 11.540248
53.840 11.619821
53.845 11.623867
53.850 11.683364
53.855 12.087289
53.860 12.183079
53.865 12.195369
53.870 11.97692
53.875 11.482996
53.880 11.43261
53.885 11.410021
53.890 11.350621
53.895 11.372551
53.900 11.426824
53.905 11.608529
53.910 11.608064
53.915 11.872286
53.920 11.515708
53.925 11.506436
53.930 11.472765
53.935 12.086128
53.940 12.258208
53.945 12.147849
53.950 12.222573
53.955 12.666855
53.960 12.665878
53.965 11.94233
53.970 10.634925
53.975 10.24853
53.980 9.954865
53.985 9.561483
53.990 9.370999
53.995 9.347902
54.000 9.907561
54.005 11.389945
54.010 12.069856
54.015 11.994465
54.020 12.275851
54.025 12.159204
54.030 11.530134
54.035 11.06848
54.040 10.089164
54.045 10.10603
54.050 10.234329
54.055 9.950827
54.060 10.456386
54.065 11.385363
54.070 11.477427
54.075 11.898265
54.080 11.691893
54.085 11.891332
54.090 12.119448
54.095 12.159858
54.100 12.312699
54.105 12.665607
54.110 12.254643
54.115 11.773684
54.120 11.06676
54.125 10.609568
54.130 10.295017
54.135 9.852779
54.140 9.689503
54.145 9.864462
54.150 10.030183
54.155 10.324823
54.160 10.165089
54.165 9.725028
54.170 9.815852
54.175 9.857042
54.180 9.818223
54.185 10.034313
54.190 10.005473
54.195 9.939701
54.200 10.15851
54.205 10.072172
54.210 10.512693
54.215 10.549811
54.220 10.275714
54.225 10.739431
54.230 10.927391
54.235 11.25628
54.240 11.096847
54.245 10.642085
54.250 11.070022
54.255 11.31619
54.260 11.120515
54.265 11.168139
54.270 11.019332
54.275 11.173313
54.280 11.023941
54.285 11.1482
54.290 11.014671
54.295 10.724885
54.300 10.9136
54.305 10.618789
54.310 10.49995
54.315 10.630337
54.320 10.211871
54.325 10.0471
54.330 10.399141
54.335 9.888112
54.340 10.058425
54.345 10.228751
54.350 10.462408
54.355 10.582854
54.360 10.606045
54.365 10.369626
54.370 11.244373
54.375 11.399405
54.380 10.666464
54.385 10.52701
54.390 10.442657
54.395 10.771475
54.400 11.141255
54.405 11.160538
54.410 11.388625
54.415 11.759928
54.420 11.625257
54.425 11.86192
54.430 11.831884
54.435 11.467044
54.440 11.312939
54.445 11.36486
54.450 11.872014
54.455 12.360811
54.460 12.404921
54.465 12.363155
54.470 12.47293
54.475 12.577493
54.480 12.301254
54.485 11.856967
54.490 11.707932
54.495 11.70221
54.500 11.833488
54.505 11.691173
54.510 11.900257
54.515 12.269479
54.520 12.298153
54.525 12.387502
54.530 12.221742
54.535 12.441725
54.540 12.211664
54.545 11.594512
54.550 11.385666
54.555 11.147424
54.560 10.807395
54.565 10.973579
54.570 10.759161
54.575 10.953263
54.580 11.384663
54.585 11.379203
54.590 11.582232
54.595 11.609416
54.600 11.761008
54.605 12.076885
54.610 12.168224
54.615 12.169064
54.620 12.530555
54.625 12.793602
54.630 13.094875
54.635 12.922375
54.640 12.4366
54.645 11.904573
54.650 11.594563
54.655 11.083978
54.660 10.571372
54.665 10.51883
54.670 10.159833
54.675 10.261598
54.680 10.81319
54.685 10.879546
54.690 11.146443
54.695 11.282076
54.700 11.437361
54.705 11.561851
54.710 11.364983
54.715 11.14364
54.720 11.205818
54.725 11.57889
54.730 11.68893
54.735 11.881904
54.740 12.216668
54.745 12.473994
54.750 12.067374
54.755 11.527201
54.760 10.848254
54.765 10.632731
54.770 10.543616
54.775 10.57128
54.780 10.497
54.785 11.055451
54.790 11.594036
54.795 11.912358
54.800 11.805875
54.805 11.63001
54.810 11.732323
54.815 11.741484
54.820 11.424058
54.825 11.625424
54.830 11.378224
54.835 11.234437
54.840 10.801978
54.845 10.885265
54.850 11.41331
54.855 11.48725
54.860 11.239319
54.865 11.466293
54.870 11.81058
54.875 12.451088
54.880 12.763913
54.885 12.563656
54.890 12.850945
54.895 13.365477
54.900 13.199021
54.905 13.015108
54.910 13.305527
54.915 13.275528
54.920 12.875894
54.925 12.603357
54.930 12.2291
54.935 12.549676
54.940 12.189709
54.945 11.862498
54.950 11.925014
54.955 11.710717
54.960 11.236641
54.965 11.050237
54.970 11.140711
54.975 11.388125
54.980 11.135217
54.985 11.269334
54.990 11.558221
54.995 11.694303
55.000 11.921906
55.005 11.608281
55.010 11.609555
55.015 11.509606
55.020 11.140488
55.025 11.294786
55.030 11.618628
55.035 11.643539
55.040 12.215046
55.045 12.10366
55.050 12.630852
55.055 12.99304
55.060 12.947968
55.065 13.083702
55.070 12.982503
55.075 12.5187
55.080 13.07298
55.085 12.974767
55.090 12.77805
55.095 12.916445
55.100 12.677706
55.105 12.789701
55.110 12.735634
55.115 12.222151
55.120 12.157814
55.125 12.270887
55.130 12.042911
55.135 12.012322
55.140 11.887855
55.145 12.2482
55.150 12.106641
55.155 11.646005
55.160 11.239745
55.165 11.490115
55.170 11.716709
55.175 11.921452
55.180 12.295618
55.185 12.685532
55.190 13.083582
55.195 13.336927
55.200 13.353782
55.205 13.00062
55.210 12.861484
55.215 12.557316
55.220 12.338201
55.225 11.60858
55.230 11.386457
55.235 11.455012
55.240 11.818847
55.245 12.35522
55.250 12.470628
55.255 12.516785
55.260 13.035751
55.265 13.199757
55.270 13.638644
55.275 13.166263
55.280 12.238867
55.285 12.079051
55.290 11.833838
55.295 12.160018
55.300 12.31553
55.305 12.375321
55.310 12.830235
55.315 12.782565
55.320 13.277143
55.325 13.729937
55.330 13.743333
55.335 13.483874
55.340 13.234584
55.345 12.91495
55.350 12.839809
55.355 12.650303
55.360 12.224136
55.365 11.85452
55.370 11.421762
55.375 11.327943
55.380 11.34926
55.385 11.152656
55.390 11.551789
55.395 12.213435
55.400 12.75013
55.405 13.010384
55.410 13.572148
55.415 14.082363
55.420 14.611966
55.425 13.94836
55.430 13.272744
55.435 12.931447
55.440 12.577258
55.445 12.291342
55.450 11.956997
55.455 11.561364
55.460 11.49873
55.465 11.649711
55.470 12.427173
55.475 12.449515
55.480 12.190491
55.485 12.078408
55.490 12.209133
55.495 12.956343
55.500 13.086244
55.505 12.276096
55.510 12.221377
55.515 12.094609
55.520 12.710593
55.525 12.770589
55.530 12.648355
55.535 12.768934
55.540 13.385948
55.545 13.684321
55.550 13.970031
55.555 13.644128
55.560 13.792226
55.565 13.27537
55.570 12.455327
55.575 11.946697
55.580 11.660279
55.585 11.452244
55.590 11.287747
55.595 11.170163
55.600 11.746463
55.605 12.18326
55.610 12.733045
55.615 12.538312
55.620 12.148392
55.625 11.798936
55.630 11.447895
55.635 10.920421
55.640 10.920341
55.645 10.950703
55.650 11.292466
55.655 11.884025
55.660 12.05621
55.665 12.190805
55.670 12.203647
55.675 11.908829
55.680 11.639019
55.685 11.610559
55.690 11.513527
55.695 11.661729
55.700 11.406292
55.705 11.07379
55.710 10.962667
55.715 11.228662
55.720 11.292261
55.725 11.003466
55.730 10.813251
55.735 11.181326
55.740 11.477667
55.745 11.776022
55.750 11.49952
55.755 11.465396
55.760 11.496616
55.765 11.643627
55.770 11.90991
55.775 12.400533
55.780 12.264175
55.785 12.482012
55.790 12.298573
55.795 12.746097
55.800 12.849543
55.805 12.565017
55.810 11.98316
55.815 11.924699
55.820 11.907061
55.825 12.053349
55.830 11.99367
55.835 12.198919
55.840 12.663598
55.845 12.905233
55.850 12.89824
55.855 12.573613
55.860 12.507054
55.865 12.63315
55.870 12.230585
55.875 11.866553
55.880 11.856027
55.885 12.056228
55.890 12.574715
55.895 12.010348
55.900 11.649888
55.905 11.515341
55.910 12.047809
55.915 11.609145
55.920 11.399157
55.925 11.181643
55.930 11.755982
55.935 11.925897
55.940 11.667406
55.945 12.125924
55.950 12.285609
55.955 12.583959
55.960 12.561213
55.965 12.413367
55.970 12.617177
55.975 12.947176
55.980 12.436608
55.985 12.453291
55.990 12.161618
55.995 11.750675
56.000 11.768693
56.005 11.673024
56.010 11.273151
56.015 10.966157
56.020 11.01535
56.025 11.204833
56.030 11.248046
56.035 10.829085
56.040 10.880426
56.045 11.55125
56.050 11.846895
56.055 11.804731
56.060 12.353335
56.065 12.385225
56.070 13.19426
56.075 13.511144
56.080 12.829368
56.085 12.375671
56.090 12.345153
56.095 12.077224
56.100 12.413713
56.105 11.994615
56.110 11.862874
56.115 12.36493
56.120 12.679012
56.125 12.525133
56.130 12.461982
56.135 12.441997
56.140 12.560978
56.145 12.894774
56.150 13.380515
56.155 13.833741
56.160 13.783143
56.165 13.959252
56.170 13.915552
56.175 13.808209
56.180 12.804127
56.185 12.213845
56.190 11.902356
56.195 11.624436
56.200 12.024744
56.205 12.086576
56.210 12.268784
56.215 13.087447
56.220 13.163445
56.225 13.391707
56.230 13.457653
56.235 13.13133
56.240 13.020722
56.245 12.941892
56.250 12.780635
56.255 12.895968
56.260 13.710499
56.265 13.95617
56.270 13.812513
56.275 13.763035
56.280 13.970795
56.285 14.047022
56.290 13.908737
56.295 13.025031
56.300 12.804786
56.305 13.144123
56.310 12.912542
56.315 12.581106
56.320 12.0881
56.325 12.142197
56.330 12.318466
56.335 12.047555
56.340 11.704105
56.345 11.937099
56.350 12.127179
56.355 12.330818
56.360 12.116417
56.365 12.048288
56.370 11.998089
56.375 12.082487
56.380 12.174467
56.385 12.257676
56.390 12.08277
56.395 12.27279
56.400 12.664249
56.405 12.712377
56.410 12.714283
56.415 12.434996
56.420 12.694351
56.425 13.023254
56.430 12.928262
56.435 13.187922
56.440 13.482142
56.445 13.745005
56.450 13.976472
56.455 13.806618
56.460 14.000831
56.465 13.815638
56.470 13.34778
56.475 13.453689
56.480 13.676076
56.485 14.197908
56.490 14.309384
56.495 13.89418
56.500 13.936144
56.505 13.993608
56.510 13.93068
56.515 14.108879
56.520 13.91491
56.525 14.105607
56.530 14.438841
56.535 14.466177
56.540 14.547346
56.545 14.468613
56.550 14.391185
56.555 14.348706
56.560 14.016068
56.565 14.068701
56.570 13.662641
56.575 13.519795
56.580 13.515035
56.585 13.45817
56.590 14.224172
56.595 14.700372
56.600 14.77052
56.605 15.201035
56.610 15.505563
56.615 15.265036
56.620 14.924559
56.625 13.886746
56.630 13.478772
56.635 13.262444
56.640 13.13364
56.645 13.350444
56.650 13.844786
56.655 14.024944
56.660 14.706616
56.665 15.33148
56.670 15.571931
56.675 15.437931
56.680 15.09899
56.685 14.924479
56.690 15.017831
56.695 14.633296
56.700 14.083075
56.705 14.251085
56.710 14.414305
56.715 14.210094
56.720 14.402595
56.725 14.328322
56.730 14.664823
56.735 14.799776
56.740 14.602673
56.745 14.814672
56.750 14.863667
56.755 14.819821
56.760 15.555871
56.765 15.557031
56.770 15.262183
56.775 15.067603
56.780 14.293247
56.785 13.928676
56.790 13.319453
56.795 12.363194
56.800 12.081175
56.805 12.519633
56.810 12.67251
56.815 13.40029
56.820 13.785399
56.825 13.844107
56.830 14.146121
56.835 14.377406
56.840 14.379291
56.845 14.362525
56.850 13.890918
56.855 13.252277
56.860 12.695471
56.865 12.552643
56.870 12.166677
56.875 12.134628
56.880 12.522418
56.885 13.017174
56.890 13.163741
56.895 13.374148
56.900 13.096103
56.905 12.927632
56.910 12.632809
56.915 12.271118
56.920 12.275278
56.925 12.7399
56.930 12.50839
56.935 13.02926
56.940 13.47705
56.945 13.418435
56.950 12.802061
56.955 12.752645
56.960 13.134308
56.965 13.654368
56.970 13.11102
56.975 13.225481
56.980 13.802111
56.985 14.383503
56.990 13.853364
56.995 12.989265
57.000 12.695333
57.005 13.03321
57.010 13.075525
57.015 12.888262
57.020 12.900045
57.025 13.085558
57.030 13.406084
57.035 13.07124
57.040 12.714534
57.045 12.548952
57.050 12.669796
57.055 13.014645
57.060 13.40563
57.065 13.591718
57.070 14.031265
57.075 14.878474
57.080 15.139794
57.085 14.611761
57.090 14.417758
57.095 14.4255
57.100 14.29504
57.105 14.076795
57.110 13.173954
57.115 12.981537
57.120 12.845504
57.125 12.601608
57.130 12.528259
57.135 12.484927
57.140 12.884742
57.145 13.300844
57.150 13.104173
57.155 13.240726
57.160 13.808389
57.165 14.067912
57.170 14.187346
57.175 13.947467
57.180 13.840803
57.185 13.641756
57.190 13.540896
57.195 13.108481
57.200 12.925153
57.205 12.550641
57.210 12.417076
57.215 12.24344
57.220 12.45834
57.225 12.588502
57.230 12.886676
57.235 12.792983
57.240 13.216911
57.245 12.805551
57.250 12.981812
57.255 13.127734
57.260 13.018015
57.265 12.552229
57.270 12.41975
57.275 12.16146
57.280 12.458402
57.285 12.576715
57.290 12.912543
57.295 12.551641
57.300 12.873913
57.305 13.425286
57.310 13.481269
57.315 13.455093
57.320 13.515412
57.325 13.46752
57.330 13.988303
57.335 13.923883
57.340 13.849066
57.345 13.802526
57.350 14.175126
57.355 14.223526
57.360 14.339729
57.365 14.206736
57.370 13.968536
57.375 14.546348
57.380 14.528693
57.385 14.20259
57.390 13.618303
57.395 13.841225
57.400 14.034361
57.405 14.308962
57.410 13.850202
57.415 13.894464
57.420 14.005121
57.425 14.404006
57.430 13.740005
57.435 13.419563
57.440 13.236161
57.445 13.447048
57.450 12.981236
57.455 12.391409
57.460 12.043378
57.465 12.155199
57.470 12.522077
57.475 12.128239
57.480 11.924302
57.485 12.663893
57.490 13.34402
57.495 13.306086
57.500 13.342554
57.505 12.82257
57.510 13.007317
57.515 12.71583
57.520 12.730603
57.525 12.753094
57.530 12.557093
57.535 12.427514
57.540 12.736259
57.545 12.729718
57.550 13.00949
57.555 12.770432
57.560 12.674838
57.565 12.969157
57.570 12.739431
57.575 12.650365
57.580 13.128611
57.585 13.292059
57.590 13.117223
57.595 12.783462
57.600 12.682281
57.605 12.761826
57.610 12.749034
57.615 12.657981
57.620 12.512465
57.625 13.153679
57.630 13.357082
57.635 13.481888
57.640 13.481972
57.645 13.432885
57.650 13.116628
57.655 13.383982
57.660 13.271158
57.665 14.036836
57.670 14.111579
57.675 13.931107
57.680 13.90419
57.685 14.342961
57.690 14.327767
57.695 13.851734
57.700 13.427118
57.705 13.494215
57.710 13.728401
57.715 13.877019
57.720 13.663566
57.725 13.489041
57.730 13.503892
57.735 13.598538
57.740 14.06374
57.745 14.499507
57.750 14.414288
57.755 14.694987
57.760 14.658851
57.765 14.720173
57.770 14.941816
57.775 14.508619
57.780 13.86288
57.785 14.097292
57.790 13.717154
57.795 14.129633
57.800 14.460418
57.805 14.291382
57.810 14.389028
57.815 14.681847
57.820 14.680765
57.825 15.073799
57.830 15.161067
57.835 14.802773
57.840 14.308819
57.845 14.135211
57.850 13.847033
57.855 13.519279
57.860 13.394656
57.865 13.398248
57.870 13.523918
57.875 14.129478
57.880 14.937073
57.885 15.517073
57.890 15.555495
57.895 15.328725
57.900 15.194566
57.905 14.862376
57.910 14.242226
57.915 13.64937
57.920 13.562489
57.925 13.727112
57.930 13.657961
57.935 13.808208
57.940 14.271952
57.945 14.354259
57.950 14.197452
57.955 13.966321
57.960 14.099832
57.965 14.162427
57.970 14.063523
57.975 14.37553
57.980 14.644779
57.985 14.314946
57.990 13.926526
57.995 14.247696
58.000 14.271068
58.005 14.510176
58.010 14.654786
58.015 15.197614
58.020 15.954422
58.025 16.24124
58.030 15.851038
58.035 15.797696
58.040 15.802137
58.045 16.196539
58.050 16.351025
58.055 16.204882
58.060 16.214739
58.065 16.436579
58.070 16.66292
58.075 16.414412
58.080 15.724813
58.085 15.348814
58.090 14.931166
58.095 14.314542
58.100 13.567426
58.105 12.960426
58.110 13.057417
58.115 12.677485
58.120 12.383343
58.125 12.690469
58.130 13.187231
58.135 13.880541
58.140 14.261645
58.145 14.448201
58.150 14.785714
58.155 14.922167
58.160 15.121137
58.165 15.164341
58.170 15.029008
58.175 14.935163
58.180 14.302008
58.185 14.345704
58.190 13.849329
58.195 13.78088
58.200 14.054731
58.205 13.592839
58.210 12.878497
58.215 13.381865
58.220 13.996721
58.225 14.442905
58.230 14.418915
58.235 14.575307
58.240 14.777399
58.245 15.081234
58.250 14.465658
58.255 14.173882
58.260 14.142478
58.265 14.350639
58.270 14.085446
58.275 13.892052
58.280 14.152097
58.285 14.249949
58.290 14.070545
58.295 13.899282
58.300 13.535089
58.305 13.895416
58.310 14.471663
58.315 13.685524
58.320 13.564233
58.325 13.977157
58.330 14.157681
58.335 14.498137
58.340 14.682384
58.345 14.739074
58.350 15.756911
58.355 15.519861
58.360 15.493703
58.365 15.420502
58.370 15.262556
58.375 15.2135
58.380 15.087636
58.385 14.765488
58.390 14.910001
58.395 15.540458
58.400 15.80033
58.405 16.090126
58.410 16.082232
58.415 16.110268
58.420 16.065619
58.425 16.241522
58.430 15.629571
58.435 15.500813
58.440 14.970448
58.445 15.007617
58.450 15.039633
58.455 14.835307
58.460 14.454016
58.465 14.441876
