!@!!GADDS PLOTSO FILE: Chi integration type
!@!!Title/SampleName: map-1a
!@!!Comment: ?
!@!!User: Bruker Instrument Administrator
!@!!Site: University of Illinois Chicago
!@!!Frame: map-1a_01_000.gfrm
!@!!Wavelengths    1.54184   1.54056   1.54439
!@!!Frame angles: 2Theta: 63.000 Omega: 50.000 Phi: 0.000 Chi: 90.000
!@!!Integration range: 2Theta: 53.000 to 73.000  Gamma: -105.000 to -75.000
!@!!Integration method: bin normalized
!@!N
!@!SS
!@!M
!@!L 0.0 0.0 0.0 0.0
!@!XDegrees
!@!YCounts
53.000 8.457302
53.005 8.588407
53.010 8.282794
53.015 8.617179
53.020 8.790526
53.025 8.455381
53.030 8.636443
53.035 8.687762
53.040 8.713395
53.045 8.869678
53.050 8.76677
53.055 8.404228
53.060 8.240229
53.065 8.16756
53.070 7.944101
53.075 8.394696
53.080 8.285002
53.085 8.213298
53.090 8.643538
53.095 8.726968
53.100 8.70682
53.105 8.460777
53.110 8.559146
53.115 8.571403
53.120 8.769773
53.125 8.836506
53.130 8.624571
53.135 8.91314
53.140 8.648436
53.145 8.367211
53.150 8.505867
53.155 8.459692
53.160 8.576381
53.165 8.579108
53.170 8.441467
53.175 8.810062
53.180 8.87958
53.185 8.684808
53.190 8.069581
53.195 8.134297
53.200 8.749815
53.205 8.524185
53.210 8.451307
53.215 8.397874
53.220 8.80387
53.225 9.184694
53.230 8.863611
53.235 8.633533
53.240 8.789382
53.245 8.965425
53.250 8.669096
53.255 8.524349
53.260 8.925151
53.265 8.948072
53.270 9.05423
53.275 9.082433
53.280 9.053103
53.285 8.974609
53.290 8.837523
53.295 8.396555
53.300 8.490628
53.305 8.054454
53.310 8.174777
53.315 8.554317
53.320 9.211699
53.325 9.47613
53.330 9.417608
53.335 9.382599
53.340 9.395628
53.345 8.945723
53.350 8.668396
53.355 8.192051
53.360 8.15447
53.365 8.237556
53.370 8.318099
53.375 8.271123
53.380 8.366938
53.385 8.334127
53.390 7.928061
53.395 7.690084
53.400 7.836123
53.405 7.768597
53.410 7.830552
53.415 7.890619
53.420 8.720922
53.425 9.468073
53.430 9.857686
53.435 9.932277
53.440 10.193379
53.445 10.465337
53.450 10.380543
53.455 9.839613
53.460 9.560549
53.465 9.487528
53.470 9.368412
53.475 8.826934
53.480 8.338063
53.485 8.147972
53.490 8.291116
53.495 8.398029
53.500 8.463276
53.505 8.920921
53.510 9.586123
53.515 9.715918
53.520 9.875778
53.525 10.011922
53.530 9.931178
53.535 9.785103
53.540 9.467708
53.545 9.668608
53.550 10.078925
53.555 10.160726
53.560 9.928316
53.565 9.758984
53.570 9.930345
53.575 10.044285
53.580 9.422511
53.585 8.967693
53.590 8.520373
53.595 8.980837
53.600 9.154158
53.605 8.8761
53.610 9.00246
53.615 9.108031
53.620 9.175489
53.625 9.336417
53.630 9.041531
53.635 8.884562
53.640 8.779297
53.645 8.726457
53.650 8.743016
53.655 9.101265
53.660 9.373428
53.665 9.451089
53.670 9.798793
53.675 10.039582
53.680 10.209913
53.685 10.480915
53.690 9.908114
53.695 9.474257
53.700 9.788467
53.705 9.463417
53.710 9.16473
53.715 9.055762
53.720 9.214717
53.725 9.221433
53.730 8.657233
53.735 8.460491
53.740 8.650403
53.745 9.243473
53.750 9.030626
53.755 9.12214
53.760 9.117628
53.765 9.477508
53.770 9.883015
53.775 9.621478
53.780 9.995779
53.785 10.074722
53.790 9.791265
53.795 10.389606
53.800 10.71199
53.805 10.352891
53.810 10.322878
53.815 10.02107
53.820 10.195392
53.825 10.717904
53.830 10.246089
53.835 10.00573
53.840 10.033099
53.845 9.601372
53.850 9.636451
53.855 9.529067
53.860 9.529066
53.865 9.468597
53.870 9.141758
53.875 9.673672
53.880 9.84016
53.885 9.647061
53.890 9.463566
53.895 9.197509
53.900 9.275366
53.905 9.270112
53.910 8.966998
53.915 8.907731
53.920 8.83947
53.925 8.605198
53.930 8.888455
53.935 9.059647
53.940 9.045817
53.945 8.919825
53.950 9.135567
53.955 9.763576
53.960 10.345166
53.965 9.934829
53.970 10.047354
53.975 10.252825
53.980 10.286633
53.985 10.329957
53.990 10.114806
53.995 10.389329
54.000 10.288879
54.005 10.191741
54.010 9.880963
54.015 9.320804
54.020 8.851242
54.025 8.756289
54.030 8.939544
54.035 9.725528
54.040 9.907082
54.045 10.01349
54.050 10.739459
54.055 10.97418
54.060 10.446053
54.065 9.818503
54.070 9.611323
54.075 9.507141
54.080 9.900024
54.085 9.67121
54.090 9.720967
54.095 9.685456
54.100 9.733166
54.105 9.539797
54.110 9.658695
54.115 8.977021
54.120 8.891416
54.125 9.21292
54.130 9.797149
54.135 10.174585
54.140 10.598086
54.145 10.476864
54.150 10.924593
54.155 10.964592
54.160 10.752802
54.165 10.361585
54.170 9.600633
54.175 9.306674
54.180 9.460509
54.185 9.497132
54.190 9.805084
54.195 9.640258
54.200 9.810266
54.205 9.700525
54.210 9.791551
54.215 9.855116
54.220 9.590734
54.225 9.714874
54.230 10.004924
54.235 10.339648
54.240 10.313447
54.245 10.1689
54.250 10.230424
54.255 10.046605
54.260 9.359901
54.265 9.15293
54.270 9.595657
54.275 9.648358
54.280 9.557264
54.285 9.250608
54.290 9.477037
54.295 9.726
54.300 9.167315
54.305 9.476049
54.310 10.17869
54.315 10.379816
54.320 10.394178
54.325 10.495616
54.330 11.341249
54.335 11.937406
54.340 11.409673
54.345 11.342084
54.350 11.88203
54.355 12.065151
54.360 11.811789
54.365 11.628881
54.370 11.665991
54.375 11.852966
54.380 10.891305
54.385 10.869022
54.390 10.724216
54.395 10.715923
54.400 10.113874
54.405 10.10354
54.410 10.43495
54.415 10.775748
54.420 10.698081
54.425 10.76438
54.430 10.736971
54.435 11.009727
54.440 10.950531
54.445 11.085158
54.450 10.771548
54.455 10.523901
54.460 10.319077
54.465 10.350462
54.470 9.76417
54.475 9.620514
54.480 9.704575
54.485 9.656773
54.490 9.981023
54.495 10.144832
54.500 9.931101
54.505 9.806254
54.510 9.33663
54.515 9.410836
54.520 9.67089
54.525 9.669618
54.530 10.03102
54.535 10.203009
54.540 10.732513
54.545 10.892008
54.550 10.656742
54.555 10.686256
54.560 10.471025
54.565 10.286557
54.570 10.120773
54.575 9.752045
54.580 10.012631
54.585 10.165184
54.590 10.046354
54.595 9.896572
54.600 9.897304
54.605 10.017182
54.610 10.661328
54.615 10.758724
54.620 10.770463
54.625 11.054237
54.630 11.418283
54.635 11.391939
54.640 11.767315
54.645 11.254507
54.650 11.17369
54.655 11.335916
54.660 11.293623
54.665 11.228131
54.670 11.165285
54.675 10.92637
54.680 11.099315
54.685 10.717422
54.690 10.533185
54.695 10.633572
54.700 10.407232
54.705 10.834363
54.710 11.197821
54.715 11.109968
54.720 11.015597
54.725 11.453024
54.730 11.061795
54.735 11.485519
54.740 10.741997
54.745 9.817261
54.750 9.483364
54.755 9.554148
54.760 9.562963
54.765 9.674061
54.770 9.326575
54.775 9.993103
54.780 10.137671
54.785 10.288551
54.790 10.248249
54.795 10.29185
54.800 10.643897
54.805 10.583
54.810 10.692703
54.815 11.199879
54.820 11.181878
54.825 10.940199
54.830 10.969562
54.835 10.858661
54.840 11.086729
54.845 11.172688
54.850 11.370269
54.855 11.903923
54.860 11.688766
54.865 10.849314
54.870 10.623667
54.875 10.493773
54.880 10.388384
54.885 10.080079
54.890 9.649667
54.895 10.14989
54.900 10.966314
54.905 11.131674
54.910 10.897088
54.915 10.860199
54.920 10.767692
54.925 11.011188
54.930 10.663506
54.935 10.407183
54.940 10.225848
54.945 10.107946
54.950 10.268959
54.955 10.414835
54.960 10.623277
54.965 10.809243
54.970 10.60607
54.975 10.622817
54.980 10.929528
54.985 11.115873
54.990 11.089212
54.995 11.008542
55.000 11.174002
55.005 11.490809
55.010 11.813099
55.015 11.726617
55.020 11.700073
55.025 11.505592
55.030 11.634339
55.035 11.898707
55.040 11.892447
55.045 12.05359
55.050 12.040597
55.055 11.824927
55.060 11.667384
55.065 11.410903
55.070 10.682836
55.075 10.457932
55.080 10.253118
55.085 10.654295
55.090 11.09483
55.095 11.767915
55.100 11.892524
55.105 12.472014
55.110 12.362707
55.115 12.099979
55.120 11.572816
55.125 11.624002
55.130 11.382449
55.135 11.014541
55.140 10.732718
55.145 10.682502
55.150 11.17305
55.155 10.865449
55.160 10.407905
55.165 10.461439
55.170 10.660657
55.175 10.447026
55.180 10.486378
55.185 10.531895
55.190 11.041945
55.195 10.97385
55.200 10.778552
55.205 10.607082
55.210 11.196239
55.215 11.519761
55.220 11.223293
55.225 11.563915
55.230 11.403557
55.235 11.981686
55.240 12.086308
55.245 11.892637
55.250 11.875411
55.255 11.852728
55.260 11.606642
55.265 11.495203
55.270 11.300337
55.275 11.608656
55.280 11.767847
55.285 11.317004
55.290 11.173966
55.295 10.963725
55.300 10.985148
55.305 10.902588
55.310 10.443579
55.315 10.11149
55.320 10.314782
55.325 10.161774
55.330 10.402766
55.335 10.556763
55.340 10.542027
55.345 10.658105
55.350 11.153226
55.355 11.755843
55.360 12.582376
55.365 12.31281
55.370 12.361662
55.375 11.95741
55.380 11.620161
55.385 10.986362
55.390 10.556699
55.395 10.086577
55.400 10.009458
55.405 10.418777
55.410 10.73814
55.415 10.914555
55.420 10.590853
55.425 10.177259
55.430 9.98581
55.435 10.092198
55.440 9.961906
55.445 10.186255
55.450 10.543326
55.455 10.718425
55.460 11.128438
55.465 11.485008
55.470 11.679207
55.475 11.613491
55.480 11.078376
55.485 10.767853
55.490 10.619078
55.495 10.63761
55.500 11.261548
55.505 11.431428
55.510 11.563407
55.515 12.073798
55.520 12.23675
55.525 12.568999
55.530 12.153376
55.535 11.489603
55.540 11.037962
55.545 10.928051
55.550 10.829062
55.555 11.0151
55.560 10.596219
55.565 10.498144
55.570 10.979143
55.575 11.609018
55.580 11.833726
55.585 12.492576
55.590 13.008705
55.595 13.19758
55.600 13.199049
55.605 12.79645
55.610 12.358294
55.615 12.381101
55.620 11.991121
55.625 11.676637
55.630 11.897227
55.635 12.072014
55.640 12.084751
55.645 12.099018
55.650 12.078329
55.655 12.059441
55.660 11.752743
55.665 11.771969
55.670 11.626881
55.675 11.599492
55.680 11.669696
55.685 11.856631
55.690 11.931584
55.695 12.338815
55.700 12.261023
55.705 12.458652
55.710 11.793672
55.715 11.586329
55.720 11.386292
55.725 10.861502
55.730 10.965741
55.735 10.684137
55.740 10.408351
55.745 10.834688
55.750 10.888822
55.755 11.219123
55.760 11.574028
55.765 11.347253
55.770 11.588192
55.775 11.76884
55.780 11.673328
55.785 11.898652
55.790 11.971853
55.795 11.819687
55.800 11.775172
55.805 11.864538
55.810 12.26991
55.815 11.950713
55.820 11.598717
55.825 12.02585
55.830 12.370214
55.835 12.709278
55.840 12.824551
55.845 12.675636
55.850 13.061743
55.855 13.031796
55.860 12.588434
55.865 12.486398
55.870 12.505617
55.875 12.361005
55.880 12.227328
55.885 12.510912
55.890 12.60488
55.895 12.588768
55.900 12.491118
55.905 11.899083
55.910 11.915234
55.915 12.071552
55.920 11.840804
55.925 11.410927
55.930 11.117121
55.935 11.140473
55.940 11.613533
55.945 12.209097
55.950 12.181463
55.955 11.785082
55.960 11.593171
55.965 11.313902
55.970 12.136159
55.975 12.070467
55.980 11.970531
55.985 12.161472
55.990 12.374387
55.995 12.743956
56.000 12.701183
56.005 12.037381
56.010 11.655498
56.015 11.606233
56.020 11.50728
56.025 11.600094
56.030 11.769535
56.035 11.782443
56.040 11.984364
56.045 12.335017
56.050 12.023874
56.055 12.088923
56.060 12.087288
56.065 11.725493
56.070 11.514573
56.075 11.481369
56.080 11.568632
56.085 11.828313
56.090 11.840543
56.095 11.788976
56.100 12.097194
56.105 12.1669
56.110 11.956238
56.115 11.722997
56.120 11.693183
56.125 11.853093
56.130 12.089654
56.135 12.281346
56.140 12.694188
56.145 12.421273
56.150 11.89187
56.155 11.655216
56.160 11.87364
56.165 11.563947
56.170 11.592995
56.175 11.341243
56.180 11.739056
56.185 12.147247
56.190 12.117123
56.195 11.779559
56.200 11.964919
56.205 11.926089
56.210 12.307343
56.215 12.376959
56.220 12.318082
56.225 12.382967
56.230 12.389313
56.235 12.439672
56.240 12.228631
56.245 11.556039
56.250 11.628164
56.255 11.899302
56.260 12.051476
56.265 12.285968
56.270 12.051017
56.275 12.163905
56.280 11.745018
56.285 11.681749
56.290 11.51836
56.295 11.296077
56.300 11.624266
56.305 11.916677
56.310 12.345177
56.315 13.073533
56.320 13.114492
56.325 12.865393
56.330 12.465745
56.335 12.004449
56.340 11.84066
56.345 11.953664
56.350 11.738569
56.355 12.206561
56.360 12.42356
56.365 12.930943
56.370 13.121481
56.375 12.977678
56.380 12.748911
56.385 12.365417
56.390 11.82824
56.395 11.812655
56.400 11.614137
56.405 11.413047
56.410 11.486045
56.415 12.018907
56.420 12.921601
56.425 13.108898
56.430 13.498795
56.435 13.654366
56.440 13.627581
56.445 13.888798
56.450 13.550708
56.455 12.686334
56.460 12.746977
56.465 12.208978
56.470 12.484701
56.475 12.457221
56.480 11.737785
56.485 11.763577
56.490 12.186868
56.495 11.782314
56.500 11.8105
56.505 10.878298
56.510 10.698763
56.515 10.324038
56.520 10.388803
56.525 11.150203
56.530 11.418023
56.535 11.616162
56.540 12.22115
56.545 12.592877
56.550 13.02871
56.555 12.92129
56.560 12.426199
56.565 12.43477
56.570 12.610677
56.575 12.743805
56.580 13.030362
56.585 13.161556
56.590 12.956898
56.595 12.705939
56.600 12.988873
56.605 13.006288
56.610 13.217596
56.615 13.438145
56.620 13.440399
56.625 13.632566
56.630 14.061418
56.635 13.960755
56.640 13.921845
56.645 13.643745
56.650 12.584965
56.655 12.074451
56.660 12.309329
56.665 12.304943
56.670 11.709414
56.675 11.938894
56.680 12.66175
56.685 13.595978
56.690 13.895718
56.695 13.552437
56.700 13.429806
56.705 14.020904
56.710 14.355485
56.715 14.28083
56.720 14.042917
56.725 13.74224
56.730 14.411799
56.735 14.621582
56.740 14.292891
56.745 13.394893
56.750 13.418262
56.755 13.781055
56.760 13.888472
56.765 13.421652
56.770 13.327376
56.775 13.615582
56.780 13.754504
56.785 13.47939
56.790 12.833361
56.795 12.302092
56.800 12.020123
56.805 12.087283
56.810 11.464163
56.815 11.612616
56.820 11.738438
56.825 12.002877
56.830 12.278052
56.835 11.974214
56.840 12.256595
56.845 12.766268
56.850 11.875001
56.855 11.720756
56.860 11.86033
56.865 12.036109
56.870 12.643557
56.875 12.718408
56.880 12.506511
56.885 12.981097
56.890 13.01014
56.895 13.189171
56.900 12.673385
56.905 11.846187
56.910 11.351634
56.915 11.238824
56.920 11.285599
56.925 11.469525
56.930 11.799813
56.935 12.069869
56.940 12.575601
56.945 12.664645
56.950 12.429192
56.955 12.169316
56.960 12.013702
56.965 11.429938
56.970 11.99552
56.975 11.841139
56.980 12.079637
56.985 12.587492
56.990 12.800407
56.995 13.139624
57.000 13.586169
57.005 12.883227
57.010 12.865371
57.015 13.254191
57.020 13.117458
57.025 12.795383
57.030 12.088943
57.035 12.038409
57.040 13.072215
57.045 13.552447
57.050 13.3654
57.055 13.230892
57.060 13.590286
57.065 14.471658
57.070 13.926444
57.075 13.486874
57.080 13.227982
57.085 13.659151
57.090 13.866246
57.095 13.472479
57.100 13.183586
57.105 13.719105
57.110 13.484597
57.115 13.979558
57.120 14.034255
57.125 14.805425
57.130 15.800496
57.135 15.645897
57.140 15.618671
57.145 16.087528
57.150 15.585938
57.155 14.908608
57.160 14.027268
57.165 13.328797
57.170 13.173573
57.175 13.121327
57.180 12.798935
57.185 12.764541
57.190 13.260479
57.195 13.492123
57.200 14.07299
57.205 14.326704
57.210 13.815387
57.215 13.816322
57.220 14.020003
57.225 13.77427
57.230 13.707195
57.235 13.322097
57.240 13.313929
57.245 13.678595
57.250 13.240275
57.255 13.059917
57.260 13.084991
57.265 13.2617
57.270 13.479521
57.275 13.946253
57.280 14.18495
57.285 14.83488
57.290 15.160734
57.295 15.064182
57.300 15.075574
57.305 15.212533
57.310 14.997226
57.315 14.952785
57.320 14.865786
57.325 14.345747
57.330 14.678123
57.335 14.745912
57.340 14.420601
57.345 14.361778
57.350 14.529799
57.355 14.302255
57.360 14.507021
57.365 14.087032
57.370 14.132546
57.375 14.16662
57.380 14.00928
57.385 13.444398
57.390 13.150896
57.395 13.600039
57.400 14.193666
57.405 14.162632
57.410 14.893714
57.415 15.136835
57.420 15.713517
57.425 16.103947
57.430 15.76324
57.435 15.619861
57.440 15.22652
57.445 14.817971
57.450 15.292334
57.455 15.794631
57.460 15.226551
57.465 15.04123
57.470 15.071891
57.475 15.29114
57.480 14.926465
57.485 14.081857
57.490 13.623775
57.495 14.147902
57.500 14.085804
57.505 14.644988
57.510 14.690173
57.515 14.861732
57.520 14.841886
57.525 14.755589
57.530 14.415392
57.535 14.196779
57.540 13.69289
57.545 13.746591
57.550 13.940312
57.555 14.521899
57.560 14.688985
57.565 14.934439
57.570 15.042411
57.575 15.018554
57.580 14.868246
57.585 14.558324
57.590 14.872126
57.595 14.635021
57.600 14.786999
57.605 14.414432
57.610 14.03003
57.615 14.166981
57.620 14.00342
57.625 14.388176
57.630 14.359914
57.635 14.147675
57.640 14.71368
57.645 14.968055
57.650 14.850946
57.655 14.614466
57.660 14.214307
57.665 14.452468
57.670 14.252135
57.675 14.272986
57.680 14.184555
57.685 14.28218
57.690 14.43861
57.695 14.192585
57.700 14.266692
57.705 14.925893
57.710 14.287793
57.715 14.268723
57.720 14.072106
57.725 13.733384
57.730 13.377526
57.735 12.649626
57.740 12.574365
57.745 13.432611
57.750 13.556543
57.755 13.715625
57.760 13.787019
57.765 13.759115
57.770 13.836155
57.775 13.377941
57.780 13.088914
57.785 13.437564
57.790 13.777335
57.795 13.652623
57.800 13.483954
57.805 13.448852
57.810 13.926163
57.815 13.864182
57.820 13.532841
57.825 13.491782
57.830 14.069285
57.835 14.677218
57.840 15.125186
57.845 15.009204
57.850 15.107614
57.855 15.01544
57.860 14.910164
57.865 14.536599
57.870 14.260612
57.875 14.195261
57.880 14.053509
57.885 14.180552
57.890 14.733151
57.895 14.744048
57.900 14.633842
57.905 14.408417
57.910 13.851954
57.915 13.911159
57.920 13.745813
57.925 13.837242
57.930 14.456827
57.935 15.08127
57.940 15.405864
57.945 15.517944
57.950 15.513244
57.955 15.688072
57.960 15.615955
57.965 14.874121
57.970 14.787649
57.975 15.133121
57.980 15.513879
57.985 15.401298
57.990 15.362459
57.995 15.608723
58.000 15.9633
58.005 15.833233
58.010 16.04826
58.015 16.091642
58.020 16.008701
58.025 15.618172
58.030 15.186675
58.035 14.973334
58.040 15.308362
58.045 15.726194
58.050 16.05958
58.055 16.514435
58.060 16.308912
58.065 15.858612
58.070 16.335526
58.075 16.161316
58.080 15.536942
58.085 15.362998
58.090 15.276707
58.095 15.69989
58.100 16.271444
58.105 15.79685
58.110 15.414288
58.115 14.849936
58.120 14.412571
58.125 14.110218
58.130 14.050281
58.135 14.320424
58.140 14.30778
58.145 14.64736
58.150 15.183532
58.155 15.648864
58.160 15.608047
58.165 15.824646
58.170 15.695326
58.175 16.17609
58.180 16.269039
58.185 16.328135
58.190 16.658415
58.195 16.857996
58.200 16.903805
58.205 16.912798
58.210 16.518623
58.215 16.734079
58.220 16.712729
58.225 16.304478
58.230 16.007906
58.235 15.830573
58.240 15.7151
58.245 15.401655
58.250 15.187263
58.255 15.061825
58.260 15.486871
58.265 16.092899
58.270 16.478737
58.275 16.974388
58.280 17.882795
58.285 18.131002
58.290 18.391874
58.295 18.103493
58.300 18.354795
58.305 18.515036
58.310 18.258581
58.315 17.358345
58.320 17.174879
58.325 17.085375
58.330 17.177814
58.335 17.450968
58.340 17.732393
58.345 18.038763
58.350 19.151892
58.355 19.116503
58.360 19.148079
58.365 18.727341
58.370 17.848871
58.375 17.981581
58.380 17.50292
58.385 17.047869
58.390 17.335957
58.395 17.757835
58.400 18.526979
58.405 18.596109
58.410 17.902168
58.415 18.396879
58.420 18.896387
58.425 19.299269
58.430 19.200468
58.435 18.607437
58.440 18.016106
58.445 18.158873
58.450 17.880154
58.455 17.353481
58.460 17.102869
58.465 17.134432
58.470 17.650845
58.475 18.006701
58.480 17.939465
58.485 17.852737
58.490 18.166348
58.495 18.168301
58.500 18.481756
58.505 18.069956
