!@!!GADDS PLOTSO FILE: Chi integration type
!@!!Title/SampleName: map-36
!@!!Comment: ?
!@!!User: Bruker Instrument Administrator
!@!!Site: University of Illinois Chicago
!@!!Frame: map-36_01_000.gfrm
!@!!Wavelengths    1.54184   1.54056   1.54439
!@!!Frame angles: 2Theta: 63.000 Omega: 50.000 Phi: 0.000 Chi: 90.000
!@!!Integration range: 2Theta: 53.000 to 73.000  Gamma: -105.000 to -75.000
!@!!Integration method: bin normalized
!@!N
!@!SS
!@!M
!@!L 0.0 0.0 0.0 0.0
!@!XDegrees
!@!YCounts
53.000 8.129153
53.005 7.684478
53.010 6.995942
53.015 6.499794
53.020 6.381588
53.025 6.615345
53.030 6.433885
53.035 6.57537
53.040 7.099767
53.045 7.407337
53.050 7.578744
53.055 7.477402
53.060 7.558649
53.065 7.672891
53.070 7.493592
53.075 7.275508
53.080 6.835947
53.085 6.563032
53.090 6.65537
53.095 6.661925
53.100 7.147058
53.105 7.836717
53.110 8.129067
53.115 8.916867
53.120 9.116545
53.125 8.601514
53.130 8.350373
53.135 8.055424
53.140 7.703496
53.145 7.58114
53.150 7.258253
53.155 6.962483
53.160 7.761035
53.165 7.697847
53.170 7.716925
53.175 7.81443
53.180 8.040314
53.185 8.344959
53.190 8.318678
53.195 7.837392
53.200 7.952267
53.205 7.552202
53.210 7.522189
53.215 6.860543
53.220 6.96792
53.225 7.457726
53.230 7.564114
53.235 7.321133
53.240 7.42963
53.245 7.537482
53.250 7.611677
53.255 7.535645
53.260 7.295235
53.265 6.998433
53.270 7.048997
53.275 6.833003
53.280 6.799762
53.285 6.878924
53.290 7.131411
53.295 7.615865
53.300 7.667003
53.305 7.519996
53.310 7.882257
53.315 7.904494
53.320 8.089591
53.325 7.713093
53.330 7.897178
53.335 8.766395
53.340 9.00809
53.345 8.974258
53.350 8.983832
53.355 8.417915
53.360 7.924291
53.365 7.600934
53.370 7.195467
53.375 7.144543
53.380 6.855971
53.385 6.933858
53.390 7.47083
53.395 7.590417
53.400 7.475859
53.405 7.417907
53.410 7.855617
53.415 8.223651
53.420 8.82009
53.425 9.194788
53.430 9.763772
53.435 9.943731
53.440 9.55519
53.445 9.66314
53.450 9.618814
53.455 8.962723
53.460 8.931585
53.465 8.279693
53.470 8.404208
53.475 8.2925
53.480 8.247643
53.485 8.098062
53.490 8.238162
53.495 8.424977
53.500 8.64177
53.505 8.805151
53.510 9.091681
53.515 9.320079
53.520 9.669751
53.525 9.704022
53.530 9.414047
53.535 9.302593
53.540 9.219504
53.545 8.969186
53.550 8.814182
53.555 8.199127
53.560 8.340441
53.565 8.724551
53.570 8.721103
53.575 8.434756
53.580 8.196012
53.585 7.993398
53.590 8.399768
53.595 8.082208
53.600 8.26216
53.605 8.515666
53.610 9.31837
53.615 9.506808
53.620 9.661373
53.625 9.367749
53.630 9.185071
53.635 8.737946
53.640 8.5859
53.645 7.873173
53.650 7.963697
53.655 7.564574
53.660 7.720695
53.665 7.984439
53.670 8.181672
53.675 8.162383
53.680 8.623016
53.685 8.921564
53.690 9.112872
53.695 9.28493
53.700 9.070661
53.705 9.262734
53.710 9.241677
53.715 8.793404
53.720 9.024565
53.725 9.203859
53.730 9.179885
53.735 9.134767
53.740 8.800754
53.745 8.979162
53.750 9.047398
53.755 9.480832
53.760 9.485229
53.765 9.70478
53.770 9.488488
53.775 9.364423
53.780 9.340886
53.785 8.989747
53.790 8.460584
53.795 8.100609
53.800 7.582005
53.805 7.96837
53.810 8.402206
53.815 8.187902
53.820 8.530107
53.825 9.058524
53.830 9.694864
53.835 9.944405
53.840 9.654653
53.845 9.420201
53.850 9.733843
53.855 10.225906
53.860 10.215268
53.865 9.899541
53.870 9.679345
53.875 9.945824
53.880 9.970039
53.885 9.19834
53.890 8.436555
53.895 8.007558
53.900 8.341601
53.905 8.274144
53.910 7.78779
53.915 7.716539
53.920 7.956106
53.925 8.089738
53.930 8.383724
53.935 8.264977
53.940 8.594047
53.945 8.634521
53.950 8.875675
53.955 9.003372
53.960 9.38528
53.965 9.024354
53.970 9.02832
53.975 9.127372
53.980 9.206239
53.985 9.156091
53.990 8.896674
53.995 8.873236
54.000 9.286407
54.005 9.679705
54.010 9.669702
54.015 9.538019
54.020 9.687779
54.025 9.912845
54.030 9.455386
54.035 9.487946
54.040 9.333852
54.045 9.465384
54.050 9.264969
54.055 9.35586
54.060 9.613938
54.065 9.953651
54.070 10.013918
54.075 10.183908
54.080 10.502744
54.085 10.414968
54.090 10.077262
54.095 9.680549
54.100 10.022413
54.105 9.869552
54.110 9.973123
54.115 9.936367
54.120 10.00177
54.125 10.234535
54.130 10.266298
54.135 10.251346
54.140 9.965606
54.145 9.645452
54.150 9.797769
54.155 9.815058
54.160 9.798937
54.165 9.789652
54.170 9.661427
54.175 9.5818
54.180 9.378175
54.185 8.973326
54.190 8.916428
54.195 8.824656
54.200 8.67369
54.205 8.840506
54.210 8.759114
54.215 9.08008
54.220 9.515648
54.225 9.455727
54.230 9.407038
54.235 9.417186
54.240 9.457113
54.245 9.542208
54.250 9.558877
54.255 9.140286
54.260 9.414956
54.265 9.382702
54.270 9.46049
54.275 9.869727
54.280 10.447572
54.285 10.616509
54.290 10.824039
54.295 10.63857
54.300 10.756581
54.305 10.733827
54.310 10.430498
54.315 10.462281
54.320 10.317798
54.325 10.099201
54.330 10.005196
54.335 9.667128
54.340 9.434704
54.345 9.354755
54.350 8.858279
54.355 8.856014
54.360 9.273208
54.365 9.20504
54.370 9.287894
54.375 8.914033
54.380 8.536894
54.385 8.444312
54.390 8.181396
54.395 8.199052
54.400 8.71306
54.405 8.864774
54.410 9.153235
54.415 9.284467
54.420 9.421437
54.425 9.502704
54.430 9.374479
54.435 9.394255
54.440 9.320166
54.445 9.635602
54.450 10.300929
54.455 10.523835
54.460 10.666977
54.465 10.529207
54.470 10.047337
54.475 10.042695
54.480 9.865726
54.485 9.226145
54.490 9.242398
54.495 9.402206
54.500 9.306439
54.505 9.605157
54.510 9.41329
54.515 9.227151
54.520 9.66408
54.525 9.547874
54.530 9.388986
54.535 9.403289
54.540 9.194917
54.545 9.312898
54.550 9.49826
54.555 9.667295
54.560 9.698409
54.565 9.850761
54.570 9.85017
54.575 10.252684
54.580 10.128031
54.585 9.98308
54.590 9.476564
54.595 9.425203
54.600 9.622429
54.605 9.370665
54.610 9.081322
54.615 9.39609
54.620 9.585643
54.625 9.710433
54.630 9.855966
54.635 9.841587
54.640 10.097442
54.645 9.908624
54.650 9.794441
54.655 9.759792
54.660 9.880025
54.665 9.374514
54.670 9.355928
54.675 9.982246
54.680 9.756122
54.685 9.509909
54.690 9.147902
54.695 9.262959
54.700 9.42056
54.705 9.333958
54.710 9.057592
54.715 9.110979
54.720 9.387889
54.725 9.511819
54.730 9.578971
54.735 9.843042
54.740 10.082609
54.745 10.475509
54.750 10.832762
54.755 10.87093
54.760 10.816042
54.765 10.395608
54.770 10.014077
54.775 9.745536
54.780 9.402846
54.785 9.037045
54.790 8.650096
54.795 8.857764
54.800 9.153364
54.805 9.055054
54.810 9.492107
54.815 9.819558
54.820 10.6182
54.825 10.938594
54.830 10.922809
54.835 11.012199
54.840 10.845086
54.845 10.819811
54.850 10.910157
54.855 10.324449
54.860 10.145738
54.865 9.635634
54.870 9.921788
54.875 10.187236
54.880 9.780942
54.885 9.913595
54.890 10.204951
54.895 10.432407
54.900 10.65032
54.905 10.310408
54.910 10.090232
54.915 10.3063
54.920 9.863334
54.925 9.56654
54.930 9.63007
54.935 9.449458
54.940 9.726368
54.945 9.859255
54.950 9.606882
54.955 10.148865
54.960 10.562738
54.965 10.623001
54.970 11.118331
54.975 10.969951
54.980 11.125395
54.985 11.230488
54.990 10.973569
54.995 10.262397
55.000 10.029793
55.005 9.523335
55.010 9.170755
55.015 8.831158
55.020 8.545338
55.025 8.676237
55.030 9.297189
55.035 9.47174
55.040 9.940823
55.045 10.21355
55.050 10.366708
55.055 10.326573
55.060 10.298697
55.065 9.947544
55.070 9.732446
55.075 10.093656
55.080 10.494374
55.085 9.831026
55.090 9.820371
55.095 9.835812
55.100 10.247677
55.105 10.259346
55.110 10.070576
55.115 9.778494
55.120 10.507427
55.125 11.031587
55.130 11.362018
55.135 11.600033
55.140 11.651195
55.145 11.616019
55.150 11.679421
55.155 11.582549
55.160 11.060549
55.165 10.675072
55.170 10.537284
55.175 10.442863
55.180 10.235508
55.185 10.374653
55.190 10.610857
55.195 11.116672
55.200 11.345468
55.205 11.238758
55.210 11.217656
55.215 11.23618
55.220 10.580617
55.225 9.867889
55.230 9.611098
55.235 9.637698
55.240 9.651782
55.245 9.577342
55.250 9.61962
55.255 10.462609
55.260 10.590549
55.265 10.013363
55.270 9.701521
55.275 9.46034
55.280 9.832893
55.285 10.095896
55.290 10.334227
55.295 10.552465
55.300 11.233829
55.305 11.662342
55.310 11.887254
55.315 11.760055
55.320 11.285699
55.325 11.632664
55.330 11.983912
55.335 11.501179
55.340 11.24684
55.345 11.60164
55.350 11.523765
55.355 12.135396
55.360 12.236499
55.365 12.625824
55.370 12.900266
55.375 12.877707
55.380 12.589805
55.385 12.380512
55.390 12.046915
55.395 11.704926
55.400 11.261149
55.405 11.072494
55.410 11.002924
55.415 10.736398
55.420 10.884831
55.425 10.422797
55.430 9.967176
55.435 9.49077
55.440 9.359042
55.445 9.563514
55.450 9.856853
55.455 9.710609
55.460 9.909874
55.465 10.478426
55.470 11.08014
55.475 11.493483
55.480 11.253583
55.485 11.701089
55.490 11.574332
55.495 11.653308
55.500 11.255136
55.505 11.428722
55.510 11.34324
55.515 11.300788
55.520 11.380855
55.525 11.592638
55.530 11.357045
55.535 11.721089
55.540 11.641723
55.545 11.976885
55.550 11.88207
55.555 11.346898
55.560 10.953497
55.565 11.158133
55.570 11.304048
55.575 11.029959
55.580 10.754475
55.585 11.408171
55.590 11.856801
55.595 11.788376
55.600 11.682895
55.605 11.695454
55.610 11.790702
55.615 11.705717
55.620 11.012423
55.625 10.91221
55.630 11.061919
55.635 10.777179
55.640 10.820133
55.645 11.00295
55.650 11.182638
55.655 11.042109
55.660 11.069303
55.665 11.21211
55.670 11.40162
55.675 11.449059
55.680 11.448
55.685 12.013566
55.690 12.630857
55.695 12.951328
55.700 12.957163
55.705 12.654867
55.710 12.39595
55.715 11.8001
55.720 11.286184
55.725 10.611667
55.730 10.326425
55.735 10.152357
55.740 9.907295
55.745 9.527603
55.750 9.733348
55.755 9.746922
55.760 10.105202
55.765 10.341494
55.770 10.870789
55.775 10.915697
55.780 10.787971
55.785 11.061912
55.790 11.305365
55.795 11.619973
55.800 11.690774
55.805 11.249082
55.810 11.297183
55.815 11.645383
55.820 11.319678
55.825 10.868254
55.830 10.136142
55.835 10.00375
55.840 10.254068
55.845 10.40016
55.850 10.495612
55.855 10.824143
55.860 11.024306
55.865 11.29321
55.870 11.795341
55.875 11.874134
55.880 11.919651
55.885 12.513027
55.890 12.412158
55.895 12.365124
55.900 12.264986
55.905 11.975123
55.910 12.326156
55.915 12.507424
55.920 12.044968
55.925 12.408392
55.930 13.119547
55.935 13.304238
55.940 13.468118
55.945 13.464123
55.950 13.430226
55.955 13.023125
55.960 12.191765
55.965 11.788222
55.970 11.523965
55.975 11.735391
55.980 11.269488
55.985 11.253063
55.990 11.292227
55.995 11.372799
56.000 11.431927
56.005 11.241659
56.010 11.219671
56.015 11.476932
56.020 12.183132
56.025 12.624855
56.030 12.715
56.035 13.100957
56.040 12.921645
56.045 12.390774
56.050 12.139806
56.055 11.344677
56.060 10.879951
56.065 10.26356
56.070 9.753814
56.075 9.917714
56.080 9.828278
56.085 9.840014
56.090 10.096576
56.095 10.395404
56.100 10.873173
56.105 10.915087
56.110 10.987336
56.115 11.251717
56.120 11.337058
56.125 11.085347
56.130 10.863252
56.135 10.532969
56.140 10.7606
56.145 11.565383
56.150 11.095168
56.155 11.221171
56.160 11.883348
56.165 12.336148
56.170 12.4896
56.175 12.270586
56.180 11.565536
56.185 11.670598
56.190 11.631574
56.195 11.287474
56.200 11.031966
56.205 11.138677
56.210 11.162232
56.215 11.841748
56.220 12.143155
56.225 12.327658
56.230 12.756035
56.235 13.288316
56.240 13.382072
56.245 13.678343
56.250 13.645301
56.255 13.980313
56.260 13.706302
56.265 13.335846
56.270 12.6122
56.275 12.646479
56.280 12.057466
56.285 11.40539
56.290 10.715776
56.295 10.749791
56.300 11.268817
56.305 11.242626
56.310 11.084899
56.315 11.481937
56.320 11.516025
56.325 11.553027
56.330 11.842995
56.335 11.880758
56.340 12.056422
56.345 11.939619
56.350 11.708408
56.355 11.84884
56.360 11.66519
56.365 11.30774
56.370 11.340332
56.375 11.500172
56.380 11.543086
56.385 11.304218
56.390 11.434023
56.395 11.434718
56.400 11.324714
56.405 11.307045
56.410 11.663877
56.415 12.173929
56.420 12.373823
56.425 12.478137
56.430 12.440849
56.435 12.128574
56.440 12.293283
56.445 11.999809
56.450 11.712626
56.455 11.958982
56.460 11.88815
56.465 11.812682
56.470 11.99167
56.475 11.799459
56.480 11.715715
56.485 11.399258
56.490 11.691561
56.495 11.891522
56.500 12.190423
56.505 12.283152
56.510 12.326294
56.515 12.20758
56.520 12.440532
56.525 12.281535
56.530 12.630172
56.535 12.605676
56.540 12.36065
56.545 12.079017
56.550 12.465189
56.555 12.482455
56.560 12.064945
56.565 11.570451
56.570 11.491526
56.575 11.927666
56.580 12.194737
56.585 11.525519
56.590 11.4404
56.595 11.482504
56.600 11.777176
56.605 11.879926
56.610 11.433548
56.615 11.57413
56.620 11.90969
56.625 11.944283
56.630 11.60139
56.635 11.600951
56.640 11.70722
56.645 11.771133
56.650 11.680116
56.655 11.72261
56.660 11.575363
56.665 11.364863
56.670 10.905493
56.675 10.99079
56.680 11.001462
56.685 11.288928
56.690 11.234756
56.695 11.42097
56.700 12.220381
56.705 12.544954
56.710 12.467578
56.715 12.447762
56.720 12.421785
56.725 12.768394
56.730 13.112756
56.735 12.996229
56.740 12.556523
56.745 12.203608
56.750 12.292831
56.755 12.385471
56.760 12.157496
56.765 12.571659
56.770 12.943946
56.775 13.137196
56.780 13.335816
56.785 13.368749
56.790 13.382195
56.795 13.102308
56.800 12.392952
56.805 11.904886
56.810 11.91948
56.815 12.030647
56.820 11.927339
56.825 12.078565
56.830 12.225087
56.835 12.873504
56.840 14.034771
56.845 14.463839
56.850 14.549531
56.855 14.509768
56.860 14.408298
56.865 14.391701
56.870 14.00218
56.875 13.688306
56.880 13.178073
56.885 12.794104
56.890 12.596103
56.895 12.141043
56.900 11.753097
56.905 11.195101
56.910 10.95882
56.915 11.353234
56.920 11.357524
56.925 11.698298
56.930 12.278014
56.935 12.698076
56.940 13.127586
56.945 13.058835
56.950 12.920315
56.955 12.978657
56.960 12.712206
56.965 12.973454
56.970 13.020509
56.975 12.887716
56.980 12.873545
56.985 13.056997
56.990 12.889465
56.995 13.014885
57.000 12.490584
57.005 12.033276
57.010 11.740406
57.015 11.726108
57.020 11.660633
57.025 11.504764
57.030 11.482646
57.035 11.512677
57.040 11.672352
57.045 11.786617
57.050 12.225948
57.055 12.495049
57.060 12.887743
57.065 12.754077
57.070 12.62128
57.075 12.909158
57.080 13.204406
57.085 12.898204
57.090 12.762259
57.095 13.016106
57.100 13.323779
57.105 13.817675
57.110 13.839382
57.115 13.647241
57.120 13.633902
57.125 13.717149
57.130 13.378345
57.135 13.388968
57.140 12.896129
57.145 12.651635
57.150 12.643176
57.155 12.304929
57.160 11.964734
57.165 11.686892
57.170 11.761087
57.175 12.216436
57.180 12.284631
57.185 12.593509
57.190 12.942636
57.195 13.336257
57.200 13.546431
57.205 13.186769
57.210 12.842641
57.215 12.795008
57.220 12.370743
57.225 12.226492
57.230 12.071311
57.235 11.939087
57.240 11.907508
57.245 11.602954
57.250 11.323196
57.255 11.023348
57.260 10.978456
57.265 10.882684
57.270 10.692478
57.275 10.659819
57.280 10.79636
57.285 10.864722
57.290 11.119594
57.295 11.065112
57.300 11.576268
57.305 12.347051
57.310 12.669782
57.315 13.583305
57.320 14.856953
57.325 15.305176
57.330 15.602197
57.335 15.082241
57.340 14.441957
57.345 14.275995
57.350 13.697164
57.355 13.11464
57.360 12.992849
57.365 13.351324
57.370 13.443199
57.375 13.642526
57.380 13.600338
57.385 12.839876
57.390 12.655739
57.395 12.63448
57.400 12.728616
57.405 13.017235
57.410 13.108285
57.415 13.292038
57.420 13.34868
57.425 13.162411
57.430 12.950397
57.435 12.626
57.440 13.104657
57.445 13.400805
57.450 13.496413
57.455 13.716882
57.460 13.92197
57.465 13.816542
57.470 13.768512
57.475 13.107867
57.480 12.850469
57.485 13.000915
57.490 12.998312
57.495 13.366616
57.500 13.267782
57.505 13.018292
57.510 13.087845
57.515 13.204642
57.520 13.04365
57.525 12.620743
57.530 12.583754
57.535 12.927964
57.540 13.10741
57.545 13.213693
57.550 13.420951
57.555 13.252932
57.560 13.102494
57.565 12.758115
57.570 12.853658
57.575 12.920288
57.580 12.406105
57.585 12.430818
57.590 12.931281
57.595 13.324149
57.600 13.475498
57.605 13.560113
57.610 13.863137
57.615 13.902719
57.620 13.878069
57.625 13.915544
57.630 14.034454
57.635 14.150892
57.640 14.391731
57.645 14.219063
57.650 14.467784
57.655 13.930588
57.660 13.927413
57.665 13.768501
57.670 13.018337
57.675 12.226163
57.680 12.001226
57.685 12.119999
57.690 13.01069
57.695 13.501573
57.700 13.982235
57.705 14.329347
57.710 14.691506
57.715 15.109405
57.720 14.692779
57.725 14.370372
57.730 13.792441
57.735 13.443175
57.740 13.297569
57.745 13.100121
57.750 13.298324
57.755 13.337828
57.760 13.151735
57.765 13.096428
57.770 13.030034
57.775 13.436356
57.780 13.304707
57.785 12.867707
57.790 12.810587
57.795 12.97082
57.800 13.419911
57.805 13.525439
57.810 13.535867
57.815 14.131203
57.820 14.768261
57.825 15.164891
57.830 15.076421
57.835 15.021895
57.840 15.10076
57.845 14.879678
57.850 14.587004
57.855 13.751348
57.860 13.449217
57.865 13.058772
57.870 12.566429
57.875 12.616801
57.880 12.930105
57.885 12.738642
57.890 13.148381
57.895 13.135592
57.900 12.866656
57.905 12.81133
57.910 12.605726
57.915 12.115952
57.920 12.340111
57.925 12.303638
57.930 12.080935
57.935 12.711101
57.940 12.859832
57.945 13.250942
57.950 13.553508
57.955 13.268532
57.960 12.969874
57.965 13.538432
57.970 13.572327
57.975 13.438029
57.980 13.163335
57.985 13.056534
57.990 13.367646
57.995 14.103697
58.000 13.988815
58.005 13.76099
58.010 13.610696
58.015 13.458493
58.020 13.310176
58.025 13.021447
58.030 12.473962
58.035 12.24143
58.040 12.406641
58.045 12.260474
58.050 12.39013
58.055 12.680092
58.060 13.268785
58.065 13.320449
58.070 12.87871
58.075 12.617743
58.080 13.438072
58.085 13.287578
58.090 12.994846
58.095 12.496562
58.100 12.877853
58.105 13.579998
58.110 14.38169
58.115 14.349368
58.120 14.78217
58.125 15.210734
58.130 15.202655
58.135 15.086163
58.140 14.71695
58.145 14.131752
58.150 14.133376
58.155 14.232218
58.160 14.207188
58.165 14.052011
58.170 14.077208
58.175 14.191274
58.180 14.274833
58.185 14.261819
58.190 13.932103
58.195 13.157494
58.200 13.147347
58.205 13.447143
58.210 13.923086
58.215 14.099306
58.220 13.930402
58.225 14.021368
58.230 14.850447
58.235 15.550054
58.240 15.345876
58.245 14.712885
58.250 14.350672
58.255 14.663098
58.260 15.052791
58.265 15.070204
58.270 14.581233
58.275 14.476521
58.280 14.66802
58.285 14.127042
58.290 13.867653
58.295 13.717923
58.300 13.760999
58.305 13.691998
58.310 13.55162
58.315 13.562671
58.320 13.944933
58.325 13.797704
58.330 13.937298
58.335 13.756128
58.340 13.360059
58.345 13.817971
58.350 13.822284
58.355 13.342163
58.360 13.197579
58.365 13.06151
58.370 12.942462
58.375 13.414433
58.380 13.049
58.385 13.281603
58.390 13.960135
58.395 14.174389
58.400 14.538176
58.405 14.704934
58.410 14.255312
58.415 13.980874
58.420 14.312981
58.425 14.228223
58.430 14.212769
58.435 14.057853
58.440 14.439603
58.445 14.996952
58.450 15.089575
58.455 14.66796
58.460 14.583826
58.465 14.310231
58.470 14.083026
58.475 14.096346
58.480 14.86055
58.485 15.081224
58.490 15.257038
58.495 15.928324
58.500 16.012306
58.505 16.511713
58.510 16.038923
58.515 15.280451
58.520 15.158512
58.525 14.719796
58.530 14.18116
58.535 14.019333
58.540 13.179848
58.545 12.84106
58.550 13.099285
