!@!!GADDS PLOTSO FILE: Chi integration type
!@!!Title/SampleName: map-6
!@!!Comment: ?
!@!!User: Bruker Instrument Administrator
!@!!Site: University of Illinois Chicago
!@!!Frame: map-6_01_000.gfrm
!@!!Wavelengths    1.54184   1.54056   1.54439
!@!!Frame angles: 2Theta: 63.000 Omega: 50.000 Phi: 0.000 Chi: 90.000
!@!!Integration range: 2Theta: 53.000 to 73.000  Gamma: -105.000 to -75.000
!@!!Integration method: bin normalized
!@!N
!@!SS
!@!M
!@!L 0.0 0.0 0.0 0.0
!@!XDegrees
!@!YCounts
53.000 8.00635
53.005 7.952911
53.010 7.737375
53.015 7.55437
53.020 7.77766
53.025 7.742126
53.030 7.942564
53.035 7.918512
53.040 7.840391
53.045 7.783991
53.050 7.740491
53.055 7.949703
53.060 7.526175
53.065 7.302258
53.070 7.133865
53.075 7.194824
53.080 7.383903
53.085 7.494462
53.090 7.689754
53.095 8.004186
53.100 8.323361
53.105 8.331961
53.110 8.409399
53.115 8.708444
53.120 8.748263
53.125 8.729486
53.130 8.544238
53.135 8.448861
53.140 8.898601
53.145 8.930125
53.150 8.701777
53.155 8.757058
53.160 8.996425
53.165 9.601295
53.170 9.592747
53.175 9.417932
53.180 9.151286
53.185 8.97441
53.190 8.935757
53.195 8.399144
53.200 8.260529
53.205 8.14009
53.210 8.085679
53.215 8.293634
53.220 8.60544
53.225 8.914932
53.230 9.030484
53.235 9.069491
53.240 9.305483
53.245 9.615637
53.250 9.320498
53.255 9.16225
53.260 9.06539
53.265 9.294914
53.270 9.2441
53.275 9.264843
53.280 9.145266
53.285 8.978426
53.290 8.633252
53.295 8.224712
53.300 8.035236
53.305 7.998438
53.310 7.713683
53.315 7.794615
53.320 7.988841
53.325 7.921381
53.330 8.242225
53.335 8.430031
53.340 8.376256
53.345 8.120921
53.350 7.984839
53.355 8.137768
53.360 7.958284
53.365 7.585557
53.370 7.504909
53.375 7.589245
53.380 7.78248
53.385 7.719892
53.390 7.795152
53.395 8.43652
53.400 8.535898
53.405 8.058318
53.410 7.925431
53.415 7.949871
53.420 7.983329
53.425 7.907903
53.430 7.404716
53.435 7.491444
53.440 7.982921
53.445 8.147785
53.450 8.532793
53.455 9.118349
53.460 9.16741
53.465 9.388828
53.470 9.403875
53.475 9.16044
53.480 9.361493
53.485 9.305202
53.490 9.379494
53.495 9.363356
53.500 9.531605
53.505 9.759445
53.510 9.865123
53.515 9.6535
53.520 9.147801
53.525 8.948048
53.530 8.800189
53.535 8.288892
53.540 7.76814
53.545 7.569108
53.550 7.898582
53.555 7.646414
53.560 7.628085
53.565 7.733567
53.570 8.380105
53.575 8.689656
53.580 9.022618
53.585 9.173565
53.590 9.800989
53.595 10.035619
53.600 9.975922
53.605 9.792497
53.610 9.703584
53.615 9.445432
53.620 9.105724
53.625 9.165476
53.630 9.480523
53.635 9.923918
53.640 10.249044
53.645 10.221273
53.650 10.295021
53.655 9.941272
53.660 9.639021
53.665 9.421977
53.670 9.116347
53.675 9.298937
53.680 9.774723
53.685 9.842927
53.690 10.165215
53.695 10.019977
53.700 10.057037
53.705 9.874435
53.710 9.458084
53.715 9.184056
53.720 8.726119
53.725 8.314553
53.730 8.535803
53.735 8.41369
53.740 8.376023
53.745 8.326792
53.750 8.154208
53.755 8.568197
53.760 8.884234
53.765 8.832622
53.770 8.507995
53.775 8.468547
53.780 8.656952
53.785 8.761913
53.790 8.839036
53.795 8.749635
53.800 9.046831
53.805 9.535718
53.810 9.576156
53.815 9.40297
53.820 9.315423
53.825 9.215779
53.830 9.427212
53.835 9.599407
53.840 9.417237
53.845 9.506249
53.850 9.366002
53.855 9.306
53.860 9.268778
53.865 8.880259
53.870 8.88726
53.875 9.442642
53.880 9.410717
53.885 9.696577
53.890 9.708116
53.895 10.024644
53.900 9.949146
53.905 9.715322
53.910 9.465143
53.915 9.362804
53.920 9.357778
53.925 9.533741
53.930 9.659301
53.935 9.797031
53.940 9.894487
53.945 10.015622
53.950 10.141674
53.955 10.230422
53.960 10.14176
53.965 9.73243
53.970 9.481517
53.975 9.258028
53.980 9.296344
53.985 8.963073
53.990 8.603795
53.995 8.152669
54.000 8.244558
54.005 8.203823
54.010 7.957018
54.015 8.331722
54.020 8.559735
54.025 8.690582
54.030 9.270708
54.035 9.57024
54.040 10.000318
54.045 10.118694
54.050 9.775129
54.055 9.925904
54.060 9.769321
54.065 9.650669
54.070 9.750984
54.075 9.714075
54.080 9.815732
54.085 9.529806
54.090 9.535758
54.095 9.799671
54.100 9.763512
54.105 9.415902
54.110 9.135386
54.115 9.132855
54.120 9.2188
54.125 9.093459
54.130 8.915144
54.135 8.471888
54.140 8.622323
54.145 8.55545
54.150 8.565304
54.155 8.629653
54.160 8.580592
54.165 8.464471
54.170 8.814614
54.175 9.024388
54.180 9.446346
54.185 9.394212
54.190 9.586411
54.195 9.957404
54.200 10.587602
54.205 10.982054
54.210 11.137328
54.215 11.102141
54.220 11.006361
54.225 11.220874
54.230 11.220009
54.235 10.915442
54.240 10.774325
54.245 10.198771
54.250 9.916581
54.255 9.860407
54.260 9.491995
54.265 9.157012
54.270 9.044348
54.275 8.699553
54.280 9.057345
54.285 9.556571
54.290 9.47188
54.295 9.797381
54.300 10.065641
54.305 10.183423
54.310 10.499308
54.315 10.569056
54.320 10.437461
54.325 10.209128
54.330 9.82636
54.335 9.833049
54.340 9.960645
54.345 9.582086
54.350 9.211761
54.355 9.436135
54.360 9.242834
54.365 9.058938
54.370 8.799397
54.375 8.69785
54.380 8.905468
54.385 9.344434
54.390 9.687015
54.395 9.873339
54.400 10.206392
54.405 10.465544
54.410 10.406416
54.415 10.135512
54.420 9.696789
54.425 9.989699
54.430 10.177402
54.435 9.756625
54.440 9.161318
54.445 9.61178
54.450 10.058255
54.455 10.192056
54.460 10.274201
54.465 10.334309
54.470 10.682783
54.475 10.646626
54.480 10.437205
54.485 9.981226
54.490 9.488067
54.495 9.396509
54.500 9.406218
54.505 9.461721
54.510 9.823092
54.515 9.880839
54.520 9.968311
54.525 10.188379
54.530 9.965391
54.535 10.161317
54.540 10.187121
54.545 9.899878
54.550 10.353689
54.555 10.358086
54.560 10.360936
54.565 10.477736
54.570 10.789542
54.575 11.246675
54.580 10.829115
54.585 10.657161
54.590 10.375696
54.595 10.244481
54.600 9.819915
54.605 9.553772
54.610 9.507615
54.615 9.886157
54.620 9.844866
54.625 10.141716
54.630 10.335007
54.635 11.047001
54.640 10.70546
54.645 10.213112
54.650 10.875145
54.655 10.949046
54.660 10.894515
54.665 10.60334
54.670 10.255918
54.675 10.413422
54.680 10.411178
54.685 10.398708
54.690 10.741151
54.695 11.357466
54.700 11.361014
54.705 11.184644
54.710 10.825457
54.715 10.866621
54.720 10.244586
54.725 9.739889
54.730 9.220613
54.735 9.02
54.740 9.384439
54.745 10.100494
54.750 9.841722
54.755 10.027903
54.760 10.295385
54.765 10.490718
54.770 10.550968
54.775 10.465199
54.780 10.219846
54.785 10.366433
54.790 10.224983
54.795 9.991526
54.800 10.260124
54.805 10.336185
54.810 10.189633
54.815 9.72813
54.820 9.552528
54.825 9.37357
54.830 9.118026
54.835 8.842208
54.840 9.068838
54.845 9.076113
54.850 9.620047
54.855 10.014438
54.860 10.330956
54.865 10.190527
54.870 10.072467
54.875 10.09379
54.880 10.046147
54.885 10.245179
54.890 10.088093
54.895 9.825262
54.900 10.162958
54.905 10.254972
54.910 9.778741
54.915 9.542104
54.920 9.375649
54.925 9.335548
54.930 9.508303
54.935 9.316685
54.940 9.266226
54.945 9.724126
54.950 10.139886
54.955 9.949315
54.960 10.137853
54.965 10.257327
54.970 10.167788
54.975 10.594011
54.980 10.623955
54.985 10.580075
54.990 10.620064
54.995 10.926654
55.000 10.993797
55.005 10.791902
55.010 10.284969
55.015 10.152469
55.020 10.276261
55.025 10.288754
55.030 10.182923
55.035 10.15349
55.040 10.37468
55.045 10.729106
55.050 11.139231
55.055 11.134303
55.060 11.160682
55.065 10.986341
55.070 10.804933
55.075 10.800833
55.080 10.496502
55.085 9.76554
55.090 10.051745
55.095 10.615344
55.100 10.773688
55.105 10.928616
55.110 10.688761
55.115 11.177912
55.120 11.644226
55.125 10.873262
55.130 10.68388
55.135 11.19362
55.140 11.591346
55.145 11.564725
55.150 11.180015
55.155 10.668659
55.160 10.069773
55.165 9.813231
55.170 9.349765
55.175 9.469602
55.180 9.935563
55.185 10.313114
55.190 11.109621
55.195 11.815295
55.200 11.872192
55.205 12.027844
55.210 11.975377
55.215 11.578739
55.220 11.210992
55.225 10.929927
55.230 10.784799
55.235 10.753716
55.240 10.786005
55.245 10.823206
55.250 11.147394
55.255 11.012748
55.260 11.25776
55.265 11.202145
55.270 11.460373
55.275 11.341536
55.280 11.067664
55.285 11.059726
55.290 11.563913
55.295 11.907537
55.300 12.241869
55.305 12.245991
55.310 12.274358
55.315 12.699834
55.320 12.471928
55.325 12.179311
55.330 11.755965
55.335 11.368796
55.340 10.947447
55.345 10.791758
55.350 10.606522
55.355 10.486562
55.360 10.882772
55.365 11.106205
55.370 11.036931
55.375 11.481119
55.380 11.915047
55.385 11.710264
55.390 12.08885
55.395 11.814799
55.400 11.563861
55.405 11.71765
55.410 11.634355
55.415 11.53511
55.420 11.412141
55.425 10.919662
55.430 11.191638
55.435 11.941495
55.440 11.678738
55.445 12.079618
55.450 12.260962
55.455 12.540574
55.460 12.323484
55.465 11.764287
55.470 11.033797
55.475 10.920988
55.480 10.455863
55.485 10.125668
55.490 10.356088
55.495 11.280148
55.500 11.89714
55.505 11.95605
55.510 12.094418
55.515 11.808025
55.520 11.974238
55.525 11.575262
55.530 11.265468
55.535 11.615038
55.540 11.416798
55.545 11.317693
55.550 11.428569
55.555 11.288318
55.560 11.099969
55.565 10.460582
55.570 9.679214
55.575 10.038165
55.580 10.472238
55.585 10.837484
55.590 10.973962
55.595 10.999124
55.600 11.33515
55.605 11.508717
55.610 11.018629
55.615 10.622724
55.620 10.467125
55.625 10.29485
55.630 10.139126
55.635 10.012961
55.640 10.472681
55.645 10.843518
55.650 11.249402
55.655 11.45452
55.660 11.398333
55.665 12.03936
55.670 12.117468
55.675 12.069782
55.680 11.95894
55.685 11.782429
55.690 12.076555
55.695 12.577809
55.700 12.175323
55.705 12.335754
55.710 12.343243
55.715 12.56426
55.720 12.291084
55.725 12.090211
55.730 12.352064
55.735 12.742541
55.740 12.483975
55.745 12.388128
55.750 12.005932
55.755 11.960221
55.760 11.646504
55.765 11.383229
55.770 11.099706
55.775 10.957113
55.780 10.800266
55.785 10.923051
55.790 11.069855
55.795 11.028964
55.800 10.567375
55.805 10.413542
55.810 10.791719
55.815 11.14061
55.820 11.396007
55.825 11.586623
55.830 11.767705
55.835 12.649388
55.840 13.026328
55.845 13.081553
55.850 13.225741
55.855 13.160378
55.860 13.154337
55.865 12.789517
55.870 12.098203
55.875 11.783782
55.880 12.031195
55.885 12.233815
55.890 12.606438
55.895 12.770924
55.900 12.775548
55.905 12.559166
55.910 12.78322
55.915 12.44641
55.920 11.98313
55.925 11.655155
55.930 11.682376
55.935 11.362777
55.940 11.669527
55.945 11.306327
55.950 11.092953
55.955 11.0435
55.960 11.020504
55.965 11.100063
55.970 11.589005
55.975 11.784468
55.980 11.856791
55.985 12.143303
55.990 12.290943
55.995 12.264964
56.000 11.798548
56.005 11.514006
56.010 11.175524
56.015 10.990298
56.020 10.684356
56.025 10.982416
56.030 10.803544
56.035 11.107285
56.040 11.132565
56.045 10.755198
56.050 10.564306
56.055 10.781471
56.060 10.780865
56.065 11.357682
56.070 11.78802
56.075 12.342024
56.080 13.107915
56.085 13.294849
56.090 12.732317
56.095 12.180652
56.100 11.673233
56.105 11.121408
56.110 11.233145
56.115 11.623362
56.120 11.528008
56.125 11.734747
56.130 11.855965
56.135 12.124132
56.140 12.396725
56.145 11.925401
56.150 11.434156
56.155 11.973703
56.160 12.209546
56.165 12.184702
56.170 12.52317
56.175 12.363663
56.180 12.229711
56.185 12.802818
56.190 12.729384
56.195 12.647974
56.200 12.957039
56.205 12.79454
56.210 12.833763
56.215 12.416932
56.220 11.805912
56.225 11.771525
56.230 11.994399
56.235 11.749028
56.240 11.425046
56.245 11.676069
56.250 12.058227
56.255 12.096828
56.260 11.829692
56.265 11.427752
56.270 11.632539
56.275 11.632484
56.280 11.407866
56.285 11.510503
56.290 12.022124
56.295 12.010199
56.300 11.953358
56.305 12.066768
56.310 11.993392
56.315 11.770131
56.320 11.219709
56.325 11.124191
56.330 11.383627
56.335 11.628747
56.340 11.148183
56.345 11.441472
56.350 11.731532
56.355 12.187407
56.360 11.955438
56.365 12.32335
56.370 12.332314
56.375 12.928102
56.380 12.792608
56.385 12.530551
56.390 12.445208
56.395 12.600641
56.400 12.51762
56.405 12.606623
56.410 12.422883
56.415 12.321605
56.420 12.006191
56.425 11.690726
56.430 11.616481
56.435 11.237535
56.440 10.757622
56.445 11.247422
56.450 11.460317
56.455 12.057269
56.460 12.76263
56.465 12.880065
56.470 12.820782
56.475 13.192805
56.480 12.72679
56.485 12.921492
56.490 13.359484
56.495 12.583085
56.500 12.348117
56.505 12.686545
56.510 12.461063
56.515 12.302865
56.520 12.192391
56.525 11.656177
56.530 11.67114
56.535 12.181794
56.540 12.216028
56.545 12.328604
56.550 12.468751
56.555 12.461711
56.560 12.498017
56.565 12.423954
56.570 12.42097
56.575 12.70846
56.580 13.084696
56.585 13.383476
56.590 13.298845
56.595 13.20731
56.600 13.208976
56.605 12.904829
56.610 12.619338
56.615 12.36661
56.620 12.075891
56.625 12.081002
56.630 12.10615
56.635 11.909643
56.640 11.502424
56.645 11.190386
56.650 11.11827
56.655 11.011062
56.660 11.250962
56.665 11.014921
56.670 10.96264
56.675 10.941973
56.680 10.878687
56.685 11.308879
56.690 11.617173
56.695 11.387487
56.700 11.708295
56.705 11.844505
56.710 12.22948
56.715 12.893767
56.720 13.329098
56.725 13.190181
56.730 13.731979
56.735 13.927988
56.740 13.85809
56.745 13.938215
56.750 13.472581
56.755 13.073525
56.760 13.0725
56.765 13.029672
56.770 13.30004
56.775 13.883999
56.780 14.138306
56.785 14.440564
56.790 14.698803
56.795 14.709314
56.800 14.116231
56.805 13.691378
56.810 13.174246
56.815 12.869595
56.820 12.290462
56.825 12.088588
56.830 11.936337
56.835 12.231074
56.840 12.290226
56.845 11.930069
56.850 11.959765
56.855 12.064458
56.860 11.924443
56.865 12.512367
56.870 12.854534
56.875 13.501251
56.880 14.123518
56.885 14.3147
56.890 14.325395
56.895 14.73083
56.900 14.949992
56.905 15.413153
56.910 14.731072
56.915 14.117449
56.920 13.960166
56.925 14.067521
56.930 13.605895
56.935 12.912884
56.940 12.575258
56.945 13.168996
56.950 13.382332
56.955 12.803803
56.960 12.860156
56.965 13.119835
56.970 13.024453
56.975 12.905858
56.980 12.775983
56.985 13.007743
56.990 13.90379
56.995 14.003554
57.000 13.951331
57.005 14.086157
57.010 13.935407
57.015 13.717566
57.020 13.833364
57.025 13.840843
57.030 13.866301
57.035 14.104582
57.040 13.883982
57.045 13.697207
57.050 13.813317
57.055 13.4981
57.060 13.097227
57.065 12.653642
57.070 12.281734
57.075 12.805674
57.080 12.98938
57.085 13.126074
57.090 13.343833
57.095 13.425918
57.100 13.735867
57.105 13.986155
57.110 13.964458
57.115 14.196495
57.120 14.336223
57.125 13.851397
57.130 13.28925
57.135 13.327009
57.140 13.032649
57.145 12.733425
57.150 12.425532
57.155 11.868795
57.160 12.090181
57.165 12.172204
57.170 11.703654
57.175 11.580069
57.180 11.53001
57.185 11.426064
57.190 11.766313
57.195 12.198224
57.200 12.417099
57.205 12.564671
57.210 12.505083
57.215 12.474214
57.220 12.41332
57.225 12.322908
57.230 12.103465
57.235 12.525472
57.240 12.86648
57.245 12.751832
57.250 13.167828
57.255 13.696101
57.260 13.518752
57.265 13.252314
57.270 13.327972
57.275 13.504547
57.280 13.873339
57.285 13.254852
57.290 12.994202
57.295 13.389337
57.300 13.402551
57.305 12.909801
57.310 12.839547
57.315 13.35282
57.320 13.539463
57.325 13.421966
57.330 13.606657
57.335 13.749328
57.340 13.790028
57.345 13.297791
57.350 12.739774
57.355 13.374322
57.360 13.962012
57.365 13.767283
57.370 13.953128
57.375 14.113354
57.380 14.357276
57.385 14.583019
57.390 14.248129
57.395 13.605716
57.400 13.355024
57.405 12.871163
57.410 12.828628
57.415 12.634539
57.420 12.335214
57.425 12.998577
57.430 13.314514
57.435 13.117085
57.440 13.522978
57.445 13.374153
57.450 13.445106
57.455 13.020812
57.460 12.178528
57.465 11.906466
57.470 11.78061
57.475 11.840934
57.480 12.288142
57.485 12.423812
57.490 12.574438
57.495 12.796232
57.500 13.09033
57.505 13.276841
57.510 12.991639
57.515 12.743217
57.520 12.619507
57.525 12.637317
57.530 12.458873
57.535 12.72927
57.540 13.236906
57.545 13.013296
57.550 13.28524
57.555 14.123507
57.560 14.761186
57.565 15.419671
57.570 15.088666
57.575 14.786516
57.580 14.852346
57.585 14.729625
57.590 14.450631
57.595 13.683671
57.600 13.76619
57.605 14.297542
57.610 14.470494
57.615 14.564465
57.620 13.983522
57.625 13.74961
57.630 13.81924
57.635 13.374615
57.640 13.112496
57.645 12.907219
57.650 12.782887
57.655 13.154902
57.660 13.40593
57.665 13.204787
57.670 13.103424
57.675 13.534707
57.680 13.843882
57.685 14.531429
57.690 14.774145
57.695 14.562451
57.700 14.463401
57.705 14.185223
57.710 13.710466
57.715 13.464895
57.720 13.286332
57.725 13.232282
57.730 13.87105
57.735 14.840972
57.740 15.053333
57.745 15.047007
57.750 15.345017
57.755 14.960805
57.760 14.695814
57.765 14.437687
57.770 14.087803
57.775 14.293997
57.780 13.90226
57.785 13.735147
57.790 13.780316
57.795 13.765008
57.800 13.066027
57.805 13.184777
57.810 13.843317
57.815 14.116469
57.820 13.947146
57.825 14.034424
57.830 13.601308
57.835 13.927303
57.840 13.796393
57.845 13.40232
57.850 13.382196
57.855 13.209088
57.860 13.017539
57.865 13.14393
57.870 13.228806
57.875 12.780372
57.880 12.60006
57.885 13.043136
57.890 13.235366
57.895 13.485363
57.900 13.318228
57.905 13.885685
57.910 14.031565
57.915 13.63995
57.920 13.25306
57.925 13.351081
57.930 13.564271
57.935 13.724554
57.940 13.474104
57.945 13.375741
57.950 13.583181
57.955 13.816713
57.960 13.855039
57.965 13.879187
57.970 14.472428
57.975 14.487601
57.980 14.888227
57.985 14.850453
57.990 14.848164
57.995 14.603137
58.000 14.44004
58.005 14.124743
58.010 13.838293
58.015 13.937671
58.020 13.750112
58.025 13.568418
58.030 13.763042
58.035 13.905167
58.040 13.894196
58.045 14.00658
58.050 13.947661
58.055 14.347158
58.060 14.823009
58.065 14.734985
58.070 14.553431
58.075 14.602644
58.080 14.450201
58.085 15.138891
58.090 15.13198
58.095 14.602032
58.100 14.928369
58.105 15.215619
58.110 15.293758
58.115 14.77542
58.120 14.016582
58.125 14.046888
58.130 14.096274
58.135 13.568717
58.140 13.47007
58.145 14.059817
58.150 14.45606
58.155 14.23826
58.160 14.057412
58.165 14.299508
58.170 14.950511
58.175 15.136471
58.180 14.446271
58.185 14.392688
58.190 14.614066
58.195 14.680676
58.200 14.73059
58.205 13.981151
58.210 13.266441
58.215 13.146327
58.220 13.625439
58.225 14.017415
58.230 13.838295
58.235 13.423188
58.240 13.313317
58.245 13.055878
58.250 12.975682
58.255 12.510319
58.260 11.9705
58.265 12.090187
58.270 12.838086
58.275 13.052208
58.280 13.244893
58.285 13.40968
58.290 13.729125
58.295 14.007664
58.300 13.711941
58.305 13.741778
58.310 13.822559
58.315 14.563305
58.320 14.850727
58.325 14.504062
58.330 14.142108
58.335 14.009077
58.340 14.142381
58.345 14.393942
58.350 14.109032
58.355 13.793069
58.360 13.892632
58.365 14.205112
58.370 14.178974
58.375 13.608041
58.380 14.016521
58.385 14.14102
58.390 13.742332
58.395 13.792412
58.400 13.802797
58.405 13.941047
58.410 13.833104
58.415 13.457838
58.420 12.811506
58.425 13.264524
58.430 13.292237
58.435 13.486917
58.440 14.123908
58.445 14.337286
58.450 14.366503
58.455 15.196432
58.460 15.513672
58.465 15.680117
58.470 15.250715
58.475 14.808599
58.480 15.022327
58.485 15.3027
58.490 14.894575
58.495 14.517606
58.500 14.561262
58.505 14.653599
58.510 14.37499
58.515 13.628311
58.520 13.338272
58.525 13.353922
