!@!!GADDS PLOTSO FILE: Chi integration type
!@!!Title/SampleName: map-140
!@!!Comment: ?
!@!!User: Bruker Instrument Administrator
!@!!Site: University of Illinois Chicago
!@!!Frame: map-140_01_000.gfrm
!@!!Wavelengths    1.54184   1.54056   1.54439
!@!!Frame angles: 2Theta: 63.000 Omega: 50.000 Phi: 0.000 Chi: 90.000
!@!!Integration range: 2Theta: 53.000 to 73.000  Gamma: -105.000 to -75.000
!@!!Integration method: bin normalized
!@!N
!@!SS
!@!M
!@!L 0.0 0.0 0.0 0.0
!@!XDegrees
!@!YCounts
53.000 7.954278
53.005 8.55748
53.010 8.833535
53.015 8.975914
53.020 8.675575
53.025 8.554613
53.030 8.645773
53.035 8.46912
53.040 7.863871
53.045 7.629857
53.050 7.450124
53.055 7.827954
53.060 8.20952
53.065 8.255034
53.070 7.991952
53.075 8.059949
53.080 8.429701
53.085 8.473541
53.090 8.249048
53.095 8.166279
53.100 8.494574
53.105 8.952687
53.110 9.042548
53.115 8.723228
53.120 8.984479
53.125 9.251879
53.130 9.190078
53.135 8.726372
53.140 8.50735
53.145 8.470122
53.150 8.743425
53.155 8.894092
53.160 8.987954
53.165 9.395674
53.170 9.799221
53.175 10.05888
53.180 10.279927
53.185 10.132281
53.190 9.487171
53.195 9.063138
53.200 8.574059
53.205 8.186467
53.210 7.76064
53.215 7.932856
53.220 8.351975
53.225 8.670763
53.230 8.441182
53.235 8.32455
53.240 8.505625
53.245 8.68049
53.250 8.028315
53.255 7.350799
53.260 7.561564
53.265 7.66199
53.270 7.584242
53.275 7.917915
53.280 8.099104
53.285 8.497252
53.290 8.633397
53.295 8.315569
53.300 8.77443
53.305 8.791988
53.310 8.763085
53.315 8.659128
53.320 8.905083
53.325 9.154483
53.330 9.341824
53.335 9.082494
53.340 8.723021
53.345 8.753053
53.350 8.607555
53.355 8.37999
53.360 8.236001
53.365 8.04112
53.370 8.432861
53.375 8.844868
53.380 9.082907
53.385 9.22598
53.390 9.56074
53.395 10.221636
53.400 10.303243
53.405 10.284524
53.410 10.05755
53.415 9.852368
53.420 9.557887
53.425 9.630299
53.430 9.106653
53.435 9.09995
53.440 9.141844
53.445 9.228888
53.450 9.605306
53.455 9.683839
53.460 9.412457
53.465 9.368812
53.470 9.46342
53.475 9.232864
53.480 9.170631
53.485 9.097281
53.490 9.109231
53.495 9.372206
53.500 9.543991
53.505 9.776985
53.510 10.17507
53.515 10.025855
53.520 10.182769
53.525 10.353389
53.530 10.297681
53.535 10.200488
53.540 9.988825
53.545 10.301844
53.550 10.330136
53.555 10.110349
53.560 10.027909
53.565 10.260576
53.570 10.138767
53.575 9.696779
53.580 9.431524
53.585 9.67216
53.590 9.59616
53.595 8.912074
53.600 9.199458
53.605 9.436112
53.610 9.090016
53.615 8.460328
53.620 8.241953
53.625 8.531874
53.630 8.985248
53.635 8.741777
53.640 9.272179
53.645 9.740335
53.650 10.309218
53.655 10.751657
53.660 10.642921
53.665 10.104263
53.670 9.759336
53.675 9.613972
53.680 9.33362
53.685 8.896832
53.690 9.065971
53.695 8.980762
53.700 9.296718
53.705 9.117635
53.710 9.307361
53.715 9.714129
53.720 9.642658
53.725 9.545584
53.730 10.010917
53.735 10.437669
53.740 10.826348
53.745 10.485453
53.750 10.138024
53.755 10.146791
53.760 9.894708
53.765 9.867859
53.770 9.405203
53.775 8.937865
53.780 9.169548
53.785 9.431957
53.790 9.665075
53.795 10.145904
53.800 10.310207
53.805 10.569779
53.810 11.223989
53.815 11.269426
53.820 11.052266
53.825 10.702806
53.830 9.960105
53.835 9.462143
53.840 9.221982
53.845 8.783723
53.850 8.869596
53.855 9.175596
53.860 9.383814
53.865 9.821978
53.870 10.330329
53.875 10.221419
53.880 10.104218
53.885 10.019041
53.890 9.90097
53.895 10.023029
53.900 9.968699
53.905 10.032466
53.910 10.15779
53.915 10.533864
53.920 10.903955
53.925 10.994574
53.930 11.005756
53.935 10.904782
53.940 10.605871
53.945 10.760758
53.950 10.226552
53.955 9.5454
53.960 9.357139
53.965 9.608742
53.970 9.618374
53.975 9.362273
53.980 9.0509
53.985 9.512246
53.990 10.067128
53.995 9.735344
54.000 9.220444
54.005 9.313427
54.010 10.125887
54.015 10.096532
54.020 9.289434
54.025 8.852201
54.030 9.48574
54.035 9.767725
54.040 9.640096
54.045 9.623737
54.050 9.808527
54.055 10.30042
54.060 10.158839
54.065 9.625236
54.070 9.68207
54.075 9.4286
54.080 9.57618
54.085 9.704765
54.090 9.520494
54.095 9.893936
54.100 10.057194
54.105 10.217936
54.110 10.26269
54.115 9.752382
54.120 9.927446
54.125 9.898722
54.130 9.656152
54.135 10.006235
54.140 10.634003
54.145 10.914129
54.150 11.227786
54.155 11.027329
54.160 11.077631
54.165 10.822288
54.170 10.507106
54.175 9.704268
54.180 9.562799
54.185 9.560033
54.190 9.780597
54.195 9.818596
54.200 10.038837
54.205 9.971242
54.210 10.325558
54.215 10.409675
54.220 10.713477
54.225 10.76958
54.230 11.058408
54.235 11.20468
54.240 10.909312
54.245 10.669148
54.250 10.474434
54.255 10.23722
54.260 9.878501
54.265 9.399412
54.270 8.960443
54.275 8.547702
54.280 8.042531
54.285 8.230429
54.290 8.360088
54.295 8.760258
54.300 8.963857
54.305 9.551134
54.310 10.190228
54.315 10.38804
54.320 10.402831
54.325 10.40118
54.330 10.291786
54.335 10.352931
54.340 10.291558
54.345 10.918082
54.350 11.26531
54.355 11.274205
54.360 10.996838
54.365 11.050056
54.370 11.086318
54.375 10.926417
54.380 10.366912
54.385 10.062365
54.390 9.977036
54.395 9.777343
54.400 9.853841
54.405 10.145583
54.410 10.339953
54.415 10.134773
54.420 10.135746
54.425 10.431417
54.430 10.763673
54.435 10.551088
54.440 10.65154
54.445 10.655862
54.450 10.87974
54.455 11.076115
54.460 10.779188
54.465 10.476718
54.470 10.09701
54.475 9.942811
54.480 10.25883
54.485 10.233611
54.490 10.248281
54.495 10.514761
54.500 10.768965
54.505 10.992053
54.510 10.408507
54.515 10.098567
54.520 10.052476
54.525 9.865726
54.530 10.248131
54.535 10.41327
54.540 10.501828
54.545 10.59848
54.550 10.79136
54.555 10.599621
54.560 10.469139
54.565 10.271302
54.570 10.026161
54.575 10.106818
54.580 9.936474
54.585 9.913583
54.590 9.842199
54.595 9.931202
54.600 10.53682
54.605 10.40043
54.610 10.382863
54.615 10.783566
54.620 11.274027
54.625 11.592773
54.630 11.458588
54.635 11.033751
54.640 10.444117
54.645 10.142747
54.650 10.040259
54.655 9.950774
54.660 10.148785
54.665 9.789233
54.670 9.803391
54.675 10.458906
54.680 10.631009
54.685 11.178621
54.690 11.045728
54.695 10.981198
54.700 11.606936
54.705 11.542763
54.710 12.028129
54.715 11.710122
54.720 10.816043
54.725 10.633895
54.730 10.097523
54.735 10.060358
54.740 10.253839
54.745 9.90563
54.750 9.824943
54.755 10.12338
54.760 10.23789
54.765 10.137874
54.770 10.12135
54.775 9.818275
54.780 10.068282
54.785 10.19427
54.790 9.998446
54.795 9.939591
54.800 10.056355
54.805 10.058243
54.810 9.991309
54.815 9.802554
54.820 9.866128
54.825 9.998141
54.830 10.161143
54.835 10.193686
54.840 9.985402
54.845 9.831717
54.850 10.15457
54.855 10.106532
54.860 9.788375
54.865 9.617089
54.870 9.662229
54.875 9.964326
54.880 10.241681
54.885 9.964676
54.890 9.987947
54.895 10.082282
54.900 10.230577
54.905 10.206878
54.910 10.178563
54.915 9.79265
54.920 9.731029
54.925 9.727788
54.930 9.80488
54.935 9.55956
54.940 9.776732
54.945 9.918229
54.950 10.555019
54.955 10.492366
54.960 10.553767
54.965 10.799864
54.970 11.214089
54.975 10.715604
54.980 10.825719
54.985 10.815042
54.990 11.102728
54.995 11.228456
55.000 10.803638
55.005 10.560779
55.010 10.702581
55.015 10.038613
55.020 10.341957
55.025 10.64255
55.030 10.415143
55.035 10.488391
55.040 10.69101
55.045 10.6077
55.050 10.937538
55.055 10.816936
55.060 10.740891
55.065 11.175584
55.070 11.106686
55.075 11.011722
55.080 11.106673
55.085 10.60816
55.090 10.006715
55.095 9.613138
55.100 9.409136
55.105 9.403223
55.110 9.304438
55.115 9.269046
55.120 9.797135
55.125 9.960334
55.130 10.291435
55.135 10.738124
55.140 10.903967
55.145 11.194525
55.150 11.342319
55.155 10.996237
55.160 10.804549
55.165 10.064993
55.170 9.998476
55.175 10.618577
55.180 10.844746
55.185 10.783416
55.190 10.925806
55.195 11.481741
55.200 11.770818
55.205 11.359113
55.210 11.140755
55.215 11.094585
55.220 11.453773
55.225 11.828214
55.230 11.934529
55.235 11.794058
55.240 11.621639
55.245 11.143116
55.250 10.628705
55.255 10.280989
55.260 10.060671
55.265 10.144373
55.270 10.868361
55.275 10.981401
55.280 11.045384
55.285 11.342196
55.290 11.135297
55.295 10.992997
55.300 10.652645
55.305 10.249683
55.310 10.405413
55.315 10.06988
55.320 10.119396
55.325 10.092696
55.330 10.132858
55.335 9.983369
55.340 10.092101
55.345 10.481402
55.350 10.827877
55.355 10.853935
55.360 10.97251
55.365 10.954292
55.370 10.849811
55.375 10.612299
55.380 10.017282
55.385 10.008128
55.390 9.589791
55.395 9.295432
55.400 9.212441
55.405 9.118007
55.410 8.950852
55.415 9.145766
55.420 9.410462
55.425 9.844304
55.430 10.295252
55.435 10.296256
55.440 10.486324
55.445 10.364202
55.450 10.583196
55.455 10.483932
55.460 10.492923
55.465 10.370797
55.470 10.843261
55.475 10.872161
55.480 10.836735
55.485 10.95369
55.490 11.170838
55.495 10.979339
55.500 10.665444
55.505 10.260821
55.510 10.330377
55.515 9.891121
55.520 9.592016
55.525 9.195067
55.530 9.21589
55.535 9.151894
55.540 8.823923
55.545 8.97636
55.550 9.431569
55.555 9.460749
55.560 9.450832
55.565 9.741131
55.570 9.865848
55.575 10.490759
55.580 10.875903
55.585 10.719329
55.590 10.85311
55.595 11.18072
55.600 11.161042
55.605 11.430962
55.610 10.96461
55.615 10.890427
55.620 11.026368
55.625 10.606008
55.630 10.392002
55.635 10.279311
55.640 10.522212
55.645 10.783298
55.650 10.978803
55.655 11.046706
55.660 11.216247
55.665 11.729065
55.670 11.665314
55.675 11.387353
55.680 11.428236
55.685 11.362837
55.690 11.600231
55.695 11.344941
55.700 10.56341
55.705 10.60637
55.710 10.412457
55.715 10.086056
55.720 9.895963
55.725 9.631284
55.730 9.930348
55.735 9.818474
55.740 9.778849
55.745 10.13735
55.750 10.070694
55.755 10.294159
55.760 10.161494
55.765 10.42956
55.770 10.871115
55.775 10.62174
55.780 10.260071
55.785 10.25767
55.790 9.966107
55.795 10.145697
55.800 10.26696
55.805 10.548166
55.810 10.65129
55.815 10.845081
55.820 11.136118
55.825 11.207172
55.830 10.810824
55.835 10.849254
55.840 10.442647
55.845 10.086996
55.850 9.584282
55.855 9.41796
55.860 9.408541
55.865 9.286448
55.870 8.890096
55.875 9.417263
55.880 10.146357
55.885 10.567064
55.890 10.075265
55.895 10.173421
55.900 10.622196
55.905 10.887705
55.910 10.634181
55.915 10.42537
55.920 10.523058
55.925 11.12297
55.930 11.031554
55.935 11.065685
55.940 10.86655
55.945 11.205527
55.950 11.713967
55.955 11.672395
55.960 11.357466
55.965 11.03046
55.970 10.42748
55.975 10.366828
55.980 9.568042
55.985 9.327808
55.990 9.178583
55.995 9.642456
56.000 9.807925
56.005 9.870149
56.010 10.072696
56.015 10.761088
56.020 10.558377
56.025 10.620669
56.030 10.475088
56.035 10.41081
56.040 10.277987
56.045 10.12404
56.050 9.713384
56.055 9.743055
56.060 9.74744
56.065 9.993709
56.070 10.415064
56.075 10.79408
56.080 10.553136
56.085 10.494095
56.090 10.584055
56.095 10.430947
56.100 9.947838
56.105 9.741244
56.110 9.8537
56.115 10.200454
56.120 9.95463
56.125 10.105602
56.130 10.520393
56.135 10.519618
56.140 10.910181
56.145 10.804547
56.150 11.194594
56.155 11.660992
56.160 11.565563
56.165 11.829329
56.170 12.197091
56.175 11.748093
56.180 11.363645
56.185 10.824585
56.190 11.112214
56.195 10.909945
56.200 10.70195
56.205 10.110022
56.210 10.381997
56.215 10.673297
56.220 10.720684
56.225 10.906625
56.230 11.339873
56.235 11.449029
56.240 11.688936
56.245 11.48123
56.250 11.257487
56.255 11.036258
56.260 10.590698
56.265 10.583138
56.270 10.512597
56.275 10.823988
56.280 10.704718
56.285 11.1998
56.290 11.555358
56.295 11.904502
56.300 11.969816
56.305 12.166403
56.310 12.085934
56.315 12.129925
56.320 11.905896
56.325 11.912841
56.330 11.802268
56.335 11.563015
56.340 11.038433
56.345 10.771867
56.350 10.877481
56.355 11.398949
56.360 11.334048
56.365 11.011455
56.370 10.835922
56.375 10.649307
56.380 10.636215
56.385 10.498484
56.390 9.699007
56.395 9.582373
56.400 9.911394
56.405 10.180638
56.410 10.940708
56.415 11.668118
56.420 12.690329
56.425 13.41158
56.430 13.815001
56.435 13.998112
56.440 14.319991
56.445 14.049028
56.450 14.047535
56.455 13.580867
56.460 13.282402
56.465 12.717772
56.470 11.891278
56.475 11.576749
56.480 11.316236
56.485 10.767879
56.490 11.241596
56.495 11.213295
56.500 11.187034
56.505 11.445845
56.510 11.316735
56.515 11.609371
56.520 11.682922
56.525 11.084743
56.530 10.966566
56.535 11.237158
56.540 11.30301
56.545 11.674054
56.550 11.715234
56.555 11.684287
56.560 11.702287
56.565 11.617498
56.570 11.528263
56.575 11.383927
56.580 11.346312
56.585 11.829782
56.590 12.172248
56.595 12.172824
56.600 12.111217
56.605 12.280523
56.610 12.165477
56.615 11.754384
56.620 11.286872
56.625 11.720333
56.630 11.86758
56.635 12.011881
56.640 11.858635
56.645 12.094296
56.650 12.682049
56.655 12.503853
56.660 12.357569
56.665 12.973055
56.670 13.174045
56.675 13.829869
56.680 13.993752
56.685 13.780995
56.690 13.988826
56.695 13.777798
56.700 13.343237
56.705 12.88802
56.710 12.271343
56.715 12.366152
56.720 12.175415
56.725 12.611505
56.730 12.614807
56.735 12.84561
56.740 13.720201
56.745 13.633686
56.750 13.104045
56.755 13.070973
56.760 12.53163
56.765 12.061199
56.770 11.633828
56.775 11.62115
56.780 11.488487
56.785 11.674522
56.790 11.788405
56.795 11.913235
56.800 12.33183
56.805 12.692263
56.810 12.719025
56.815 12.891841
56.820 12.800541
56.825 12.630323
56.830 12.087667
56.835 11.656871
56.840 11.12029
56.845 10.762315
56.850 10.719869
56.855 10.57286
56.860 10.580913
56.865 11.538811
56.870 11.948542
56.875 12.059596
56.880 12.38738
56.885 12.466405
56.890 12.856094
56.895 13.017241
56.900 11.893533
56.905 12.159761
56.910 12.337322
56.915 12.121121
56.920 11.485987
56.925 11.04917
56.930 11.211419
56.935 11.856949
56.940 11.369924
56.945 11.217079
56.950 11.271696
56.955 11.617562
56.960 12.031868
56.965 11.764826
56.970 11.977583
56.975 12.327181
56.980 11.777995
56.985 11.756757
56.990 11.977048
56.995 11.476897
57.000 11.380801
57.005 11.075095
57.010 11.145373
57.015 11.771893
57.020 11.977606
57.025 12.113229
57.030 12.327528
57.035 12.488192
57.040 12.476931
57.045 12.413641
57.050 12.346601
57.055 11.92846
57.060 11.071881
57.065 11.027919
57.070 10.895957
57.075 10.469028
57.080 10.141926
57.085 9.846034
57.090 10.310559
57.095 10.419619
57.100 10.451244
57.105 10.892007
57.110 11.142653
57.115 10.965862
57.120 11.12047
57.125 10.771908
57.130 10.84748
57.135 10.802858
57.140 10.50753
57.145 10.557251
57.150 10.616051
57.155 10.548361
57.160 11.027068
57.165 11.707128
57.170 11.920552
57.175 12.046335
57.180 12.106377
57.185 12.174567
57.190 12.555972
57.195 12.390194
57.200 12.428185
57.205 12.061728
57.210 12.062658
57.215 12.199154
57.220 12.03209
57.225 11.692992
57.230 11.61055
57.235 11.158704
57.240 11.099222
57.245 11.029176
57.250 10.939095
57.255 10.977725
57.260 10.589308
57.265 10.746537
57.270 11.191547
57.275 11.4093
57.280 11.290074
57.285 11.425987
57.290 11.41565
57.295 11.812534
57.300 11.541357
57.305 11.239674
57.310 10.917708
57.315 11.575946
57.320 11.830513
57.325 11.950484
57.330 12.223711
57.335 12.222844
57.340 12.359679
57.345 12.671644
57.350 11.796226
57.355 11.956453
57.360 12.525014
57.365 12.74386
57.370 13.093487
57.375 13.13009
57.380 13.458684
57.385 13.671182
57.390 13.621955
57.395 13.231353
57.400 12.781492
57.405 12.508077
57.410 12.388573
57.415 12.134876
57.420 12.335594
57.425 11.865534
57.430 11.596844
57.435 12.04215
57.440 12.030624
57.445 12.071585
57.450 11.813993
57.455 11.777191
57.460 11.960279
57.465 11.729417
57.470 11.193535
57.475 11.070656
57.480 11.674034
57.485 12.020429
57.490 11.777801
57.495 12.00545
57.500 12.312951
57.505 12.458734
57.510 12.464598
57.515 12.005265
57.520 12.14459
57.525 11.800335
57.530 11.05695
57.535 11.202854
57.540 11.266722
57.545 11.459085
57.550 11.510843
57.555 11.009532
57.560 11.339688
57.565 11.465179
57.570 11.209798
57.575 11.320509
57.580 11.2099
57.585 11.024459
57.590 11.502101
57.595 11.707893
57.600 11.837435
57.605 11.668309
57.610 11.071747
57.615 10.726837
57.620 11.239466
57.625 11.161006
57.630 11.468506
57.635 12.030265
57.640 12.609155
57.645 13.093719
57.650 13.418923
57.655 13.332542
57.660 12.978563
57.665 12.208154
57.670 11.490951
57.675 10.705889
57.680 10.639977
57.685 10.729571
57.690 10.922887
57.695 10.593151
57.700 10.568397
57.705 10.348354
57.710 10.39271
57.715 10.018119
57.720 9.5912
57.725 9.389358
57.730 9.975439
57.735 10.379589
57.740 10.647011
57.745 10.758837
57.750 10.766054
57.755 10.37962
57.760 10.447887
57.765 10.353315
57.770 10.372631
57.775 10.661814
57.780 10.668748
57.785 10.94167
57.790 11.474918
57.795 11.961972
57.800 12.038033
57.805 12.250611
57.810 12.467843
57.815 12.357003
57.820 12.469563
57.825 12.329145
57.830 11.911992
57.835 12.089118
57.840 11.813273
57.845 11.944887
57.850 12.172711
57.855 12.081828
57.860 12.353249
57.865 12.480419
57.870 12.113803
57.875 12.268889
57.880 12.344148
57.885 13.148358
57.890 13.046284
57.895 12.909342
57.900 12.614931
57.905 12.816058
57.910 12.597469
57.915 12.463751
57.920 12.058178
57.925 12.230923
57.930 12.505492
57.935 12.509647
57.940 12.187011
57.945 12.239865
57.950 12.03021
57.955 11.627159
57.960 11.245977
57.965 10.703219
57.970 10.841456
57.975 10.835023
57.980 10.74576
57.985 10.454783
57.990 10.946214
57.995 11.561887
58.000 11.548234
58.005 11.892356
58.010 12.432585
58.015 12.759787
58.020 12.668697
58.025 12.720876
58.030 12.704305
58.035 13.107475
58.040 13.043629
58.045 12.70688
58.050 12.670918
58.055 13.382174
58.060 13.262515
58.065 13.501285
58.070 13.512404
58.075 12.94594
58.080 12.343337
58.085 12.124619
58.090 11.616678
58.095 11.353732
58.100 10.91836
58.105 11.027797
58.110 11.152671
58.115 11.312593
58.120 11.067928
58.125 10.588609
58.130 10.314969
58.135 10.565013
58.140 10.514853
58.145 10.956568
58.150 10.966205
58.155 10.847028
58.160 11.087641
58.165 11.250612
58.170 11.487107
58.175 11.382665
58.180 10.664957
58.185 10.541559
58.190 10.703287
58.195 10.970545
58.200 10.93464
58.205 10.758556
58.210 11.324102
58.215 11.793294
58.220 11.724626
58.225 11.789984
58.230 11.894823
58.235 12.17372
58.240 11.741295
58.245 11.315587
58.250 11.328054
58.255 11.891268
58.260 11.689562
58.265 11.77963
58.270 11.404313
58.275 11.194953
58.280 11.513494
58.285 11.968704
58.290 11.646734
58.295 11.712773
58.300 12.012185
58.305 11.922291
58.310 12.19412
58.315 12.230637
58.320 12.044714
58.325 12.483721
58.330 12.502927
58.335 12.244064
58.340 12.637712
58.345 12.369457
58.350 12.346512
58.355 12.657866
58.360 12.712635
58.365 12.822379
58.370 12.978356
58.375 12.834435
58.380 12.871513
58.385 12.512977
58.390 12.200137
58.395 12.227409
58.400 11.878163
58.405 11.697806
58.410 11.726415
58.415 11.895326
58.420 11.754481
58.425 11.898033
58.430 11.928872
58.435 11.864682
58.440 11.69115
58.445 11.693971
58.450 11.480012
58.455 12.053224
58.460 12.239569
58.465 12.62744
58.470 12.698197
58.475 13.341528
58.480 13.88213
58.485 14.184515
58.490 14.064944
58.495 14.158964
58.500 14.330958
58.505 14.261826
58.510 13.905442
58.515 13.357097
58.520 13.05468
58.525 13.377914
