!@!!GADDS PLOTSO FILE: Chi integration type
!@!!Title/SampleName: map-c9
!@!!Comment: ?
!@!!User: Bruker Instrument Administrator
!@!!Site: University of Illinois Chicago
!@!!Frame: map-c9_01_000.gfrm
!@!!Wavelengths    1.54184   1.54056   1.54439
!@!!Frame angles: 2Theta: 63.000 Omega: 50.000 Phi: 0.000 Chi: 90.000
!@!!Integration range: 2Theta: 53.000 to 73.000  Gamma: -105.000 to -75.000
!@!!Integration method: bin normalized
!@!N
!@!SS
!@!M
!@!L 0.0 0.0 0.0 0.0
!@!XDegrees
!@!YCounts
53.000 7.854208
53.005 8.175854
53.010 8.305963
53.015 8.639999
53.020 8.749252
53.025 8.738527
53.030 8.568796
53.035 8.285169
53.040 7.9936
53.045 7.700727
53.050 7.148115
53.055 7.106182
53.060 7.360186
53.065 7.529929
53.070 7.547382
53.075 8.300691
53.080 8.423116
53.085 8.608438
53.090 8.372455
53.095 8.207509
53.100 8.135343
53.105 8.043961
53.110 7.904985
53.115 7.791143
53.120 7.827337
53.125 7.733653
53.130 7.802495
53.135 8.082839
53.140 8.117131
53.145 8.006209
53.150 7.619339
53.155 7.54754
53.160 7.411176
53.165 7.26406
53.170 7.316746
53.175 7.261497
53.180 8.040106
53.185 8.61898
53.190 8.585503
53.195 8.287331
53.200 8.247592
53.205 8.134439
53.210 8.044373
53.215 7.348284
53.220 7.193577
53.225 7.203214
53.230 7.552184
53.235 7.348651
53.240 7.354893
53.245 7.619106
53.250 8.555429
53.255 9.100346
53.260 9.568469
53.265 9.621372
53.270 9.531288
53.275 9.572378
53.280 9.43746
53.285 8.871199
53.290 8.878281
53.295 8.65022
53.300 8.836637
53.305 9.112094
53.310 9.333126
53.315 9.233492
53.320 9.443506
53.325 9.614491
53.330 9.582368
53.335 9.171696
53.340 8.722497
53.345 8.180922
53.350 8.551869
53.355 8.171536
53.360 7.672668
53.365 7.991433
53.370 7.880274
53.375 8.085252
53.380 8.519174
53.385 8.338234
53.390 8.591093
53.395 8.530929
53.400 8.601902
53.405 9.128981
53.410 9.1674
53.415 8.657773
53.420 8.195639
53.425 8.116419
53.430 8.263595
53.435 8.358489
53.440 7.924563
53.445 7.624894
53.450 7.818332
53.455 8.017157
53.460 7.949104
53.465 7.589359
53.470 7.49891
53.475 7.92644
53.480 8.319351
53.485 8.422341
53.490 8.183033
53.495 8.377605
53.500 8.727338
53.505 8.932416
53.510 8.774308
53.515 8.803404
53.520 9.115322
53.525 9.623812
53.530 9.462559
53.535 9.280505
53.540 9.555084
53.545 9.874599
53.550 10.265046
53.555 10.036308
53.560 9.729634
53.565 9.569538
53.570 9.660118
53.575 9.313287
53.580 8.803191
53.585 8.433253
53.590 8.26604
53.595 8.426497
53.600 8.584306
53.605 8.418792
53.610 8.412085
53.615 8.368415
53.620 8.264466
53.625 8.306547
53.630 8.36941
53.635 8.444541
53.640 8.600502
53.645 8.43562
53.650 8.536366
53.655 9.11961
53.660 9.286974
53.665 9.036405
53.670 9.084553
53.675 8.619002
53.680 8.940786
53.685 8.917957
53.690 8.72783
53.695 8.82204
53.700 8.792882
53.705 8.696191
53.710 8.743519
53.715 8.758816
53.720 8.594739
53.725 8.12664
53.730 7.814015
53.735 7.642203
53.740 8.038209
53.745 8.29137
53.750 8.309315
53.755 8.418399
53.760 8.021846
53.765 8.181046
53.770 8.155239
53.775 7.476618
53.780 7.457707
53.785 7.300451
53.790 7.727836
53.795 8.090661
53.800 8.31317
53.805 8.605723
53.810 9.045259
53.815 9.255233
53.820 9.367144
53.825 9.197933
53.830 9.181377
53.835 9.161603
53.840 9.140121
53.845 8.78697
53.850 8.721628
53.855 9.022154
53.860 9.522805
53.865 9.774214
53.870 10.271921
53.875 10.235982
53.880 9.997293
53.885 9.665402
53.890 9.306746
53.895 9.016595
53.900 8.942555
53.905 8.522861
53.910 8.959143
53.915 9.635838
53.920 9.833846
53.925 9.903646
53.930 10.168036
53.935 9.963542
53.940 9.998089
53.945 9.993426
53.950 9.555871
53.955 9.294453
53.960 9.385493
53.965 9.129934
53.970 8.960269
53.975 8.745305
53.980 8.382409
53.985 8.454603
53.990 8.558634
53.995 8.532614
54.000 8.43785
54.005 8.739569
54.010 9.071233
54.015 9.230248
54.020 9.138268
54.025 8.805921
54.030 8.780673
54.035 9.120936
54.040 8.899512
54.045 8.711418
54.050 8.927329
54.055 8.807083
54.060 9.010306
54.065 9.185041
54.070 9.276423
54.075 9.26337
54.080 9.323725
54.085 9.546308
54.090 9.888328
54.095 10.238706
54.100 10.125777
54.105 10.133691
54.110 10.088309
54.115 9.928078
54.120 9.837765
54.125 9.764946
54.130 9.336386
54.135 9.343137
54.140 9.906543
54.145 10.432201
54.150 10.544007
54.155 10.682214
54.160 10.628849
54.165 10.311081
54.170 9.777199
54.175 9.189952
54.180 8.977966
54.185 9.063944
54.190 9.200265
54.195 9.416926
54.200 9.500172
54.205 9.694015
54.210 10.07776
54.215 10.377012
54.220 10.440672
54.225 10.666228
54.230 10.623006
54.235 10.878479
54.240 11.25639
54.245 10.617649
54.250 10.181712
54.255 9.844803
54.260 9.448981
54.265 9.585494
54.270 9.735637
54.275 9.274696
54.280 9.191607
54.285 9.057912
54.290 9.100653
54.295 9.235991
54.300 9.386769
54.305 9.27429
54.310 9.538514
54.315 9.952486
54.320 9.762012
54.325 10.012515
54.330 10.216744
54.335 10.041813
54.340 10.017135
54.345 9.914917
54.350 10.173203
54.355 10.532883
54.360 9.844695
54.365 9.522975
54.370 9.488477
54.375 9.741791
54.380 9.572429
54.385 9.202676
54.390 9.514011
54.395 10.042481
54.400 10.052117
54.405 9.949796
54.410 9.793693
54.415 10.02123
54.420 10.226415
54.425 10.033996
54.430 9.991901
54.435 10.18109
54.440 10.169529
54.445 10.183653
54.450 9.762016
54.455 9.384739
54.460 9.407022
54.465 9.254659
54.470 9.486224
54.475 9.415989
54.480 9.275236
54.485 9.151043
54.490 9.036881
54.495 8.996072
54.500 8.69322
54.505 8.26257
54.510 8.543734
54.515 8.741426
54.520 8.933517
54.525 9.084513
54.530 8.887278
54.535 9.2356
54.540 9.062089
54.545 8.952046
54.550 9.186906
54.555 9.174527
54.560 9.114669
54.565 9.375695
54.570 9.69854
54.575 10.581498
54.580 10.77754
54.585 10.444945
54.590 10.349704
54.595 10.085696
54.600 9.867579
54.605 9.46366
54.610 9.266899
54.615 9.544063
54.620 10.032348
54.625 10.136948
54.630 10.572818
54.635 10.638277
54.640 10.575122
54.645 10.218425
54.650 10.071712
54.655 9.771052
54.660 9.434397
54.665 9.052247
54.670 8.921414
54.675 8.644465
54.680 8.674148
54.685 9.259653
54.690 9.793141
54.695 10.258997
54.700 10.242025
54.705 10.616627
54.710 10.990236
54.715 11.240913
54.720 10.590878
54.725 10.677237
54.730 10.868608
54.735 11.165098
54.740 11.354766
54.745 10.403947
54.750 9.442075
54.755 9.403127
54.760 9.034483
54.765 9.123439
54.770 8.792036
54.775 8.819908
54.780 9.602674
54.785 10.091281
54.790 9.882692
54.795 10.023913
54.800 10.23544
54.805 10.20108
54.810 10.129814
54.815 10.038578
54.820 10.127721
54.825 10.557938
54.830 10.418074
54.835 10.616605
54.840 10.859596
54.845 10.995601
54.850 10.825805
54.855 11.052098
54.860 10.76239
54.865 10.377053
54.870 9.955798
54.875 9.921047
54.880 9.567971
54.885 9.446319
54.890 9.191405
54.895 9.541143
54.900 9.692724
54.905 9.690225
54.910 9.527443
54.915 9.967045
54.920 10.008453
54.925 10.156875
54.930 9.94008
54.935 10.265216
54.940 10.620931
54.945 10.530053
54.950 10.226648
54.955 10.674268
54.960 10.382273
54.965 10.333795
54.970 10.287233
54.975 10.112469
54.980 9.893054
54.985 9.560046
54.990 9.405229
54.995 9.798488
55.000 9.601108
55.005 9.609765
55.010 10.051615
55.015 10.260667
55.020 10.630143
55.025 10.791517
55.030 10.602271
55.035 10.700409
55.040 10.557972
55.045 10.282739
55.050 9.946094
55.055 9.745526
55.060 9.706561
55.065 9.538965
55.070 9.261457
55.075 9.518104
55.080 9.834356
55.085 10.301027
55.090 10.337882
55.095 10.150547
55.100 10.696979
55.105 11.244699
55.110 11.079552
55.115 11.076619
55.120 10.622113
55.125 10.389059
55.130 10.385448
55.135 9.722493
55.140 9.184933
55.145 8.893955
55.150 8.800242
55.155 9.292603
55.160 9.207444
55.165 9.537707
55.170 9.997229
55.175 10.322713
55.180 10.5638
55.185 10.800852
55.190 11.137524
55.195 11.371778
55.200 11.504253
55.205 11.119074
55.210 11.032807
55.215 11.0657
55.220 10.827785
55.225 10.729733
55.230 10.430052
55.235 10.184997
55.240 10.426316
55.245 10.994514
55.250 11.227121
55.255 11.024511
55.260 10.891345
55.265 10.616624
55.270 10.620974
55.275 10.491351
55.280 10.083694
55.285 9.674395
55.290 9.896948
55.295 10.277765
55.300 10.667994
55.305 10.612047
55.310 10.710418
55.315 10.693302
55.320 10.860514
55.325 10.777006
55.330 10.760005
55.335 11.169502
55.340 11.761504
55.345 11.748955
55.350 11.660624
55.355 12.061797
55.360 12.136516
55.365 12.400126
55.370 12.1665
55.375 11.771182
55.380 11.716624
55.385 11.798634
55.390 11.691152
55.395 11.763041
55.400 11.304748
55.405 10.971566
55.410 10.8327
55.415 10.652025
55.420 10.378459
55.425 9.424156
55.430 9.313657
55.435 8.997544
55.440 9.034884
55.445 9.308825
55.450 9.262591
55.455 9.387077
55.460 10.248382
55.465 10.638254
55.470 11.26015
55.475 11.232522
55.480 11.083418
55.485 11.28745
55.490 11.103287
55.495 10.201576
55.500 9.679057
55.505 10.055774
55.510 10.093482
55.515 9.984651
55.520 9.898909
55.525 10.048335
55.530 10.117878
55.535 10.004757
55.540 9.542381
55.545 9.694965
55.550 9.876066
55.555 10.009562
55.560 10.14401
55.565 10.452779
55.570 10.408927
55.575 10.455775
55.580 10.665073
55.585 10.650351
55.590 10.683935
55.595 10.82875
55.600 11.075356
55.605 11.079775
55.610 11.221168
55.615 11.033611
55.620 10.854361
55.625 10.893117
55.630 10.199257
55.635 9.694841
55.640 9.796645
55.645 9.858069
55.650 10.17952
55.655 10.342743
55.660 10.600791
55.665 11.332913
55.670 11.741751
55.675 11.255484
55.680 11.163248
55.685 10.961383
55.690 10.929508
55.695 10.544553
55.700 10.56512
55.705 10.629057
55.710 10.919068
55.715 10.781831
55.720 10.871498
55.725 10.601229
55.730 10.887545
55.735 11.094541
55.740 11.098671
55.745 11.113327
55.750 10.878651
55.755 10.668949
55.760 10.564363
55.765 10.469914
55.770 10.128085
55.775 10.167945
55.780 10.118345
55.785 10.052125
55.790 10.476714
55.795 10.684993
55.800 10.774453
55.805 10.830076
55.810 11.194078
55.815 11.524486
55.820 12.122417
55.825 12.081747
55.830 12.333013
55.835 12.575891
55.840 12.10782
55.845 12.006238
55.850 12.284183
55.855 11.966285
55.860 12.06271
55.865 12.290174
55.870 12.539559
55.875 13.301043
55.880 13.242537
55.885 12.930883
55.890 12.870299
55.895 12.601435
55.900 11.640879
55.905 11.029203
55.910 10.676017
55.915 11.103245
55.920 11.396764
55.925 11.53886
55.930 11.7323
55.935 12.126843
55.940 12.101014
55.945 11.980749
55.950 12.016974
55.955 11.767542
55.960 11.92898
55.965 11.650059
55.970 11.767764
55.975 11.542237
55.980 12.00465
55.985 11.776557
55.990 11.626348
55.995 11.361859
56.000 11.592945
56.005 11.473978
56.010 11.471954
56.015 10.940661
56.020 10.427526
56.025 10.240482
56.030 10.341509
56.035 10.523672
56.040 10.568484
56.045 10.862423
56.050 10.792522
56.055 11.05725
56.060 10.768983
56.065 10.754306
56.070 10.762881
56.075 10.098659
56.080 9.638429
56.085 9.795005
56.090 9.879478
56.095 9.880335
56.100 9.638935
56.105 9.352746
56.110 9.970005
56.115 10.212621
56.120 10.634104
56.125 10.742724
56.130 10.942897
56.135 11.195117
56.140 11.491865
56.145 11.413651
56.150 11.166998
56.155 10.908981
56.160 10.899642
56.165 10.760493
56.170 11.269923
56.175 11.207355
56.180 11.222681
56.185 11.212399
56.190 11.437483
56.195 11.829464
56.200 11.949592
56.205 11.440817
56.210 11.579898
56.215 11.763638
56.220 11.900819
56.225 11.487392
56.230 11.436922
56.235 11.845493
56.240 12.425923
56.245 12.471258
56.250 12.707925
56.255 12.339749
56.260 12.358993
56.265 12.488482
56.270 12.147131
56.275 11.929524
56.280 12.089987
56.285 11.902303
56.290 12.172087
56.295 12.14081
56.300 12.191117
56.305 12.473258
56.310 12.148284
56.315 11.972449
56.320 11.839534
56.325 12.263586
56.330 12.184879
56.335 11.571703
56.340 11.24859
56.345 11.517913
56.350 11.449388
56.355 11.878482
56.360 11.690857
56.365 11.670789
56.370 11.879366
56.375 12.115265
56.380 11.949235
56.385 12.597223
56.390 12.409304
56.395 12.334575
56.400 12.78173
56.405 12.768278
56.410 12.5655
56.415 12.129521
56.420 11.570357
56.425 11.651208
56.430 11.789453
56.435 11.500282
56.440 11.01029
56.445 10.731139
56.450 10.878693
56.455 11.013562
56.460 10.519355
56.465 10.620891
56.470 10.985931
56.475 11.293487
56.480 11.753889
56.485 12.242054
56.490 12.914177
56.495 13.67289
56.500 13.633858
56.505 13.572945
56.510 13.411987
56.515 13.28357
56.520 12.580376
56.525 12.309697
56.530 12.042851
56.535 12.254551
56.540 12.477955
56.545 12.226203
56.550 11.95076
56.555 11.783823
56.560 11.038397
56.565 10.957334
56.570 10.478144
56.575 10.5183
56.580 10.668932
56.585 10.874638
56.590 11.12103
56.595 12.074149
56.600 11.70642
56.605 11.35613
56.610 11.07921
56.615 11.379765
56.620 11.675416
56.625 11.496078
56.630 11.2301
56.635 11.514331
56.640 11.811279
56.645 12.332313
56.650 12.571376
56.655 12.568063
56.660 12.418793
56.665 12.32141
56.670 12.302453
56.675 12.273478
56.680 12.344532
56.685 12.596294
56.690 12.640188
56.695 12.997979
56.700 12.855327
56.705 13.236249
56.710 13.85409
56.715 13.845973
56.720 13.666683
56.725 13.666967
56.730 13.777946
56.735 14.410361
56.740 14.343595
56.745 13.847166
56.750 13.385633
56.755 13.39252
56.760 13.650969
56.765 13.698588
56.770 13.315111
56.775 13.333709
56.780 13.584421
56.785 13.778328
56.790 13.54864
56.795 13.333396
56.800 12.956547
56.805 12.752161
56.810 12.604689
56.815 12.503187
56.820 12.812892
56.825 13.038615
56.830 13.072035
56.835 13.249574
56.840 13.162075
56.845 12.808343
56.850 12.763602
56.855 12.672779
56.860 12.329368
56.865 12.213963
56.870 12.183082
56.875 12.46453
56.880 12.604196
56.885 12.220511
56.890 11.917268
56.895 11.751801
56.900 11.698315
56.905 11.773398
56.910 11.198838
56.915 11.112529
56.920 10.903637
56.925 10.798818
56.930 11.140108
56.935 11.082188
56.940 11.11844
56.945 11.334837
56.950 11.453586
56.955 11.956976
56.960 12.189182
56.965 12.085601
56.970 12.157471
56.975 12.169665
56.980 12.607056
56.985 13.033119
56.990 12.741024
56.995 12.735583
57.000 12.709966
57.005 12.774967
57.010 12.735925
57.015 12.800916
57.020 12.649062
57.025 13.403417
57.030 13.511408
57.035 13.371215
57.040 13.38787
57.045 13.429879
57.050 13.106334
57.055 13.17574
57.060 12.752364
57.065 12.50835
57.070 12.818048
57.075 13.125895
57.080 13.072106
57.085 13.317336
57.090 13.613001
57.095 13.744473
57.100 14.024091
57.105 14.098207
57.110 13.814944
57.115 13.511336
57.120 13.438594
57.125 12.992505
57.130 13.212364
57.135 13.316022
57.140 12.716648
57.145 12.288171
57.150 12.896674
57.155 12.256303
57.160 11.96423
57.165 11.70578
57.170 11.813578
57.175 12.688863
57.180 13.396754
57.185 13.08173
57.190 13.619164
57.195 14.388342
57.200 14.451653
57.205 14.213663
57.210 13.561294
57.215 13.283023
57.220 13.401201
57.225 13.237948
57.230 12.427781
57.235 12.285783
57.240 12.438663
57.245 12.692723
57.250 12.191321
57.255 12.29185
57.260 12.323049
57.265 12.674803
57.270 12.58842
57.275 12.477652
57.280 12.59654
57.285 12.946301
57.290 12.772532
57.295 12.356091
57.300 11.929931
57.305 11.622419
57.310 11.61107
57.315 11.458899
57.320 11.622861
57.325 11.901259
57.330 12.581233
57.335 13.116481
57.340 13.40729
57.345 13.480452
57.350 13.367356
57.355 13.31274
57.360 13.235985
57.365 12.880226
57.370 12.923527
57.375 13.001735
57.380 12.932798
57.385 13.349654
57.390 14.149132
57.395 14.204797
57.400 14.730635
57.405 14.416746
57.410 13.662331
57.415 13.666636
57.420 13.232312
57.425 12.855935
57.430 13.014496
57.435 12.89417
57.440 13.172831
57.445 13.84886
57.450 14.289108
57.455 14.757412
57.460 14.343423
57.465 14.458201
57.470 14.275325
57.475 14.468527
57.480 14.384501
57.485 14.361906
57.490 13.971157
57.495 14.133132
57.500 13.671421
57.505 13.217585
57.510 12.550132
57.515 12.347884
57.520 12.005837
57.525 11.935714
57.530 12.096086
57.535 12.760453
57.540 13.204116
57.545 13.631133
57.550 13.877472
57.555 13.72342
57.560 13.500341
57.565 13.911031
57.570 13.374816
57.575 12.844022
57.580 13.149741
57.585 13.260128
57.590 13.657589
57.595 13.769667
57.600 13.56462
57.605 14.089971
57.610 14.488466
57.615 13.716282
57.620 13.421292
57.625 13.484061
57.630 13.270248
57.635 12.755898
57.640 12.353561
57.645 11.98769
57.650 12.020181
57.655 11.879765
57.660 11.385621
57.665 11.426088
57.670 11.406341
57.675 11.999016
57.680 12.261534
57.685 12.507126
57.690 12.404484
57.695 12.411478
57.700 12.597749
57.705 13.000737
57.710 12.6206
57.715 13.005914
57.720 13.467523
57.725 13.943893
57.730 14.682447
57.735 15.212947
57.740 15.152258
57.745 15.128838
57.750 15.115354
57.755 14.911273
57.760 15.138867
57.765 15.049665
57.770 14.430688
57.775 14.262215
57.780 14.485188
57.785 14.716311
57.790 15.040233
57.795 14.760582
57.800 14.125892
57.805 14.22754
57.810 14.793312
57.815 14.931337
57.820 14.836134
57.825 14.878244
57.830 14.938714
57.835 15.513448
57.840 15.934354
57.845 15.888408
57.850 15.87792
57.855 16.17919
57.860 15.905301
57.865 15.473457
57.870 14.874729
57.875 14.561898
57.880 15.031155
57.885 14.91905
57.890 14.780627
57.895 14.862665
57.900 15.319918
57.905 16.0161
57.910 15.887957
57.915 15.056245
57.920 15.396712
57.925 15.270181
57.930 15.086954
57.935 14.367697
57.940 13.815318
57.945 13.852921
57.950 14.167815
57.955 14.203065
57.960 14.37365
57.965 14.634941
57.970 14.805979
57.975 15.139862
57.980 15.272301
57.985 14.833471
57.990 14.707411
57.995 14.459345
58.000 14.619626
58.005 15.383265
58.010 15.371249
58.015 15.155015
58.020 14.892506
58.025 14.855376
58.030 15.58567
58.035 15.782046
58.040 15.248596
58.045 15.282037
58.050 15.24708
58.055 15.687682
58.060 15.691726
58.065 15.365957
58.070 15.183908
58.075 15.168262
58.080 14.914812
58.085 15.482409
58.090 15.718801
58.095 15.974743
58.100 16.321663
58.105 16.243063
58.110 16.722658
58.115 16.736357
58.120 16.898643
58.125 16.715353
58.130 16.15316
58.135 16.482569
58.140 17.039381
58.145 17.358774
58.150 17.303741
58.155 16.684509
58.160 16.646692
58.165 17.229523
58.170 17.455196
58.175 17.006287
58.180 16.655552
58.185 16.164612
58.190 16.570286
58.195 16.62491
58.200 16.024939
58.205 15.5069
58.210 15.626282
58.215 15.659019
58.220 16.145119
58.225 15.721941
58.230 15.602217
58.235 15.59611
58.240 15.16863
58.245 14.987791
58.250 15.641064
58.255 16.247068
58.260 16.42757
58.265 16.469442
58.270 16.385262
58.275 16.789669
58.280 17.048635
58.285 16.782557
58.290 16.247019
58.295 16.763332
58.300 17.506821
58.305 18.352058
58.310 18.547216
58.315 18.893528
58.320 18.923483
58.325 19.062336
58.330 18.659948
58.335 18.861082
58.340 18.686672
58.345 18.77137
58.350 18.612501
58.355 18.716564
58.360 19.050203
58.365 19.035379
58.370 18.673328
58.375 19.0289
58.380 19.198277
58.385 19.578785
58.390 20.191236
58.395 20.894741
58.400 21.347109
58.405 21.131676
58.410 20.965305
58.415 21.060001
58.420 21.004951
58.425 20.702675
58.430 20.500177
58.435 20.487547
58.440 20.761028
58.445 20.591425
58.450 20.743427
58.455 20.390034
58.460 20.306154
58.465 20.380005
58.470 21.077768
58.475 21.679783
58.480 21.77195
58.485 21.924196
58.490 23.079155
58.495 24.298449
58.500 24.506205
58.505 24.933064
58.510 25.061436
58.515 26.071556
58.520 27.32766
58.525 28.529474
58.530 28.844337
58.535 29.141254
58.540 28.889364
