!@!!GADDS PLOTSO FILE: Chi integration type
!@!!Title/SampleName: map-45
!@!!Comment: ?
!@!!User: Bruker Instrument Administrator
!@!!Site: University of Illinois Chicago
!@!!Frame: map-45_01_000.gfrm
!@!!Wavelengths    1.54184   1.54056   1.54439
!@!!Frame angles: 2Theta: 63.000 Omega: 50.000 Phi: 0.000 Chi: 90.000
!@!!Integration range: 2Theta: 53.000 to 73.000  Gamma: -105.000 to -75.000
!@!!Integration method: bin normalized
!@!N
!@!SS
!@!M
!@!L 0.0 0.0 0.0 0.0
!@!XDegrees
!@!YCounts
53.000 10.273315
53.005 9.888626
53.010 9.580712
53.015 9.625283
53.020 9.672031
53.025 9.677913
53.030 9.649811
53.035 9.724223
53.040 10.23156
53.045 10.281382
53.050 10.330381
53.055 10.053036
53.060 10.19954
53.065 10.158316
53.070 10.026881
53.075 9.709338
53.080 9.727345
53.085 9.830546
53.090 10.148365
53.095 10.492867
53.100 10.802863
53.105 10.99319
53.110 10.863918
53.115 10.982991
53.120 11.077814
53.125 10.909754
53.130 10.275645
53.135 9.729343
53.140 10.151047
53.145 10.203593
53.150 9.862929
53.155 9.521719
53.160 9.157673
53.165 9.160394
53.170 8.844811
53.175 8.545849
53.180 8.931081
53.185 9.472663
53.190 9.998257
53.195 10.366641
53.200 10.598308
53.205 10.802091
53.210 10.722322
53.215 10.338615
53.220 10.089672
53.225 10.028069
53.230 9.869783
53.235 9.588206
53.240 9.862706
53.245 9.867565
53.250 9.990752
53.255 9.786365
53.260 9.473009
53.265 9.711426
53.270 10.03329
53.275 10.342553
53.280 10.963783
53.285 10.755669
53.290 10.979125
53.295 11.225423
53.300 11.389439
53.305 11.614194
53.310 11.152909
53.315 10.758542
53.320 11.036111
53.325 11.159717
53.330 11.380315
53.335 11.11847
53.340 10.780819
53.345 10.606869
53.350 10.733353
53.355 10.651597
53.360 10.1988
53.365 10.062111
53.370 10.373346
53.375 10.512076
53.380 10.885491
53.385 10.964849
53.390 10.81724
53.395 10.756447
53.400 10.857622
53.405 10.686629
53.410 10.569891
53.415 10.1803
53.420 10.470121
53.425 11.408309
53.430 11.192749
53.435 11.011032
53.440 10.978592
53.445 11.818227
53.450 12.257475
53.455 11.823274
53.460 11.235997
53.465 10.706522
53.470 10.09678
53.475 10.191698
53.480 9.730143
53.485 9.048865
53.490 8.77623
53.495 9.369485
53.500 9.894429
53.505 10.368105
53.510 10.069561
53.515 10.201269
53.520 10.855702
53.525 11.018055
53.530 11.13295
53.535 11.507327
53.540 11.571342
53.545 11.248527
53.550 11.095254
53.555 10.979407
53.560 10.995383
53.565 11.253963
53.570 10.978828
53.575 11.377035
53.580 11.460523
53.585 11.144506
53.590 11.187115
53.595 10.895203
53.600 10.715883
53.605 10.757572
53.610 10.314248
53.615 10.834415
53.620 11.472411
53.625 11.457626
53.630 11.583533
53.635 11.150376
53.640 11.144598
53.645 11.098658
53.650 10.501945
53.655 9.605089
53.660 9.350082
53.665 9.867225
53.670 10.016831
53.675 10.045419
53.680 10.161222
53.685 10.652796
53.690 11.320685
53.695 11.399363
53.700 11.361176
53.705 11.469499
53.710 11.512815
53.715 11.267584
53.720 10.732901
53.725 10.899923
53.730 11.082946
53.735 11.287314
53.740 10.991934
53.745 11.000587
53.750 11.006823
53.755 11.021967
53.760 10.974262
53.765 10.835742
53.770 11.26941
53.775 11.732534
53.780 11.90736
53.785 12.190948
53.790 12.365847
53.795 12.057056
53.800 11.663321
53.805 11.670948
53.810 11.628176
53.815 11.835206
53.820 11.939898
53.825 12.168212
53.830 12.477574
53.835 13.083865
53.840 12.618283
53.845 12.416712
53.850 12.315458
53.855 12.131158
53.860 11.65889
53.865 11.537601
53.870 11.310986
53.875 11.220345
53.880 11.205219
53.885 11.250191
53.890 11.639369
53.895 11.528905
53.900 10.954433
53.905 11.167999
53.910 11.63096
53.915 11.776859
53.920 11.415784
53.925 11.505185
53.930 12.002457
53.935 11.843285
53.940 11.438044
53.945 11.211947
53.950 10.853958
53.955 10.619985
53.960 9.824268
53.965 9.620403
53.970 9.882855
53.975 10.001987
53.980 9.686186
53.985 9.564832
53.990 9.698578
53.995 10.005246
54.000 10.14159
54.005 10.433251
54.010 10.772887
54.015 11.337947
54.020 11.888752
54.025 12.200975
54.030 12.168305
54.035 11.886616
54.040 11.660362
54.045 11.371282
54.050 11.187743
54.055 10.944209
54.060 10.798799
54.065 10.082191
54.070 9.935192
54.075 10.38826
54.080 11.016462
54.085 11.640877
54.090 11.695884
54.095 11.43364
54.100 11.746266
54.105 11.748244
54.110 11.493767
54.115 10.939072
54.120 10.969962
54.125 11.241171
54.130 11.744555
54.135 12.04104
54.140 12.083977
54.145 11.554561
54.150 11.71036
54.155 11.54331
54.160 11.684378
54.165 12.03397
54.170 12.294964
54.175 12.591009
54.180 12.604811
54.185 12.168984
54.190 12.014046
54.195 11.92014
54.200 11.686034
54.205 11.154088
54.210 10.866403
54.215 10.873853
54.220 10.733345
54.225 10.848559
54.230 11.136245
54.235 12.077179
54.240 12.305197
54.245 12.02818
54.250 11.882122
54.255 12.046107
54.260 11.689583
54.265 11.16775
54.270 10.311802
54.275 10.444988
54.280 10.815326
54.285 11.034714
54.290 10.902182
54.295 10.847056
54.300 10.599296
54.305 10.531475
54.310 10.664252
54.315 11.11347
54.320 11.276274
54.325 11.200096
54.330 10.838949
54.335 11.656004
54.340 12.054605
54.345 12.282444
54.350 12.224905
54.355 12.246708
54.360 12.341047
54.365 12.525303
54.370 11.716075
54.375 11.126204
54.380 10.429329
54.385 10.022681
54.390 9.926723
54.395 9.901
54.400 10.253074
54.405 10.585344
54.410 10.704581
54.415 11.287467
54.420 11.332543
54.425 11.13519
54.430 11.301336
54.435 11.240123
54.440 11.631633
54.445 11.827805
54.450 11.647215
54.455 11.892796
54.460 12.229281
54.465 12.289526
54.470 11.823643
54.475 11.576308
54.480 11.483984
54.485 11.793729
54.490 11.642577
54.495 11.325428
54.500 11.17686
54.505 10.992931
54.510 11.056294
54.515 11.174214
54.520 11.027296
54.525 11.2091
54.530 11.126268
54.535 11.225387
54.540 11.854404
54.545 11.136633
54.550 10.912611
54.555 10.619606
54.560 10.522613
54.565 10.32688
54.570 10.339804
54.575 10.667871
54.580 10.810927
54.585 10.686424
54.590 11.208535
54.595 11.76542
54.600 12.054151
54.605 11.892379
54.610 11.768168
54.615 12.400712
54.620 12.934693
54.625 12.587132
54.630 12.22621
54.635 12.48559
54.640 12.463713
54.645 12.188692
54.650 12.003019
54.655 11.827324
54.660 11.981828
54.665 12.17097
54.670 11.911764
54.675 12.051788
54.680 12.08068
54.685 11.760863
54.690 11.718422
54.695 11.448471
54.700 11.373226
54.705 11.240252
54.710 10.919003
54.715 10.967345
54.720 10.880637
54.725 11.17493
54.730 11.42683
54.735 11.620853
54.740 12.07426
54.745 13.108664
54.750 13.19293
54.755 13.094354
54.760 12.587398
54.765 12.715983
54.770 13.145668
54.775 12.940273
54.780 12.258018
54.785 12.239881
54.790 12.355996
54.795 12.945159
54.800 13.01783
54.805 12.700729
54.810 12.207372
54.815 12.580648
54.820 12.633132
54.825 12.763028
54.830 12.616263
54.835 12.375475
54.840 12.222137
54.845 12.370924
54.850 12.037509
54.855 12.198874
54.860 12.029256
54.865 11.479107
54.870 11.47249
54.875 12.046638
54.880 12.413514
54.885 12.528845
54.890 12.589841
54.895 12.468095
54.900 12.839819
54.905 13.090911
54.910 13.021285
54.915 13.111432
54.920 12.843188
54.925 13.090791
54.930 13.34664
54.935 12.735459
54.940 11.967649
54.945 12.097386
54.950 12.600813
54.955 12.642134
54.960 12.431094
54.965 12.364861
54.970 12.626101
54.975 12.592694
54.980 12.09522
54.985 12.023458
54.990 12.258859
54.995 11.939999
55.000 11.546063
55.005 11.614131
55.010 11.968928
55.015 11.582898
55.020 10.511401
55.025 10.702681
55.030 11.351877
55.035 11.697816
55.040 11.667069
55.045 11.503014
55.050 11.702219
55.055 11.888555
55.060 11.661303
55.065 11.583365
55.070 11.305778
55.075 11.510617
55.080 11.942599
55.085 11.719344
55.090 11.735527
55.095 11.600668
55.100 11.703259
55.105 12.222445
55.110 12.521997
55.115 12.82883
55.120 13.201763
55.125 13.201738
55.130 13.231908
55.135 13.544264
55.140 13.368508
55.145 12.469304
55.150 12.135488
55.155 12.089571
55.160 11.960431
55.165 12.008229
55.170 11.614179
55.175 11.654687
55.180 12.058475
55.185 12.270835
55.190 12.491487
55.195 12.967253
55.200 13.33263
55.205 13.232938
55.210 13.105816
55.215 12.902629
55.220 12.493814
55.225 12.194287
55.230 12.203939
55.235 12.01753
55.240 12.13554
55.245 12.228065
55.250 12.608262
55.255 12.799063
55.260 13.004161
55.265 12.713486
55.270 12.507904
55.275 12.350584
55.280 12.421006
55.285 12.443082
55.290 12.558716
55.295 12.523805
55.300 12.598103
55.305 12.915731
55.310 13.171335
55.315 12.806469
55.320 12.684081
55.325 12.072085
55.330 11.61629
55.335 11.325885
55.340 11.350227
55.345 11.598002
55.350 12.169612
55.355 12.295581
55.360 12.579842
55.365 12.944303
55.370 13.291183
55.375 13.270575
55.380 13.1547
55.385 12.812859
55.390 12.810152
55.395 13.465524
55.400 13.429344
55.405 13.742729
55.410 14.06425
55.415 13.612848
55.420 13.491193
55.425 13.172041
55.430 12.52145
55.435 12.2599
55.440 11.74622
55.445 11.673703
55.450 12.020083
55.455 11.982914
55.460 12.865491
55.465 13.224955
55.470 13.16307
55.475 13.163749
55.480 13.134084
55.485 13.417849
55.490 13.331129
55.495 13.102037
55.500 13.38014
55.505 13.859352
55.510 13.791186
55.515 13.978592
55.520 13.8826
55.525 13.641438
55.530 13.333867
55.535 12.865695
55.540 12.244423
55.545 12.217977
55.550 11.871325
55.555 12.284508
55.560 12.07268
55.565 12.359255
55.570 12.856509
55.575 13.553912
55.580 13.392235
55.585 12.898221
55.590 12.991988
55.595 13.527697
55.600 13.167834
55.605 12.915689
55.610 12.788218
55.615 12.984051
55.620 13.173004
55.625 13.015489
55.630 12.789291
55.635 12.491928
55.640 12.154028
55.645 11.964528
55.650 11.844861
55.655 11.728879
55.660 11.667105
55.665 11.464031
55.670 11.34271
55.675 11.441627
55.680 11.492467
55.685 11.556857
55.690 11.629104
55.695 11.518478
55.700 11.888078
55.705 12.040344
55.710 11.876987
55.715 11.899888
55.720 12.210834
55.725 12.114731
55.730 12.281462
55.735 12.717834
55.740 13.211755
55.745 13.670078
55.750 13.67797
55.755 13.131647
55.760 13.055377
55.765 13.455924
55.770 13.222788
55.775 13.599008
55.780 13.210836
55.785 13.138185
55.790 13.702559
55.795 13.541888
55.800 12.701737
55.805 12.167166
55.810 11.628428
55.815 11.466495
55.820 11.660846
55.825 11.638827
55.830 12.2576
55.835 13.078615
55.840 13.517937
55.845 13.592065
55.850 13.895372
55.855 14.593148
55.860 14.642688
55.865 14.148791
55.870 13.713894
55.875 13.768487
55.880 14.196273
55.885 14.072507
55.890 13.736995
55.895 13.875595
55.900 13.935204
55.905 13.79283
55.910 13.801162
55.915 13.465451
55.920 13.10113
55.925 12.748639
55.930 12.958194
55.935 13.243033
55.940 13.46019
55.945 13.77643
55.950 14.534544
55.955 14.445649
55.960 14.552419
55.965 14.480844
55.970 14.528269
55.975 14.034848
55.980 13.251268
55.985 12.948066
55.990 13.230437
55.995 12.970618
56.000 12.894181
56.005 13.340405
56.010 13.828307
56.015 13.898767
56.020 13.720852
56.025 13.849072
56.030 13.871664
56.035 13.867413
56.040 13.480929
56.045 13.409698
56.050 13.72486
56.055 13.894599
56.060 14.087584
56.065 14.138064
56.070 13.93894
56.075 14.107125
56.080 14.307632
56.085 14.151648
56.090 13.880619
56.095 13.396168
56.100 13.017119
56.105 13.093661
56.110 12.808982
56.115 12.821634
56.120 13.044153
56.125 13.046695
56.130 13.45628
56.135 13.649205
56.140 13.382818
56.145 13.461827
56.150 13.656165
56.155 14.061084
56.160 13.813797
56.165 13.630265
56.170 14.225986
56.175 14.547964
56.180 14.462037
56.185 14.334264
56.190 14.189301
56.195 14.253987
56.200 14.600524
56.205 14.433514
56.210 14.497063
56.215 14.574637
56.220 14.635118
56.225 14.902632
56.230 15.358574
56.235 14.98284
56.240 14.71875
56.245 14.500743
56.250 13.911549
56.255 13.557218
56.260 13.13275
56.265 13.234149
56.270 13.359838
56.275 13.391153
56.280 13.400517
56.285 13.459448
56.290 14.054808
56.295 14.466349
56.300 14.546343
56.305 14.839167
56.310 15.12239
56.315 14.992244
56.320 14.900178
56.325 13.96692
56.330 13.430156
56.335 12.880682
56.340 12.740038
56.345 12.849643
56.350 12.933106
56.355 12.915691
56.360 13.262144
56.365 13.805236
56.370 13.954662
56.375 13.917123
56.380 13.656612
56.385 13.832404
56.390 13.897593
56.395 13.818075
56.400 13.603533
56.405 13.62976
56.410 13.631874
56.415 13.958511
56.420 14.291923
56.425 14.347534
56.430 14.13046
56.435 13.719275
56.440 13.881631
56.445 13.951108
56.450 14.055529
56.455 14.003355
56.460 14.489493
56.465 14.633124
56.470 14.796579
56.475 14.706477
56.480 14.308195
56.485 14.283168
56.490 14.293839
56.495 14.014791
56.500 14.361808
56.505 14.442665
56.510 14.19015
56.515 14.726804
56.520 14.557206
56.525 14.422544
56.530 14.61482
56.535 14.548268
56.540 14.861871
56.545 14.790149
56.550 14.639735
56.555 14.692153
56.560 14.855985
56.565 14.830909
56.570 15.100986
56.575 14.809055
56.580 15.013466
56.585 15.355828
56.590 15.530578
56.595 16.002922
56.600 15.986829
56.605 15.90717
56.610 15.917379
56.615 15.465911
56.620 15.050597
56.625 15.043131
56.630 14.999336
56.635 14.677799
56.640 14.263534
56.645 14.083358
56.650 14.233335
56.655 14.140452
56.660 13.9085
56.665 13.658874
56.670 14.292826
56.675 14.467071
56.680 14.691194
56.685 14.879199
56.690 14.91108
56.695 14.598927
56.700 13.852618
56.705 13.129698
56.710 12.831525
56.715 13.116969
56.720 12.973435
56.725 12.6463
56.730 13.583047
56.735 13.948343
56.740 14.303173
56.745 14.876555
56.750 14.932079
56.755 15.328795
56.760 15.862034
56.765 15.45125
56.770 15.440862
56.775 15.584038
56.780 15.255809
56.785 14.726828
56.790 14.525083
56.795 14.490335
56.800 14.637114
56.805 14.814956
56.810 14.608608
56.815 14.477099
56.820 14.646807
56.825 14.340379
56.830 13.452826
56.835 12.981404
56.840 12.705196
56.845 13.040573
56.850 13.740826
56.855 13.529562
56.860 13.494131
56.865 13.853125
56.870 14.131631
56.875 14.4284
56.880 14.400712
56.885 13.893662
56.890 14.153382
56.895 14.622547
56.900 14.794584
56.905 14.224486
56.910 13.878586
56.915 13.453991
56.920 13.351293
56.925 13.349528
56.930 13.214021
56.935 12.899117
56.940 13.171522
56.945 13.271621
56.950 13.121574
56.955 13.451376
56.960 13.661201
56.965 13.202852
56.970 13.896705
56.975 14.251637
56.980 14.134267
56.985 14.375224
56.990 14.114408
56.995 14.34196
57.000 14.851838
57.005 14.301443
57.010 14.150208
57.015 14.568426
57.020 14.907132
57.025 15.331234
57.030 15.08343
57.035 15.148322
57.040 15.475181
57.045 15.708282
57.050 15.577791
57.055 14.99519
57.060 14.509953
57.065 15.019766
57.070 14.872834
57.075 14.735995
57.080 14.169274
57.085 13.809488
57.090 13.548918
57.095 12.899885
57.100 12.52714
57.105 13.084471
57.110 13.165495
57.115 13.723289
57.120 13.949438
57.125 14.076861
57.130 14.600823
57.135 14.363192
57.140 13.993993
57.145 13.765155
57.150 13.574453
57.155 14.131986
57.160 14.673072
57.165 15.467728
57.170 15.664338
57.175 15.595375
57.180 15.567535
57.185 15.364489
57.190 15.228778
57.195 14.928939
57.200 14.362794
57.205 14.672688
57.210 15.087657
57.215 15.621815
57.220 16.191257
57.225 15.955565
57.230 16.349648
57.235 16.0452
57.240 15.702706
57.245 15.915717
57.250 15.491635
57.255 15.271931
57.260 15.030328
57.265 14.962753
57.270 14.90288
57.275 14.247755
57.280 14.240654
57.285 14.171431
57.290 14.348896
57.295 15.15651
57.300 15.05931
57.305 14.755579
57.310 14.782969
57.315 14.384202
57.320 14.238162
57.325 14.05932
57.330 13.941224
57.335 13.992243
57.340 14.709007
57.345 15.15423
57.350 15.457188
57.355 15.723546
57.360 15.205663
57.365 14.854285
57.370 14.903369
57.375 14.476433
57.380 14.07693
57.385 14.092249
57.390 14.069864
57.395 14.216554
57.400 14.534928
57.405 14.430309
57.410 15.08009
57.415 15.320325
57.420 15.409768
57.425 15.71481
57.430 15.738693
57.435 15.302591
57.440 15.551444
57.445 15.194327
57.450 15.094126
57.455 15.273149
57.460 15.854707
57.465 16.292318
57.470 16.49547
57.475 15.81456
57.480 15.731287
57.485 15.614928
57.490 15.16428
57.495 14.743871
57.500 14.737976
57.505 15.088385
57.510 15.597828
57.515 15.932487
57.520 16.022936
57.525 15.997545
57.530 15.897116
57.535 15.421886
57.540 15.239879
57.545 15.378083
57.550 15.347684
57.555 15.760821
57.560 15.830199
57.565 15.747288
57.570 16.253075
57.575 15.921253
57.580 15.91434
57.585 15.782583
57.590 15.762556
57.595 15.689801
57.600 15.963822
57.605 15.958443
57.610 15.991385
57.615 15.749727
57.620 15.72784
57.625 15.698824
57.630 15.297976
57.635 15.149302
57.640 14.787938
57.645 14.61787
57.650 14.39099
57.655 14.525934
57.660 14.423899
57.665 14.737239
57.670 14.088419
57.675 14.601721
57.680 15.063993
57.685 15.389716
57.690 15.557582
57.695 15.613528
57.700 15.60248
57.705 15.794748
57.710 15.445717
57.715 15.48006
57.720 15.526208
57.725 15.384871
57.730 15.746681
57.735 16.029829
57.740 16.077042
57.745 15.74821
57.750 15.790689
57.755 15.558509
57.760 14.921642
57.765 14.680216
57.770 14.595061
57.775 15.00237
57.780 14.984598
57.785 15.222964
57.790 15.462285
57.795 15.529461
57.800 15.342478
57.805 15.570484
57.810 15.457969
57.815 15.57468
57.820 15.560931
57.825 15.726993
57.830 16.132992
57.835 16.70118
57.840 16.073536
57.845 15.810285
57.850 15.936617
57.855 15.864432
57.860 15.789074
57.865 15.736032
57.870 15.441618
57.875 15.900652
57.880 15.940159
57.885 15.529891
57.890 15.54219
57.895 15.690104
57.900 15.265951
57.905 14.501967
57.910 14.468593
57.915 15.247186
57.920 15.640912
57.925 15.544405
57.930 15.485275
57.935 15.732725
57.940 16.158545
57.945 15.840915
57.950 14.992302
57.955 15.282556
57.960 15.789513
57.965 15.589246
57.970 15.672242
57.975 16.009485
57.980 16.52136
57.985 16.916134
57.990 16.400646
57.995 15.98689
58.000 16.20162
58.005 16.367519
58.010 15.806786
58.015 15.421296
58.020 15.13986
58.025 15.125811
58.030 14.906496
58.035 15.08846
58.040 14.80736
58.045 15.110755
58.050 15.598024
58.055 16.073441
58.060 16.553354
58.065 16.849289
58.070 16.755798
58.075 17.306156
58.080 17.290539
58.085 17.111412
58.090 16.71838
58.095 16.416021
58.100 16.49754
58.105 16.651142
58.110 16.811768
58.115 17.071587
58.120 17.002417
58.125 17.198374
58.130 17.027458
58.135 17.352589
58.140 17.665243
58.145 17.718252
58.150 17.763361
58.155 17.93955
58.160 17.089872
58.165 16.937239
58.170 16.613306
58.175 15.752309
58.180 15.49414
58.185 15.102466
58.190 15.17
58.195 15.790504
58.200 16.241741
58.205 16.327192
58.210 17.058384
58.215 16.86764
58.220 17.076845
58.225 17.474211
58.230 17.51075
58.235 17.123636
58.240 17.15037
58.245 17.206406
58.250 17.65419
58.255 18.140617
58.260 18.383022
58.265 18.541847
58.270 18.296843
58.275 17.979456
58.280 18.518442
58.285 18.579723
58.290 18.375462
58.295 18.257637
58.300 18.122007
58.305 18.756784
58.310 19.55374
58.315 19.22434
58.320 19.271679
58.325 19.312464
58.330 19.659204
58.335 20.139851
58.340 20.06233
58.345 19.539202
58.350 20.089396
58.355 20.498549
58.360 19.751972
58.365 19.580072
58.370 19.408945
58.375 19.314289
58.380 19.577835
58.385 19.160423
58.390 20.037338
58.395 20.889387
58.400 21.253752
58.405 21.704235
58.410 21.596302
58.415 21.25494
58.420 20.980055
58.425 20.829571
58.430 20.780912
58.435 19.88595
58.440 19.786089
58.445 19.904171
58.450 19.803797
58.455 20.068163
58.460 18.989397
