!@!!GADDS PLOTSO FILE: Chi integration type
!@!!Title/SampleName: map-8d
!@!!Comment: ?
!@!!User: Bruker Instrument Administrator
!@!!Site: University of Illinois Chicago
!@!!Frame: map-8d_01_000.gfrm
!@!!Wavelengths    1.54184   1.54056   1.54439
!@!!Frame angles: 2Theta: 63.000 Omega: 50.000 Phi: 0.000 Chi: 90.000
!@!!Integration range: 2Theta: 53.000 to 73.000  Gamma: -105.000 to -75.000
!@!!Integration method: bin normalized
!@!N
!@!SS
!@!M
!@!L 0.0 0.0 0.0 0.0
!@!XDegrees
!@!YCounts
53.000 8.585192
53.005 8.350634
53.010 8.582772
53.015 8.731169
53.020 9.121051
53.025 8.893976
53.030 9.036625
53.035 9.575435
53.040 9.676879
53.045 9.554744
53.050 9.752605
53.055 9.21687
53.060 8.936609
53.065 8.334592
53.070 7.825397
53.075 7.896499
53.080 7.859846
53.085 7.789492
53.090 7.641613
53.095 7.658467
53.100 7.519628
53.105 7.457073
53.110 7.366901
53.115 7.293786
53.120 7.508348
53.125 7.859987
53.130 8.14923
53.135 8.161919
53.140 8.221522
53.145 8.403052
53.150 8.687468
53.155 8.685934
53.160 8.525451
53.165 8.106771
53.170 8.523695
53.175 8.730953
53.180 8.54781
53.185 8.559175
53.190 8.755945
53.195 8.642777
53.200 8.744243
53.205 8.428351
53.210 8.373178
53.215 8.259504
53.220 8.096371
53.225 7.911504
53.230 7.880572
53.235 7.933074
53.240 7.928505
53.245 7.847175
53.250 7.731325
53.255 7.849484
53.260 8.006717
53.265 8.245532
53.270 8.22076
53.275 8.107352
53.280 8.2533
53.285 8.085921
53.290 8.262193
53.295 8.440565
53.300 7.958106
53.305 7.662116
53.310 7.593197
53.315 8.126108
53.320 8.030159
53.325 7.427226
53.330 7.290627
53.335 7.71264
53.340 8.150474
53.345 8.474908
53.350 8.198181
53.355 8.524203
53.360 8.844546
53.365 9.101974
53.370 8.86692
53.375 8.453558
53.380 8.061913
53.385 7.942842
53.390 8.174236
53.395 8.536741
53.400 8.739589
53.405 8.913747
53.410 8.897566
53.415 8.954641
53.420 8.758902
53.425 9.131795
53.430 8.592986
53.435 8.44024
53.440 8.388693
53.445 8.376741
53.450 8.533785
53.455 8.516964
53.460 7.97959
53.465 7.944127
53.470 7.96074
53.475 8.06819
53.480 8.018796
53.485 8.256007
53.490 8.116906
53.495 7.822766
53.500 7.93567
53.505 8.061307
53.510 8.629399
53.515 9.027366
53.520 8.955823
53.525 9.252253
53.530 9.658908
53.535 9.400047
53.540 9.006098
53.545 8.707933
53.550 8.728328
53.555 8.734753
53.560 8.589537
53.565 8.254678
53.570 8.478157
53.575 8.555322
53.580 8.075337
53.585 7.997094
53.590 8.125648
53.595 8.518462
53.600 8.965229
53.605 9.053676
53.610 9.319261
53.615 9.155707
53.620 8.627151
53.625 9.040227
53.630 8.882129
53.635 8.649413
53.640 8.467191
53.645 8.639383
53.650 9.390222
53.655 9.31082
53.660 8.805901
53.665 8.447808
53.670 8.126219
53.675 8.380604
53.680 8.169127
53.685 8.170979
53.690 8.37216
53.695 8.818777
53.700 9.410952
53.705 9.501595
53.710 9.210835
53.715 9.002003
53.720 8.899032
53.725 8.29079
53.730 7.496286
53.735 7.206108
53.740 7.818033
53.745 8.096843
53.750 8.302119
53.755 8.254133
53.760 8.594851
53.765 8.990156
53.770 8.723186
53.775 8.295044
53.780 8.274606
53.785 8.179674
53.790 8.596962
53.795 8.828042
53.800 8.759023
53.805 8.835997
53.810 8.769849
53.815 9.302715
53.820 9.572324
53.825 9.550186
53.830 9.970754
53.835 10.432081
53.840 10.954103
53.845 11.168242
53.850 10.39209
53.855 10.054305
53.860 9.914281
53.865 9.656276
53.870 9.295382
53.875 9.047688
53.880 8.731959
53.885 8.713402
53.890 9.03977
53.895 8.955437
53.900 8.877
53.905 8.849323
53.910 8.951024
53.915 9.414511
53.920 9.776382
53.925 9.539251
53.930 9.488803
53.935 9.461484
53.940 9.544745
53.945 9.646368
53.950 9.74838
53.955 9.353503
53.960 9.161629
53.965 9.40155
53.970 9.350956
53.975 9.276211
53.980 9.204845
53.985 8.728888
53.990 8.471671
53.995 8.043484
54.000 8.141137
54.005 8.889582
54.010 8.513723
54.015 8.570425
54.020 8.897955
54.025 9.222938
54.030 9.475416
54.035 8.90398
54.040 8.414921
54.045 8.122308
54.050 7.941223
54.055 7.754829
54.060 7.761508
54.065 8.024206
54.070 8.521779
54.075 8.944699
54.080 9.378585
54.085 9.542641
54.090 9.590647
54.095 9.488581
54.100 9.453466
54.105 9.261738
54.110 9.219075
54.115 9.153972
54.120 9.158612
54.125 9.683025
54.130 10.049113
54.135 10.404984
54.140 10.059599
54.145 9.499448
54.150 9.318791
54.155 9.406292
54.160 9.092724
54.165 8.592203
54.170 8.460701
54.175 9.174412
54.180 9.558197
54.185 9.801702
54.190 9.746106
54.195 9.852495
54.200 10.400631
54.205 10.042065
54.210 9.760134
54.215 9.808762
54.220 9.933613
54.225 9.982486
54.230 9.969533
54.235 9.805045
54.240 10.112188
54.245 10.321629
54.250 10.932042
54.255 10.799397
54.260 10.526492
54.265 10.54311
54.270 10.615799
54.275 10.553378
54.280 10.291967
54.285 9.785121
54.290 10.069775
54.295 10.027754
54.300 10.337685
54.305 10.522605
54.310 10.515835
54.315 10.348484
54.320 10.654977
54.325 11.086964
54.330 11.278975
54.335 10.882467
54.340 10.752881
54.345 10.927635
54.350 10.849456
54.355 10.413715
54.360 9.882461
54.365 9.746695
54.370 9.611174
54.375 9.28273
54.380 9.622119
54.385 9.964446
54.390 10.28388
54.395 10.696444
54.400 11.091567
54.405 11.275167
54.410 11.057821
54.415 10.517663
54.420 10.350418
54.425 9.980524
54.430 9.558816
54.435 9.340079
54.440 9.127808
54.445 8.919801
54.450 8.675665
54.455 8.559879
54.460 8.291891
54.465 8.642601
54.470 8.783252
54.475 9.091984
54.480 9.191545
54.485 9.302362
54.490 9.806628
54.495 10.039826
54.500 9.946569
54.505 9.876343
54.510 9.878898
54.515 10.113632
54.520 10.181093
54.525 10.117617
54.530 9.844399
54.535 9.392858
54.540 9.284675
54.545 9.184844
54.550 9.124297
54.555 9.195891
54.560 9.148012
54.565 9.645473
54.570 9.729116
54.575 9.11357
54.580 8.84535
54.585 8.771461
54.590 8.825506
54.595 8.848261
54.600 8.827373
54.605 9.065111
54.610 9.537838
54.615 9.757378
54.620 9.912601
54.625 9.5924
54.630 9.296742
54.635 9.280109
54.640 9.522987
54.645 9.293963
54.650 9.153021
54.655 9.258517
54.660 9.79638
54.665 9.967674
54.670 9.58972
54.675 9.556452
54.680 9.88513
54.685 10.330354
54.690 10.35949
54.695 9.90986
54.700 10.502831
54.705 10.762994
54.710 11.163974
54.715 11.610229
54.720 11.586772
54.725 11.438943
54.730 11.268414
54.735 10.849928
54.740 10.74254
54.745 10.851733
54.750 10.166719
54.755 9.610959
54.760 9.915772
54.765 9.602921
54.770 9.55187
54.775 8.970082
54.780 8.769378
54.785 9.352003
54.790 9.612897
54.795 9.709222
54.800 9.752994
54.805 9.546873
54.810 10.309894
54.815 10.242791
54.820 10.348978
54.825 10.297988
54.830 10.123543
54.835 10.15615
54.840 10.193313
54.845 9.74516
54.850 10.023991
54.855 10.547117
54.860 10.740191
54.865 10.993538
54.870 11.108144
54.875 11.107864
54.880 10.881277
54.885 9.878627
54.890 9.080506
54.895 8.479598
54.900 8.501162
54.905 8.638659
54.910 8.842114
54.915 9.015181
54.920 9.732278
54.925 10.351653
54.930 10.378915
54.935 10.622248
54.940 10.619055
54.945 10.896497
54.950 10.856179
54.955 10.086265
54.960 9.942703
54.965 9.722638
54.970 9.554002
54.975 9.549163
54.980 9.083338
54.985 9.182309
54.990 9.1269
54.995 8.968892
55.000 8.789522
55.005 8.540222
55.010 8.278831
55.015 8.07427
55.020 8.572177
55.025 9.092433
55.030 9.651703
55.035 10.058004
55.040 10.514496
55.045 10.672559
55.050 10.854364
55.055 10.453612
55.060 10.310019
55.065 10.18372
55.070 10.181122
55.075 9.67135
55.080 9.758496
55.085 9.631106
55.090 9.657879
55.095 9.536301
55.100 9.364574
55.105 9.456356
55.110 10.053444
55.115 10.400316
55.120 10.726995
55.125 10.542909
55.130 10.640678
55.135 10.778961
55.140 10.569813
55.145 10.630167
55.150 10.797879
55.155 10.75562
55.160 11.218015
55.165 11.059023
55.170 11.044461
55.175 10.97952
55.180 10.790727
55.185 10.545646
55.190 10.906286
55.195 10.736176
55.200 10.641678
55.205 10.397062
55.210 10.82513
55.215 10.607929
55.220 10.279641
55.225 9.628787
55.230 9.356409
55.235 9.990353
55.240 10.196265
55.245 10.467862
55.250 10.513648
55.255 10.675701
55.260 11.089319
55.265 10.794765
55.270 10.4486
55.275 10.525838
55.280 10.453689
55.285 10.846729
55.290 10.4067
55.295 9.916865
55.300 10.214819
55.305 10.483798
55.310 10.492195
55.315 10.416206
55.320 10.30356
55.325 10.811721
55.330 11.242781
55.335 11.140918
55.340 10.822209
55.345 10.48939
55.350 10.616322
55.355 11.229947
55.360 11.441489
55.365 11.151778
55.370 11.608775
55.375 12.205844
55.380 12.096223
55.385 11.555858
55.390 10.773858
55.395 10.678705
55.400 10.569564
55.405 9.470024
55.410 8.871408
55.415 8.616403
55.420 8.56257
55.425 8.475357
55.430 8.450443
55.435 8.834879
55.440 9.881074
55.445 10.147744
55.450 10.178279
55.455 10.098232
55.460 9.991261
55.465 10.321385
55.470 10.048769
55.475 9.563682
55.480 9.362577
55.485 9.235862
55.490 9.556773
55.495 9.995463
55.500 9.448737
55.505 9.928782
55.510 10.09131
55.515 10.624529
55.520 10.792151
55.525 10.766027
55.530 10.673953
55.535 11.173611
55.540 10.973882
55.545 11.120793
55.550 11.43392
55.555 11.524723
55.560 11.398335
55.565 11.0734
55.570 10.685808
55.575 10.338774
55.580 9.960353
55.585 9.692854
55.590 9.697466
55.595 10.383
55.600 10.708787
55.605 10.800663
55.610 10.771626
55.615 11.039129
55.620 10.908059
55.625 10.465137
55.630 9.869717
55.635 9.607493
55.640 9.749378
55.645 9.801422
55.650 9.829166
55.655 9.750213
55.660 9.688012
55.665 9.886068
55.670 10.090593
55.675 9.892038
55.680 9.674203
55.685 9.677942
55.690 10.133797
55.695 10.844172
55.700 11.221506
55.705 11.381387
55.710 11.31395
55.715 11.645039
55.720 11.873652
55.725 11.675673
55.730 10.790244
55.735 10.466458
55.740 10.485704
55.745 10.57008
55.750 10.468421
55.755 10.046037
55.760 10.055511
55.765 10.10292
55.770 9.76788
55.775 9.704038
55.780 9.676872
55.785 9.529948
55.790 9.849465
55.795 9.720503
55.800 9.823213
55.805 9.685477
55.810 9.72179
55.815 10.261578
55.820 9.931941
55.825 9.866696
55.830 10.466713
55.835 11.109487
55.840 11.322759
55.845 11.268668
55.850 10.966446
55.855 11.5463
55.860 11.679675
55.865 11.574723
55.870 11.201349
55.875 11.204901
55.880 11.390203
55.885 12.07104
55.890 12.188226
55.895 11.941799
55.900 11.900747
55.905 12.164766
55.910 12.604236
55.915 12.609632
55.920 12.330323
55.925 12.54294
55.930 13.058698
55.935 12.722151
55.940 12.797754
55.945 12.311127
55.950 12.52118
55.955 12.426561
55.960 11.984724
55.965 11.155084
55.970 10.871161
55.975 10.928548
55.980 11.590171
55.985 11.447266
55.990 11.396091
55.995 11.494159
56.000 11.626225
56.005 11.807557
56.010 11.090405
56.015 10.356927
56.020 10.05941
56.025 9.746372
56.030 9.771253
56.035 10.088435
56.040 10.514367
56.045 11.159967
56.050 11.087447
56.055 11.215603
56.060 11.138083
56.065 11.073571
56.070 11.369611
56.075 11.147495
56.080 11.222887
56.085 11.125748
56.090 11.570596
56.095 11.902957
56.100 11.578715
56.105 11.589755
56.110 11.397309
56.115 11.421814
56.120 11.57975
56.125 11.397003
56.130 11.259395
56.135 11.43522
56.140 11.326526
56.145 11.450864
56.150 11.364031
56.155 11.344883
56.160 11.114414
56.165 11.272485
56.170 11.467712
56.175 11.620275
56.180 11.685846
56.185 12.224264
56.190 12.05053
56.195 12.044444
56.200 11.950098
56.205 11.623537
56.210 11.72671
56.215 11.605897
56.220 11.352347
56.225 11.579349
56.230 11.563437
56.235 11.842663
56.240 12.095387
56.245 12.660166
56.250 12.757286
56.255 12.641282
56.260 12.344179
56.265 12.083331
56.270 11.721848
56.275 11.539076
56.280 10.790572
56.285 11.064577
56.290 11.528094
56.295 11.889771
56.300 12.079892
56.305 12.139975
56.310 11.952614
56.315 11.776311
56.320 11.072033
56.325 10.637341
56.330 10.90847
56.335 11.099426
56.340 11.104259
56.345 11.147918
56.350 11.131436
56.355 11.717097
56.360 12.1361
56.365 11.918978
56.370 11.558254
56.375 11.668693
56.380 11.918427
56.385 12.121881
56.390 12.390008
56.395 12.217441
56.400 11.737497
56.405 11.679246
56.410 11.765071
56.415 11.555691
56.420 11.268541
56.425 10.588161
56.430 10.543283
56.435 11.235894
56.440 11.692529
56.445 11.78392
56.450 11.724011
56.455 12.03921
56.460 12.870593
56.465 12.834352
56.470 12.174381
56.475 12.116776
56.480 12.379346
56.485 11.91967
56.490 11.297568
56.495 10.925209
56.500 11.111035
56.505 10.842836
56.510 10.695024
56.515 10.496824
56.520 10.809708
56.525 11.151835
56.530 10.941467
56.535 11.256885
56.540 11.552284
56.545 10.958684
56.550 11.288203
56.555 11.632041
56.560 11.967484
56.565 12.304228
56.570 12.404917
56.575 12.469269
56.580 12.876766
56.585 12.882405
56.590 12.531614
56.595 12.311455
56.600 11.600641
56.605 11.326259
56.610 11.734856
56.615 11.732818
56.620 11.66678
56.625 11.350333
56.630 11.769618
56.635 12.36533
56.640 12.470904
56.645 12.14651
56.650 12.014071
56.655 12.313741
56.660 12.266912
56.665 11.716585
56.670 11.473275
56.675 11.407696
56.680 11.072652
56.685 10.850242
56.690 10.772466
56.695 11.301014
56.700 11.473668
56.705 11.886606
56.710 12.354272
56.715 12.902593
56.720 13.443592
56.725 13.438002
56.730 13.62294
56.735 13.772067
56.740 13.52275
56.745 13.680246
56.750 13.89944
56.755 13.4509
56.760 13.133247
56.765 12.98036
56.770 12.690679
56.775 12.506517
56.780 12.278156
56.785 12.27368
56.790 12.488619
56.795 12.576001
56.800 12.636944
56.805 12.810121
56.810 12.95362
56.815 12.573436
56.820 11.975453
56.825 12.443699
56.830 12.181499
56.835 12.021333
56.840 12.139217
56.845 12.25267
56.850 12.542479
56.855 12.865809
56.860 12.88839
56.865 13.353014
56.870 13.53788
56.875 13.447929
56.880 13.118186
56.885 13.213202
56.890 13.073105
56.895 12.743937
56.900 12.61878
56.905 12.386534
56.910 12.599513
56.915 13.382192
56.920 13.64532
56.925 14.022104
56.930 14.142907
56.935 14.346964
56.940 14.329838
56.945 13.858306
56.950 13.399467
56.955 12.941111
56.960 12.949271
56.965 12.772299
56.970 12.88752
56.975 12.790309
56.980 12.989537
56.985 13.09012
56.990 12.642777
56.995 12.401536
57.000 12.089673
57.005 12.175431
57.010 12.023727
57.015 11.742301
57.020 11.596887
57.025 11.739112
57.030 11.434153
57.035 11.463164
57.040 10.969912
57.045 11.021009
57.050 11.516567
57.055 11.777418
57.060 12.094422
57.065 12.79413
57.070 13.189785
57.075 13.687101
57.080 13.422808
57.085 12.889874
57.090 13.006377
57.095 13.000808
57.100 12.575462
57.105 12.657832
57.110 12.442301
57.115 13.039012
57.120 13.062749
57.125 12.537593
57.130 12.408237
57.135 12.514191
57.140 12.712015
57.145 12.979991
57.150 12.422142
57.155 12.294837
57.160 12.619433
57.165 12.425875
57.170 12.565917
57.175 12.0745
57.180 12.063688
57.185 13.081755
57.190 13.465076
57.195 13.464929
57.200 13.604111
57.205 13.293707
57.210 13.667716
57.215 13.691128
57.220 13.683674
57.225 13.771853
57.230 13.894378
57.235 14.098421
57.240 14.070452
57.245 13.507281
57.250 13.19163
57.255 12.512955
57.260 12.191132
57.265 11.783562
57.270 11.420208
57.275 11.479426
57.280 11.400856
57.285 11.82847
57.290 12.221451
57.295 12.492082
57.300 13.225014
57.305 13.502378
57.310 13.429516
57.315 13.918251
57.320 13.247391
57.325 12.789445
57.330 12.802939
57.335 12.199347
57.340 11.910808
57.345 11.541258
57.350 10.834131
57.355 11.217448
57.360 11.792569
57.365 12.20036
57.370 12.889544
57.375 13.169888
57.380 13.328334
57.385 13.276338
57.390 13.356861
57.395 13.067105
57.400 13.185046
57.405 13.036077
57.410 13.266978
57.415 13.938033
57.420 14.463478
57.425 14.327445
57.430 13.888894
57.435 13.208233
57.440 12.80404
57.445 12.551123
57.450 12.644309
57.455 12.930696
57.460 12.891315
57.465 12.894926
57.470 12.886879
57.475 12.840554
57.480 12.929474
57.485 12.564482
57.490 12.369859
57.495 12.373786
57.500 12.695958
57.505 12.806691
57.510 12.784348
57.515 12.783523
57.520 12.610937
57.525 12.422121
57.530 12.502692
57.535 12.840495
57.540 13.674269
57.545 14.024968
57.550 13.984213
57.555 13.857304
57.560 13.654838
57.565 13.694826
57.570 13.560774
57.575 12.811076
57.580 13.089808
57.585 13.028623
57.590 13.587103
57.595 14.480122
57.600 14.644648
57.605 14.587581
57.610 14.896563
57.615 14.605142
57.620 15.150229
57.625 15.144447
57.630 15.010272
57.635 14.596412
57.640 14.374005
57.645 13.912017
57.650 14.409163
57.655 14.868163
57.660 14.581768
57.665 14.403491
57.670 14.284984
57.675 14.133963
57.680 14.254581
57.685 13.089857
57.690 12.401279
57.695 12.133462
57.700 12.250408
57.705 12.347221
57.710 12.453483
57.715 13.071996
57.720 13.063922
57.725 12.721805
57.730 13.082515
57.735 13.027202
57.740 13.547578
57.745 13.812258
57.750 13.389911
57.755 14.084083
57.760 13.991101
57.765 13.811181
57.770 13.824709
57.775 13.411618
57.780 13.374311
57.785 13.957366
57.790 13.760083
57.795 13.864929
57.800 13.723765
57.805 13.932507
57.810 14.774596
57.815 14.931273
57.820 14.398536
57.825 14.428384
57.830 14.976673
57.835 15.199503
57.840 14.896452
57.845 14.085149
57.850 13.978383
57.855 14.078032
57.860 14.470665
57.865 14.439344
57.870 14.724605
57.875 15.143394
57.880 15.453399
57.885 15.298716
57.890 15.445146
57.895 15.131021
57.900 15.284496
57.905 15.382167
57.910 15.451757
57.915 15.179448
57.920 15.151332
57.925 15.655869
57.930 15.431322
57.935 15.223266
57.940 15.074077
57.945 15.235222
57.950 15.641543
57.955 15.846676
57.960 15.521959
57.965 15.99746
57.970 16.306576
57.975 15.907383
57.980 15.321387
57.985 14.951227
57.990 14.698343
57.995 14.388413
58.000 14.704114
58.005 14.465005
58.010 14.475631
58.015 14.813157
58.020 14.953875
58.025 15.113312
58.030 16.053528
58.035 15.913957
58.040 15.427984
58.045 15.241836
58.050 14.864268
58.055 15.117164
58.060 14.565226
58.065 13.190622
58.070 12.683575
58.075 12.776774
58.080 13.511265
58.085 13.887254
58.090 13.85709
58.095 14.646623
58.100 15.324429
58.105 15.904798
58.110 15.854151
58.115 15.611567
58.120 15.482907
58.125 14.899036
58.130 14.813475
58.135 14.712454
58.140 14.704895
58.145 15.254078
58.150 15.252591
58.155 15.374689
58.160 15.471664
58.165 14.925917
58.170 15.161855
58.175 14.991407
58.180 15.119836
58.185 15.420884
58.190 15.115636
58.195 15.114914
58.200 15.363023
58.205 15.120841
58.210 15.320377
58.215 14.615935
58.220 13.968175
58.225 14.11638
58.230 14.85999
58.235 15.267397
58.240 15.653625
58.245 15.877513
58.250 16.132324
58.255 16.779783
58.260 16.907927
58.265 16.348436
58.270 16.007851
58.275 16.022915
58.280 15.926944
58.285 16.079702
58.290 16.094984
58.295 16.054216
58.300 16.132414
58.305 16.824337
58.310 16.967377
58.315 17.694908
58.320 17.790981
58.325 17.831179
58.330 18.052145
58.335 18.125669
58.340 17.865685
58.345 17.908386
58.350 17.735281
58.355 18.445593
58.360 18.368807
58.365 18.405943
58.370 18.660397
58.375 18.699137
58.380 19.056334
58.385 19.131424
58.390 19.174389
58.395 19.624502
58.400 20.301422
58.405 20.446686
58.410 20.307165
58.415 20.441238
58.420 20.587093
58.425 21.046001
58.430 21.337378
58.435 21.361618
58.440 21.731571
58.445 22.266163
58.450 22.106062
58.455 22.406969
58.460 22.79977
58.465 22.997807
58.470 22.772797
58.475 22.961918
58.480 23.022709
58.485 23.469294
58.490 24.261696
58.495 24.867855
58.500 25.449156
58.505 26.738453
58.510 27.29019
58.515 28.141222
58.520 29.201916
58.525 29.55574
58.530 29.458536
58.535 30.071142
58.540 30.226517
58.545 30.817074
