!@!!GADDS PLOTSO FILE: Chi integration type
!@!!Title/SampleName: map-c2
!@!!Comment: ?
!@!!User: Bruker Instrument Administrator
!@!!Site: University of Illinois Chicago
!@!!Frame: map-c2_01_000.gfrm
!@!!Wavelengths    1.54184   1.54056   1.54439
!@!!Frame angles: 2Theta: 63.000 Omega: 50.000 Phi: 0.000 Chi: 90.000
!@!!Integration range: 2Theta: 53.000 to 73.000  Gamma: -105.000 to -75.000
!@!!Integration method: bin normalized
!@!N
!@!SS
!@!M
!@!L 0.0 0.0 0.0 0.0
!@!XDegrees
!@!YCounts
53.000 6.969148
53.005 7.119918
53.010 7.164136
53.015 7.343444
53.020 7.543658
53.025 7.441577
53.030 7.570232
53.035 7.265034
53.040 7.471794
53.045 7.286184
53.050 7.118325
53.055 7.126484
53.060 7.017568
53.065 7.048917
53.070 6.894176
53.075 6.755336
53.080 6.79177
53.085 7.039772
53.090 7.043203
53.095 7.10517
53.100 7.236856
53.105 7.239428
53.110 7.2966
53.115 7.434931
53.120 7.602323
53.125 7.543972
53.130 7.960514
53.135 7.881823
53.140 7.959042
53.145 8.378193
53.150 8.628372
53.155 8.769554
53.160 8.644262
53.165 8.186368
53.170 8.353786
53.175 8.445459
53.180 8.039256
53.185 7.465265
53.190 7.288226
53.195 7.444884
53.200 7.615405
53.205 7.511003
53.210 7.590331
53.215 7.914322
53.220 8.145502
53.225 8.087213
53.230 7.978799
53.235 8.013838
53.240 7.933382
53.245 7.491119
53.250 7.015942
53.255 6.968247
53.260 6.797458
53.265 6.516324
53.270 6.462892
53.275 6.399654
53.280 6.334637
53.285 6.305753
53.290 6.331662
53.295 6.594651
53.300 6.955377
53.305 7.521345
53.310 7.329288
53.315 7.561293
53.320 7.842731
53.325 8.114979
53.330 7.874372
53.335 7.181578
53.340 6.88626
53.345 7.24781
53.350 7.082639
53.355 6.87719
53.360 6.729365
53.365 6.804991
53.370 6.960894
53.375 7.388875
53.380 7.796326
53.385 7.908566
53.390 8.022387
53.395 8.308321
53.400 8.311823
53.405 8.254539
53.410 7.895774
53.415 7.848176
53.420 7.745225
53.425 7.59932
53.430 7.548019
53.435 7.608915
53.440 7.412619
53.445 7.765262
53.450 8.166772
53.455 8.361938
53.460 8.749233
53.465 8.560063
53.470 8.953707
53.475 8.841451
53.480 8.735462
53.485 8.803565
53.490 8.875002
53.495 8.552279
53.500 8.318752
53.505 7.833083
53.510 7.556067
53.515 7.406418
53.520 6.58248
53.525 6.788542
53.530 7.128654
53.535 7.778861
53.540 7.946893
53.545 8.568472
53.550 8.741982
53.555 9.110327
53.560 9.066546
53.565 8.684385
53.570 8.611523
53.575 8.580754
53.580 8.235958
53.585 8.51694
53.590 8.84551
53.595 8.453386
53.600 8.337028
53.605 8.14581
53.610 8.366007
53.615 8.31205
53.620 7.881211
53.625 7.206612
53.630 7.758102
53.635 7.756914
53.640 7.765066
53.645 7.342614
53.650 7.203612
53.655 7.414927
53.660 7.493281
53.665 7.159045
53.670 7.268691
53.675 7.261329
53.680 7.292735
53.685 7.359895
53.690 6.968143
53.695 7.108052
53.700 6.946443
53.705 7.211927
53.710 7.49021
53.715 7.466443
53.720 7.858523
53.725 8.253051
53.730 8.708941
53.735 9.016604
53.740 8.92637
53.745 9.018518
53.750 8.880789
53.755 8.408098
53.760 8.015229
53.765 7.663955
53.770 7.498179
53.775 7.648108
53.780 7.897766
53.785 8.130798
53.790 8.32947
53.795 8.53656
53.800 8.469523
53.805 8.242219
53.810 7.970752
53.815 7.721939
53.820 7.605968
53.825 7.83656
53.830 7.4078
53.835 7.526195
53.840 7.788652
53.845 7.793479
53.850 8.290742
53.855 8.263919
53.860 8.203778
53.865 8.602652
53.870 8.788064
53.875 8.982086
53.880 8.993972
53.885 8.759727
53.890 8.757376
53.895 9.312927
53.900 9.384166
53.905 9.520697
53.910 9.197024
53.915 9.019914
53.920 8.921469
53.925 8.612156
53.930 8.475828
53.935 8.329372
53.940 8.324567
53.945 8.439886
53.950 8.687302
53.955 8.637158
53.960 8.531617
53.965 8.204026
53.970 8.324059
53.975 8.434044
53.980 8.388803
53.985 8.152846
53.990 8.046761
53.995 8.588728
54.000 8.471073
54.005 7.940616
54.010 7.58765
54.015 7.690976
54.020 8.025899
54.025 8.344439
54.030 8.068109
54.035 7.818018
54.040 8.416185
54.045 8.643106
54.050 8.664497
54.055 8.756688
54.060 8.661747
54.065 8.572146
54.070 8.377073
54.075 7.98718
54.080 8.000092
54.085 7.807098
54.090 7.953833
54.095 8.047233
54.100 8.595519
54.105 9.159677
54.110 8.613633
54.115 8.581168
54.120 8.646842
54.125 8.387553
54.130 8.091805
54.135 8.135545
54.140 8.401897
54.145 9.108686
54.150 8.920315
54.155 8.871265
54.160 9.213154
54.165 9.37653
54.170 9.143001
54.175 8.772467
54.180 8.757229
54.185 8.825968
54.190 8.907528
54.195 8.974553
54.200 9.284716
54.205 9.402527
54.210 9.308051
54.215 8.994907
54.220 9.284641
54.225 9.092416
54.230 8.734514
54.235 8.652192
54.240 8.451204
54.245 8.63295
54.250 9.067306
54.255 9.212879
54.260 9.315363
54.265 9.517472
54.270 10.107895
54.275 10.283813
54.280 10.530812
54.285 10.142663
54.290 9.957956
54.295 9.888343
54.300 10.158353
54.305 9.856748
54.310 9.560168
54.315 9.503071
54.320 9.360013
54.325 9.143582
54.330 9.030679
54.335 8.506571
54.340 8.370127
54.345 8.502134
54.350 8.404083
54.355 8.592661
54.360 8.775938
54.365 8.769306
54.370 8.993977
54.375 9.512153
54.380 9.339689
54.385 8.873393
54.390 8.875077
54.395 9.367624
54.400 9.533981
54.405 9.466955
54.410 9.116387
54.415 9.128193
54.420 9.432215
54.425 9.212155
54.430 8.691812
54.435 8.771192
54.440 8.476395
54.445 8.872535
54.450 9.359737
54.455 9.212263
54.460 9.095054
54.465 9.572729
54.470 9.494981
54.475 9.837397
54.480 9.613147
54.485 9.32467
54.490 9.630016
54.495 9.68714
54.500 9.533957
54.505 9.152265
54.510 8.750606
54.515 8.879272
54.520 8.901843
54.525 9.11163
54.530 8.913145
54.535 8.645676
54.540 8.941271
54.545 8.699762
54.550 8.814353
54.555 9.028684
54.560 8.638187
54.565 8.86121
54.570 9.361545
54.575 10.155456
54.580 10.50964
54.585 10.654249
54.590 10.724315
54.595 10.981239
54.600 10.755162
54.605 10.426567
54.610 9.813564
54.615 9.376846
54.620 9.351399
54.625 9.268645
54.630 9.047756
54.635 9.038514
54.640 9.027653
54.645 9.371087
54.650 9.418778
54.655 9.254086
54.660 8.981897
54.665 9.342546
54.670 9.521841
54.675 9.551211
54.680 9.672499
54.685 10.07683
54.690 10.136872
54.695 10.6212
54.700 10.653478
54.705 10.353449
54.710 9.993701
54.715 9.722985
54.720 9.607653
54.725 9.572444
54.730 9.404985
54.735 9.174861
54.740 9.462676
54.745 10.034248
54.750 9.975478
54.755 9.964986
54.760 9.883926
54.765 9.756846
54.770 9.814713
54.775 9.638642
54.780 9.168581
54.785 9.376338
54.790 9.453683
54.795 9.636744
54.800 9.470734
54.805 9.513424
54.810 9.613558
54.815 10.134492
54.820 10.465138
54.825 10.657743
54.830 10.642463
54.835 10.811482
54.840 10.87578
54.845 10.634098
54.850 10.678885
54.855 10.502529
54.860 10.587645
54.865 10.82493
54.870 10.538446
54.875 10.521571
54.880 10.523706
54.885 10.227328
54.890 10.042504
54.895 9.692605
54.900 9.800159
54.905 9.929062
54.910 9.810103
54.915 9.946517
54.920 9.495117
54.925 9.077139
54.930 8.863902
54.935 8.424459
54.940 8.416346
54.945 8.356384
54.950 8.39139
54.955 9.027152
54.960 9.430849
54.965 9.574763
54.970 9.923027
54.975 9.996033
54.980 10.261573
54.985 10.122842
54.990 9.725462
54.995 9.990975
55.000 9.952527
55.005 9.750238
55.010 9.976141
55.015 9.766369
55.020 9.867562
55.025 9.736697
55.030 9.669604
55.035 9.711461
55.040 9.671766
55.045 9.487597
55.050 9.284398
55.055 9.319695
55.060 9.668821
55.065 9.745074
55.070 9.900012
55.075 9.995132
55.080 10.161395
55.085 9.906164
55.090 9.46238
55.095 9.352276
55.100 9.025356
55.105 9.039448
55.110 9.084426
55.115 9.242311
55.120 9.733033
55.125 10.048354
55.130 9.91333
55.135 10.214614
55.140 10.620862
55.145 10.405081
55.150 10.375249
55.155 10.247218
55.160 10.356926
55.165 10.717918
55.170 10.371846
55.175 10.137464
55.180 10.22848
55.185 10.182056
55.190 10.443322
55.195 10.291702
55.200 9.920694
55.205 9.972906
55.210 9.767704
55.215 9.581405
55.220 9.199132
55.225 8.821477
55.230 8.771883
55.235 8.815183
55.240 8.957202
55.245 9.254189
55.250 9.540139
55.255 10.010686
55.260 9.88404
55.265 9.950693
55.270 9.664262
55.275 9.298652
55.280 9.21459
55.285 9.1197
55.290 9.032853
55.295 9.196937
55.300 9.324815
55.305 9.381118
55.310 9.051225
55.315 8.733315
55.320 8.923755
55.325 9.052307
55.330 8.666482
55.335 8.596194
55.340 8.819473
55.345 9.576822
55.350 9.562026
55.355 9.528216
55.360 9.45313
55.365 9.86553
55.370 10.067979
55.375 10.22647
55.380 9.994466
55.385 10.250503
55.390 10.356144
55.395 10.477931
55.400 10.313672
55.405 10.498377
55.410 10.526885
55.415 10.41728
55.420 10.534017
55.425 10.394216
55.430 10.201253
55.435 10.410298
55.440 10.515217
55.445 10.139981
55.450 10.26588
55.455 10.038582
55.460 10.352218
55.465 10.596996
55.470 10.120367
55.475 9.946685
55.480 10.22891
55.485 10.139201
55.490 10.088886
55.495 9.88189
55.500 10.462586
55.505 10.889538
55.510 10.689784
55.515 10.438187
55.520 10.416592
55.525 10.407
55.530 10.133526
55.535 9.63604
55.540 9.711191
55.545 9.849813
55.550 10.058092
55.555 10.072248
55.560 10.311692
55.565 10.380072
55.570 10.199926
55.575 10.448105
55.580 10.449817
55.585 10.198919
55.590 10.351304
55.595 10.317863
55.600 10.651938
55.605 10.372958
55.610 10.006375
55.615 9.995046
55.620 10.517632
55.625 10.581478
55.630 10.599555
55.635 10.341592
55.640 10.457944
55.645 10.720318
55.650 10.782475
55.655 10.613069
55.660 10.357676
55.665 10.158617
55.670 10.158216
55.675 10.170615
55.680 9.864164
55.685 9.95651
55.690 9.983326
55.695 10.270786
55.700 9.967614
55.705 9.448304
55.710 9.376579
55.715 9.927827
55.720 10.073479
55.725 9.865053
55.730 9.604689
55.735 9.771289
55.740 10.008695
55.745 10.003492
55.750 9.728591
55.755 9.217052
55.760 9.385124
55.765 9.866562
55.770 10.51005
55.775 10.873436
55.780 10.994047
55.785 11.133108
55.790 11.125802
55.795 11.1162
55.800 10.960823
55.805 10.808242
55.810 10.839184
55.815 11.067456
55.820 11.373023
55.825 11.821176
55.830 12.145513
55.835 12.545917
55.840 12.658176
55.845 12.450211
55.850 12.208789
55.855 11.650066
55.860 11.28653
55.865 10.968048
55.870 10.152568
55.875 10.168217
55.880 10.288967
55.885 10.3265
55.890 10.759431
55.895 11.255843
55.900 11.326684
55.905 11.648436
55.910 11.458881
55.915 11.538701
55.920 11.423589
55.925 11.14915
55.930 10.646551
55.935 10.511106
55.940 10.591486
55.945 11.102315
55.950 11.207725
55.955 11.423109
55.960 11.633452
55.965 11.925467
55.970 12.387561
55.975 12.399131
55.980 11.847085
55.985 11.421648
55.990 11.102379
55.995 11.019119
56.000 10.7431
56.005 10.16455
56.010 10.008456
56.015 9.646576
56.020 10.130663
56.025 10.388817
56.030 10.683575
56.035 11.174932
56.040 11.796948
56.045 12.071705
56.050 12.156486
56.055 12.388214
56.060 11.688412
56.065 11.142914
56.070 10.674644
56.075 10.126622
56.080 10.413774
56.085 10.429363
56.090 9.87333
56.095 10.191389
56.100 10.045079
56.105 10.065005
56.110 10.534906
56.115 10.088265
56.120 9.876919
56.125 10.324083
56.130 10.963885
56.135 11.183357
56.140 11.31389
56.145 11.212467
56.150 11.221775
56.155 11.321644
56.160 10.846535
56.165 10.380342
56.170 10.498447
56.175 10.58681
56.180 10.808909
56.185 10.827514
56.190 11.049685
56.195 11.84549
56.200 12.285805
56.205 12.35697
56.210 12.15757
56.215 12.095283
56.220 12.13905
56.225 11.993399
56.230 11.562343
56.235 10.924643
56.240 10.804867
56.245 10.614335
56.250 10.679982
56.255 11.314938
56.260 11.646603
56.265 11.838159
56.270 11.79609
56.275 11.66671
56.280 11.524612
56.285 10.920021
56.290 10.277724
56.295 9.672143
56.300 9.421524
56.305 9.969818
56.310 10.002683
56.315 10.266437
56.320 10.677947
56.325 11.264178
56.330 11.435455
56.335 11.37417
56.340 11.226246
56.345 11.270247
56.350 11.525943
56.355 11.867048
56.360 11.563214
56.365 11.904765
56.370 11.743153
56.375 11.831459
56.380 11.736646
56.385 11.593588
56.390 11.105742
56.395 10.722331
56.400 10.46069
56.405 10.229415
56.410 10.157136
56.415 10.414619
56.420 9.719618
56.425 10.12445
56.430 10.607764
56.435 10.810115
56.440 11.3073
56.445 11.437322
56.450 11.351192
56.455 11.870391
56.460 11.990418
56.465 11.615225
56.470 11.542709
56.475 10.829121
56.480 10.319574
56.485 10.089079
56.490 9.47505
56.495 9.199416
56.500 8.854568
56.505 9.453097
56.510 10.26065
56.515 10.982199
56.520 11.455688
56.525 11.867424
56.530 12.194558
56.535 12.237413
56.540 12.042936
56.545 12.13413
56.550 12.239638
56.555 11.763398
56.560 11.29614
56.565 11.222758
56.570 11.356765
56.575 11.712401
56.580 11.281979
56.585 11.03159
56.590 11.617154
56.595 12.379535
56.600 12.239527
56.605 11.637817
56.610 10.807316
56.615 10.56692
56.620 10.388188
56.625 10.201757
56.630 9.930636
56.635 10.073367
56.640 10.805614
56.645 11.166306
56.650 11.478805
56.655 12.320953
56.660 12.347947
56.665 12.494373
56.670 12.426103
56.675 12.177139
56.680 12.341141
56.685 12.155406
56.690 11.472777
56.695 11.352164
56.700 11.338244
56.705 11.505171
56.710 11.65068
56.715 11.61829
56.720 12.211776
56.725 12.253264
56.730 11.971411
56.735 11.626937
56.740 11.87264
56.745 11.654996
56.750 11.694187
56.755 11.293521
56.760 11.130804
56.765 11.481169
56.770 11.670611
56.775 11.202219
56.780 11.277693
56.785 11.596086
56.790 11.840789
56.795 12.254287
56.800 12.305275
56.805 12.362866
56.810 12.710704
56.815 12.902731
56.820 12.293249
56.825 11.846272
56.830 12.102414
56.835 12.439075
56.840 12.309242
56.845 12.391378
56.850 12.292686
56.855 12.679149
56.860 13.205589
56.865 13.121566
56.870 12.983968
56.875 12.944544
56.880 12.486337
56.885 12.199869
56.890 11.867561
56.895 11.479993
56.900 11.304131
56.905 11.470057
56.910 11.593559
56.915 12.21988
56.920 12.480938
56.925 12.504661
56.930 12.46274
56.935 12.095893
56.940 12.117614
56.945 12.039188
56.950 11.797497
56.955 11.679081
56.960 11.522921
56.965 11.347898
56.970 11.036143
56.975 11.149336
56.980 11.131557
56.985 11.427099
56.990 12.141636
56.995 12.257897
57.000 12.473273
57.005 12.662971
57.010 12.420158
57.015 12.576692
57.020 12.494157
57.025 11.935777
57.030 11.922091
57.035 12.234959
57.040 12.425518
57.045 12.295507
57.050 11.785007
57.055 11.328013
57.060 11.5461
57.065 11.920739
57.070 11.893216
57.075 11.911934
57.080 11.955252
57.085 12.158964
57.090 12.350855
57.095 12.751576
57.100 12.355206
57.105 11.984321
57.110 11.69995
57.115 11.618694
57.120 11.368742
57.125 11.388352
57.130 10.73114
57.135 10.934047
57.140 11.297339
57.145 12.175138
57.150 12.568731
57.155 12.905421
57.160 13.117018
57.165 13.42801
57.170 13.598657
57.175 13.489354
57.180 13.022563
57.185 12.749264
57.190 12.930752
57.195 12.82493
57.200 12.735804
57.205 12.751766
57.210 12.100515
57.215 11.421478
57.220 11.199495
57.225 10.616742
57.230 10.814561
57.235 10.859361
57.240 10.807721
57.245 11.553008
57.250 12.186557
57.255 12.632689
57.260 12.61445
57.265 12.320807
57.270 12.835265
57.275 12.905188
57.280 12.887095
57.285 12.946219
57.290 12.961127
57.295 13.071464
57.300 13.084087
57.305 12.859179
57.310 12.830192
57.315 12.743353
57.320 12.782064
57.325 13.022923
57.330 13.053623
57.335 12.900545
57.340 13.377946
57.345 13.400517
57.350 12.843118
57.355 12.374193
57.360 12.306284
57.365 12.293306
57.370 12.079307
57.375 11.335495
57.380 11.211588
57.385 12.00235
57.390 11.859462
57.395 12.239591
57.400 12.787075
57.405 12.907874
57.410 13.595835
57.415 13.373189
57.420 13.314301
57.425 13.703429
57.430 13.348512
57.435 13.20062
57.440 13.558831
57.445 13.554372
57.450 13.873767
57.455 13.526247
57.460 12.938074
57.465 12.930442
57.470 12.9593
57.475 12.402699
57.480 12.263163
57.485 11.890181
57.490 11.79016
57.495 11.935096
57.500 11.356958
57.505 11.374274
57.510 11.945912
57.515 12.5569
57.520 12.736525
57.525 13.020857
57.530 13.213923
57.535 13.314094
57.540 12.823983
57.545 12.086094
57.550 11.61912
57.555 12.081671
57.560 12.605568
57.565 13.320794
57.570 14.033544
57.575 14.163139
57.580 14.532707
57.585 14.777974
57.590 14.600469
57.595 14.174847
57.600 13.51116
57.605 12.772583
57.610 12.691568
57.615 12.458835
57.620 12.172722
57.625 11.879867
57.630 11.97467
57.635 12.107204
57.640 12.407599
57.645 12.307933
57.650 12.51052
57.655 13.052535
57.660 13.490469
57.665 13.268514
57.670 12.886258
57.675 12.941872
57.680 13.115327
57.685 12.983287
57.690 12.998443
57.695 13.291382
57.700 13.066301
57.705 12.776087
57.710 12.671948
57.715 12.685714
57.720 12.680042
57.725 12.291572
57.730 12.244913
57.735 13.010628
57.740 13.575333
57.745 13.574599
57.750 13.48202
57.755 13.186769
57.760 13.075928
57.765 12.634011
57.770 12.094154
57.775 12.323524
57.780 12.63866
57.785 12.838328
57.790 13.211614
57.795 13.752254
57.800 13.813642
57.805 13.833345
57.810 13.556601
57.815 13.486766
57.820 13.992412
57.825 14.016317
57.830 13.740215
57.835 13.846155
57.840 14.268847
57.845 14.259436
57.850 14.327617
57.855 13.836737
57.860 13.414181
57.865 13.185096
57.870 12.932072
57.875 13.241446
57.880 13.646482
57.885 13.535905
57.890 13.528239
57.895 13.548263
57.900 14.328382
57.905 14.806321
57.910 14.304651
57.915 14.240344
57.920 14.835487
57.925 15.310502
57.930 15.236066
57.935 14.690583
57.940 14.714701
57.945 14.976516
57.950 14.770468
57.955 14.674149
57.960 14.613121
57.965 14.910491
57.970 15.214816
57.975 15.289723
57.980 15.581741
57.985 15.932051
57.990 15.762253
57.995 15.470075
58.000 15.165749
58.005 14.434014
58.010 14.326191
58.015 13.841011
58.020 13.207122
58.025 13.296887
58.030 13.44
58.035 13.713396
58.040 13.745897
58.045 13.239946
58.050 12.975116
58.055 12.969199
58.060 12.972188
58.065 13.083101
58.070 13.69416
58.075 14.51582
58.080 15.103312
58.085 15.252792
58.090 15.141945
58.095 14.90821
58.100 15.287601
58.105 14.608257
58.110 14.305055
58.115 14.359604
58.120 15.169475
58.125 16.111975
58.130 16.701752
58.135 17.061098
58.140 17.690897
58.145 17.634512
58.150 17.394312
58.155 17.041845
58.160 16.665314
58.165 16.190014
58.170 15.189695
58.175 14.742627
58.180 14.404631
58.185 14.174792
58.190 13.645129
58.195 13.364592
58.200 13.301467
58.205 13.407454
58.210 13.26259
58.215 13.920514
58.220 14.454052
58.225 14.164723
58.230 14.29386
58.235 14.468906
58.240 15.237909
58.245 15.429814
58.250 15.64314
58.255 15.750793
58.260 16.299061
58.265 15.648236
58.270 14.988078
58.275 14.83263
58.280 14.612683
58.285 14.491508
58.290 14.941765
58.295 15.271396
58.300 16.233435
58.305 16.757809
58.310 16.865841
58.315 17.146275
58.320 16.643545
58.325 16.19603
58.330 16.371727
58.335 15.918707
58.340 15.696946
58.345 15.509641
58.350 15.900109
58.355 16.522938
58.360 16.540949
58.365 16.581465
58.370 16.77025
58.375 16.837257
58.380 16.71155
58.385 16.844784
58.390 17.413313
58.395 18.286665
58.400 18.207441
58.405 18.669159
58.410 19.111893
58.415 19.469601
58.420 19.242868
58.425 18.798428
58.430 18.598946
58.435 18.654062
58.440 18.284164
58.445 18.335938
58.450 19.116322
58.455 19.668711
58.460 20.010214
58.465 20.279692
58.470 21.089409
58.475 21.667019
58.480 21.113701
58.485 20.519424
58.490 20.902439
58.495 21.608635
58.500 21.739204
58.505 21.231228
58.510 21.82077
58.515 22.855289
58.520 23.6376
58.525 23.433971
58.530 22.763294
58.535 22.787861
58.540 23.620935
58.545 24.006413
58.550 24.353237
58.555 24.559387
58.560 25.066256
58.565 26.253134
58.570 27.257751
