!@!!GADDS PLOTSO FILE: Chi integration type
!@!!Title/SampleName: map-9
!@!!Comment: ?
!@!!User: Bruker Instrument Administrator
!@!!Site: University of Illinois Chicago
!@!!Frame: map-9_01_000.gfrm
!@!!Wavelengths    1.54184   1.54056   1.54439
!@!!Frame angles: 2Theta: 63.000 Omega: 50.000 Phi: 0.000 Chi: 90.000
!@!!Integration range: 2Theta: 53.000 to 73.000  Gamma: -105.000 to -75.000
!@!!Integration method: bin normalized
!@!N
!@!SS
!@!M
!@!L 0.0 0.0 0.0 0.0
!@!XDegrees
!@!YCounts
53.000 6.653871
53.005 7.039416
53.010 7.289947
53.015 7.675916
53.020 7.567919
53.025 7.190376
53.030 7.53352
53.035 7.981952
53.040 7.545181
53.045 7.031255
53.050 6.634935
53.055 6.139869
53.060 6.103941
53.065 5.883283
53.070 6.130542
53.075 6.146811
53.080 6.60559
53.085 7.268708
53.090 8.000414
53.095 8.429343
53.100 8.397783
53.105 8.158449
53.110 8.019667
53.115 7.568841
53.120 6.827137
53.125 6.426172
53.130 6.570742
53.135 6.29062
53.140 6.33075
53.145 6.544867
53.150 6.686386
53.155 7.069616
53.160 6.889427
53.165 6.647746
53.170 6.679273
53.175 6.580008
53.180 6.466637
53.185 6.643303
53.190 6.447024
53.195 6.484273
53.200 6.706379
53.205 7.202886
53.210 7.338558
53.215 7.805995
53.220 7.603127
53.225 7.81979
53.230 7.950246
53.235 8.013487
53.240 7.64955
53.245 7.530412
53.250 7.171544
53.255 7.047942
53.260 6.93833
53.265 6.425827
53.270 6.408033
53.275 6.675759
53.280 6.678176
53.285 6.861356
53.290 6.953127
53.295 7.037458
53.300 7.581242
53.305 8.07115
53.310 8.216787
53.315 8.756907
53.320 8.523766
53.325 8.562138
53.330 8.936583
53.335 8.354159
53.340 7.937552
53.345 7.712448
53.350 7.237344
53.355 7.311104
53.360 7.136381
53.365 6.65547
53.370 6.945427
53.375 6.989348
53.380 7.01189
53.385 7.470497
53.390 7.313593
53.395 7.422745
53.400 7.561489
53.405 7.426627
53.410 7.395592
53.415 7.494251
53.420 7.450986
53.425 7.214034
53.430 7.460191
53.435 7.765968
53.440 7.989992
53.445 8.118823
53.450 8.105245
53.455 8.444389
53.460 8.374362
53.465 7.888713
53.470 7.500003
53.475 7.098108
53.480 6.67946
53.485 6.492744
53.490 6.572727
53.495 6.892728
53.500 7.224782
53.505 7.203496
53.510 7.285469
53.515 7.732347
53.520 7.861171
53.525 8.067349
53.530 7.661638
53.535 7.474002
53.540 7.701649
53.545 7.607807
53.550 7.43714
53.555 7.023462
53.560 6.767414
53.565 6.772562
53.570 7.088375
53.575 6.851772
53.580 6.781902
53.585 6.929095
53.590 6.771656
53.595 6.657602
53.600 6.74337
53.605 6.783108
53.610 7.249589
53.615 6.989421
53.620 6.960752
53.625 7.190674
53.630 7.406674
53.635 7.423538
53.640 7.426791
53.645 7.550262
53.650 7.480981
53.655 7.805153
53.660 7.858
53.665 7.730012
53.670 7.826663
53.675 7.95773
53.680 7.919277
53.685 8.178245
53.690 8.01981
53.695 7.902212
53.700 8.111256
53.705 7.926141
53.710 7.804216
53.715 7.879076
53.720 7.722014
53.725 7.438833
53.730 7.679612
53.735 7.347787
53.740 7.309402
53.745 7.331506
53.750 7.461686
53.755 7.982374
53.760 8.746035
53.765 8.802505
53.770 8.900611
53.775 8.71476
53.780 8.725135
53.785 8.425355
53.790 8.266763
53.795 8.348756
53.800 8.474996
53.805 8.745117
53.810 8.644899
53.815 8.544506
53.820 8.625745
53.825 8.164877
53.830 7.528504
53.835 7.185608
53.840 7.225076
53.845 7.382775
53.850 7.439212
53.855 7.745998
53.860 7.985101
53.865 8.093314
53.870 7.846072
53.875 7.951173
53.880 8.298104
53.885 8.495048
53.890 8.317427
53.895 8.232374
53.900 8.106735
53.905 8.351511
53.910 8.220362
53.915 7.482328
53.920 7.492809
53.925 7.32655
53.930 7.377359
53.935 7.453869
53.940 7.59684
53.945 7.989275
53.950 8.513799
53.955 8.206594
53.960 8.182755
53.965 8.563875
53.970 8.52805
53.975 8.015162
53.980 7.953764
53.985 7.487264
53.990 7.755009
53.995 7.364913
54.000 7.035761
54.005 7.246882
54.010 7.294717
54.015 6.864111
54.020 7.245371
54.025 7.393689
54.030 7.998621
54.035 8.349174
54.040 8.13873
54.045 8.406191
54.050 8.368691
54.055 8.066168
54.060 7.657684
54.065 6.93198
54.070 6.628279
54.075 6.469776
54.080 6.708877
54.085 6.931857
54.090 6.949437
54.095 7.310302
54.100 7.34139
54.105 7.294592
54.110 7.644735
54.115 7.381681
54.120 7.548112
54.125 7.565726
54.130 7.646943
54.135 8.132668
54.140 8.258569
54.145 8.440177
54.150 8.779596
54.155 9.066156
54.160 9.303657
54.165 9.312146
54.170 9.595788
54.175 9.398918
54.180 9.001799
54.185 8.348742
54.190 8.179208
54.195 8.145251
54.200 7.939567
54.205 7.712993
54.210 7.804933
54.215 7.729037
54.220 8.012494
54.225 7.682746
54.230 7.540164
54.235 8.011759
54.240 7.694067
54.245 7.74332
54.250 7.587629
54.255 7.788257
54.260 8.1212
54.265 8.139506
54.270 8.068362
54.275 8.02167
54.280 8.191211
54.285 8.434268
54.290 8.661429
54.295 8.921087
54.300 9.012828
54.305 9.189158
54.310 9.644506
54.315 9.593675
54.320 9.61273
54.325 9.133086
54.330 8.744477
54.335 8.512232
54.340 8.273689
54.345 8.265451
54.350 8.017859
54.355 7.93612
54.360 8.002555
54.365 8.188694
54.370 8.152009
54.375 8.176223
54.380 7.781254
54.385 7.99458
54.390 8.117402
54.395 7.866308
54.400 7.873291
54.405 7.80294
54.410 7.916493
54.415 8.106398
54.420 7.882308
54.425 8.002751
54.430 8.349032
54.435 7.947124
54.440 7.566396
54.445 7.601073
54.450 7.920024
54.455 7.808118
54.460 7.720069
54.465 7.512768
54.470 8.217699
54.475 8.898402
54.480 8.824664
54.485 8.722137
54.490 8.725467
54.495 8.817036
54.500 9.113579
54.505 9.155901
54.510 8.826088
54.515 8.941113
54.520 8.940607
54.525 9.052494
54.530 8.801044
54.535 8.558316
54.540 9.057224
54.545 9.090608
54.550 9.19568
54.555 9.376873
54.560 9.412799
54.565 9.774051
54.570 9.639146
54.575 8.910108
54.580 9.128713
54.585 9.163664
54.590 8.837269
54.595 8.408721
54.600 8.090446
54.605 8.294988
54.610 8.323331
54.615 7.935607
54.620 7.876507
54.625 8.214982
54.630 8.580599
54.635 8.47389
54.640 8.01095
54.645 7.815513
54.650 7.506908
54.655 7.259897
54.660 7.347499
54.665 7.39565
54.670 7.653781
54.675 8.008783
54.680 8.575207
54.685 9.158283
54.690 9.863934
54.695 10.230929
54.700 10.175393
54.705 10.109986
54.710 10.477954
54.715 10.147159
54.720 9.305942
54.725 8.692716
54.730 8.368935
54.735 8.432689
54.740 8.725511
54.745 8.707073
54.750 8.796618
54.755 8.936742
54.760 9.08784
54.765 9.015536
54.770 8.815746
54.775 8.181449
54.780 8.03443
54.785 8.149562
54.790 8.203609
54.795 7.810148
54.800 7.962584
54.805 8.313875
54.810 8.828879
54.815 8.623747
54.820 8.614328
54.825 8.570398
54.830 8.649216
54.835 8.332576
54.840 8.42152
54.845 8.648432
54.850 8.864815
54.855 9.151035
54.860 9.511814
54.865 9.705984
54.870 10.161213
54.875 10.35203
54.880 9.978779
54.885 10.023938
54.890 10.051196
54.895 9.924013
54.900 9.545558
54.905 9.319246
54.910 9.033653
54.915 8.952874
54.920 8.809937
54.925 8.668502
54.930 8.891139
54.935 8.748405
54.940 8.495493
54.945 8.803605
54.950 9.025156
54.955 9.287934
54.960 9.433657
54.965 9.241339
54.970 9.422823
54.975 9.241737
54.980 9.107527
54.985 8.938797
54.990 9.18193
54.995 9.67176
55.000 9.953522
55.005 10.495865
55.010 10.427671
55.015 10.520952
55.020 10.353013
55.025 9.868617
55.030 10.170052
55.035 10.11098
55.040 9.832014
55.045 10.315299
55.050 10.30299
55.055 10.405234
55.060 10.672027
55.065 10.121643
55.070 10.342215
55.075 10.227214
55.080 9.987667
55.085 9.990131
55.090 9.733858
55.095 9.346357
55.100 9.616384
55.105 9.807323
55.110 10.084326
55.115 10.162998
55.120 10.10748
55.125 10.176105
55.130 10.418335
55.135 10.124076
55.140 10.255541
55.145 10.345957
55.150 10.417154
55.155 10.878435
55.160 11.151071
55.165 11.367465
55.170 11.514277
55.175 10.901233
55.180 10.909966
55.185 11.463104
55.190 11.620371
55.195 11.320235
55.200 10.448111
55.205 10.270178
55.210 10.705233
55.215 10.176116
55.220 9.010323
55.225 8.746545
55.230 8.814439
55.235 9.466884
55.240 9.818394
55.245 9.905225
55.250 9.749551
55.255 9.95654
55.260 10.151015
55.265 10.323702
55.270 9.812352
55.275 9.121114
55.280 9.473471
55.285 9.727523
55.290 9.618347
55.295 9.373941
55.300 9.019207
55.305 8.968634
55.310 8.906025
55.315 8.402781
55.320 8.086905
55.325 7.829396
55.330 7.723247
55.335 7.749118
55.340 8.001607
55.345 7.782822
55.350 7.71475
55.355 7.802884
55.360 7.742009
55.365 7.475974
55.370 7.354955
55.375 7.146256
55.380 7.467788
55.385 7.843742
55.390 8.199927
55.395 8.209787
55.400 8.545489
55.405 9.064444
55.410 9.105829
55.415 8.954164
55.420 8.844398
55.425 8.77335
55.430 8.85412
55.435 9.262451
55.440 9.497835
55.445 10.08134
55.450 10.241087
55.455 9.880787
55.460 10.166403
55.465 10.375176
55.470 10.35979
55.475 10.093783
55.480 9.651812
55.485 9.806961
55.490 10.18192
55.495 10.387324
55.500 10.186436
55.505 9.827552
55.510 9.904661
55.515 9.858777
55.520 9.929723
55.525 10.104129
55.530 10.646441
55.535 10.784477
55.540 10.695218
55.545 10.434213
55.550 10.451337
55.555 10.083699
55.560 10.201097
55.565 9.932733
55.570 10.046984
55.575 10.334379
55.580 10.954673
55.585 11.188072
55.590 11.033851
55.595 10.590302
55.600 10.536917
55.605 10.428038
55.610 10.043057
55.615 9.586348
55.620 9.403247
55.625 9.763178
55.630 9.893447
55.635 10.284669
55.640 10.318039
55.645 10.169436
55.650 10.119649
55.655 10.432003
55.660 10.304621
55.665 9.764308
55.670 9.329572
55.675 9.186063
55.680 9.315918
55.685 9.111091
55.690 9.366783
55.695 9.703812
55.700 10.022683
55.705 9.974619
55.710 10.320429
55.715 10.739168
55.720 10.854074
55.725 10.049534
55.730 9.516142
55.735 9.191738
55.740 9.055592
55.745 9.076364
55.750 9.145756
55.755 9.180799
55.760 9.351321
55.765 9.200399
55.770 9.700604
55.775 10.186173
55.780 10.034528
55.785 10.170143
55.790 10.404343
55.795 10.95713
55.800 11.486341
55.805 11.434772
55.810 10.970615
55.815 10.397993
55.820 10.145687
55.825 10.119309
55.830 10.166642
55.835 9.866364
55.840 9.871777
55.845 10.163846
55.850 10.350135
55.855 10.691001
55.860 10.516823
55.865 10.156047
55.870 10.091316
55.875 9.806299
55.880 9.811106
55.885 9.789032
55.890 9.44375
55.895 10.197603
55.900 10.673403
55.905 11.098921
55.910 11.243057
55.915 11.462634
55.920 11.191141
55.925 11.195694
55.930 10.870182
55.935 11.081977
55.940 11.01518
55.945 11.188367
55.950 10.997781
55.955 11.112956
55.960 10.939976
55.965 10.520052
55.970 10.561524
55.975 10.138405
55.980 10.209471
55.985 10.408392
55.990 10.59308
55.995 10.737854
56.000 10.269752
56.005 9.958229
56.010 10.173729
56.015 9.739094
56.020 9.371042
56.025 9.620531
56.030 9.687808
56.035 9.841114
56.040 9.827782
56.045 9.622603
56.050 10.195878
56.055 10.075836
56.060 10.055965
56.065 10.206859
56.070 10.140457
56.075 10.006696
56.080 10.363422
56.085 10.235331
56.090 10.068295
56.095 9.629994
56.100 9.792978
56.105 10.078992
56.110 10.323569
56.115 10.193931
56.120 10.183843
56.125 10.34656
56.130 10.681158
56.135 10.134562
56.140 10.08149
56.145 9.865548
56.150 9.589062
56.155 9.794518
56.160 9.774543
56.165 9.825982
56.170 10.305215
56.175 10.60043
56.180 10.93652
56.185 10.903535
56.190 10.826324
56.195 10.610844
56.200 10.387357
56.205 10.162045
56.210 9.948563
56.215 10.061927
56.220 10.505864
56.225 10.717511
56.230 10.916708
56.235 11.274511
56.240 11.661448
56.245 12.028977
56.250 11.894172
56.255 12.129956
56.260 12.466248
56.265 12.555328
56.270 12.415185
56.275 11.993661
56.280 11.624586
56.285 11.453164
56.290 11.190246
56.295 10.883554
56.300 11.1949
56.305 11.516973
56.310 11.329946
56.315 11.863798
56.320 11.673563
56.325 11.487879
56.330 11.282142
56.335 11.417933
56.340 11.182804
56.345 11.110272
56.350 10.946537
56.355 10.838202
56.360 10.963093
56.365 10.916975
56.370 10.364185
56.375 10.165436
56.380 10.472326
56.385 10.765326
56.390 10.827557
56.395 10.652575
56.400 10.745822
56.405 10.89564
56.410 10.962149
56.415 10.814978
56.420 10.350043
56.425 11.206144
56.430 11.449534
56.435 11.357665
56.440 11.487101
56.445 11.62903
56.450 11.591013
56.455 12.006536
56.460 11.623215
56.465 12.153043
56.470 12.308826
56.475 12.189507
56.480 12.493193
56.485 12.735134
56.490 12.29332
56.495 11.741543
56.500 11.264151
56.505 11.566294
56.510 11.91131
56.515 11.34995
56.520 11.369246
56.525 11.867031
56.530 11.969928
56.535 12.124491
56.540 12.117311
56.545 11.572245
56.550 11.226128
56.555 10.438756
56.560 10.111861
56.565 10.184752
56.570 9.629339
56.575 9.829637
56.580 10.559252
56.585 11.156669
56.590 11.920212
56.595 12.335574
56.600 12.269511
56.605 12.07813
56.610 11.544883
56.615 11.054978
56.620 10.639103
56.625 9.904936
56.630 9.778195
56.635 9.931877
56.640 9.717551
56.645 9.474025
56.650 9.731085
56.655 10.099421
56.660 10.477013
56.665 10.630733
56.670 10.993603
56.675 11.884314
56.680 12.216718
56.685 12.733817
56.690 13.083116
56.695 12.826909
56.700 12.711049
56.705 12.474648
56.710 12.069098
56.715 11.891529
56.720 11.532222
56.725 11.646738
56.730 11.797336
56.735 11.883286
56.740 12.032949
56.745 12.019899
56.750 12.066327
56.755 12.025585
56.760 11.97111
56.765 11.706482
56.770 11.991855
56.775 12.025171
56.780 12.170193
56.785 12.701745
56.790 12.33709
56.795 12.262884
56.800 12.601522
56.805 12.322461
56.810 12.684244
56.815 12.751946
56.820 12.644291
56.825 12.993766
56.830 12.855727
56.835 12.485071
56.840 12.342035
56.845 12.026372
56.850 11.743763
56.855 11.678804
56.860 11.604776
56.865 11.557206
56.870 11.520284
56.875 11.838284
56.880 11.606937
56.885 11.38026
56.890 11.444949
56.895 11.676235
56.900 11.518998
56.905 11.583386
56.910 11.015989
56.915 11.307346
56.920 11.080045
56.925 10.89483
56.930 10.74913
56.935 11.408066
56.940 11.402204
56.945 11.446625
56.950 11.351561
56.955 11.472065
56.960 11.343925
56.965 11.15281
56.970 10.930256
56.975 11.304179
56.980 11.572645
56.985 12.294475
56.990 12.828157
56.995 12.962258
57.000 13.237704
57.005 13.447464
57.010 13.662041
57.015 13.172906
57.020 12.601608
57.025 12.410127
57.030 12.042337
57.035 12.025778
57.040 11.863779
57.045 11.55303
57.050 12.193035
57.055 12.041718
57.060 11.690845
57.065 11.933689
57.070 11.64371
57.075 11.67029
57.080 11.117898
57.085 10.406522
57.090 10.679847
57.095 11.075538
57.100 11.216898
57.105 11.088322
57.110 11.320335
57.115 11.87145
57.120 11.869864
57.125 11.723316
57.130 11.264839
57.135 11.130302
57.140 11.34683
57.145 11.705786
57.150 11.549365
57.155 11.716918
57.160 11.646869
57.165 11.699782
57.170 11.999629
57.175 11.947722
57.180 11.406853
57.185 11.366537
57.190 11.321774
57.195 11.580578
57.200 12.025066
57.205 11.517121
57.210 11.288981
57.215 12.188959
57.220 12.590923
57.225 12.469189
57.230 12.453894
57.235 12.285406
57.240 12.451628
57.245 12.569335
57.250 11.808382
57.255 11.403205
57.260 11.531855
57.265 11.606586
57.270 11.859795
57.275 12.146774
57.280 12.483048
57.285 12.467596
57.290 12.827083
57.295 13.155802
57.300 13.224098
57.305 13.141918
57.310 12.6811
57.315 12.532017
57.320 12.927649
57.325 12.78979
57.330 12.551349
57.335 12.572011
57.340 12.397985
57.345 12.635739
57.350 12.207617
57.355 12.19663
57.360 12.131741
57.365 12.212464
57.370 12.148531
57.375 12.450948
57.380 11.881151
57.385 11.400184
57.390 11.227057
57.395 11.531615
57.400 11.515286
57.405 11.461006
57.410 11.46965
57.415 12.157475
57.420 12.774778
57.425 12.806067
57.430 12.332401
57.435 12.541606
57.440 12.404973
57.445 12.381558
57.450 12.382414
57.455 12.308616
57.460 12.467202
57.465 12.384421
57.470 12.389301
57.475 12.607934
57.480 12.897966
57.485 12.697547
57.490 12.262086
57.495 11.919276
57.500 11.934153
57.505 11.586728
57.510 11.290998
57.515 10.93935
57.520 11.343711
57.525 11.740817
57.530 11.962021
57.535 12.266329
57.540 12.55619
57.545 12.770709
57.550 12.990404
57.555 12.96016
57.560 12.696844
57.565 12.723768
57.570 12.659056
57.575 12.326327
57.580 12.481298
57.585 12.537477
57.590 12.524188
57.595 12.918009
57.600 13.289006
57.605 13.576186
57.610 14.269631
57.615 14.621155
57.620 14.999204
57.625 15.243431
57.630 15.040722
57.635 14.598468
57.640 14.269547
57.645 13.53581
57.650 12.933152
57.655 12.435202
57.660 11.739198
57.665 11.752616
57.670 11.745636
57.675 12.038408
57.680 12.265479
57.685 12.684982
57.690 12.813594
57.695 13.619554
57.700 13.89334
57.705 13.749377
57.710 13.200216
57.715 12.453748
57.720 12.313022
57.725 12.790299
57.730 12.061668
57.735 12.009787
57.740 12.316758
57.745 12.493561
57.750 13.103405
57.755 12.846057
57.760 12.374071
57.765 12.522621
57.770 11.93676
57.775 11.9698
57.780 12.085681
57.785 12.151156
57.790 12.065517
57.795 12.107154
57.800 12.59001
57.805 12.899919
57.810 12.975035
57.815 13.072147
57.820 12.806167
57.825 12.996355
57.830 13.226827
57.835 13.338092
57.840 13.56303
57.845 13.408405
57.850 13.461606
57.855 13.307117
57.860 12.706426
57.865 12.451611
57.870 12.078723
57.875 11.980845
57.880 12.102354
57.885 12.159721
57.890 12.18717
57.895 12.41001
57.900 12.322276
57.905 12.602628
57.910 12.581227
57.915 12.547861
57.920 12.919893
57.925 13.466348
57.930 13.399659
57.935 13.595994
57.940 13.466362
57.945 13.312881
57.950 13.396502
57.955 13.078866
57.960 12.99202
57.965 13.16426
57.970 13.645297
57.975 14.394267
57.980 14.921162
57.985 15.366276
57.990 15.393541
57.995 15.693766
58.000 15.998504
58.005 15.883524
58.010 15.586943
58.015 15.196591
58.020 14.867074
58.025 14.697036
58.030 14.646174
58.035 14.359761
58.040 14.119431
58.045 13.538095
58.050 13.047979
58.055 13.264022
58.060 12.939565
58.065 12.460951
58.070 12.05199
58.075 11.741905
58.080 12.186482
58.085 12.601367
58.090 12.861608
58.095 13.007884
58.100 12.97952
58.105 13.05668
58.110 13.009564
58.115 12.861155
58.120 12.582974
58.125 12.404576
58.130 12.737263
58.135 13.107766
58.140 13.536172
58.145 13.915892
58.150 14.140712
58.155 14.757739
58.160 14.409091
58.165 14.069398
58.170 13.971668
58.175 13.654273
58.180 13.667862
58.185 13.285986
58.190 12.463404
58.195 12.422841
58.200 12.535732
58.205 12.073761
58.210 11.750035
58.215 11.727924
58.220 12.191123
58.225 12.388744
58.230 12.355634
58.235 12.658664
58.240 13.069067
58.245 13.340947
58.250 13.518362
58.255 13.132265
58.260 13.018164
58.265 12.840761
58.270 12.60089
58.275 12.271194
58.280 12.217134
58.285 11.96203
58.290 12.535443
58.295 12.732661
58.300 13.080884
58.305 13.295181
58.310 13.651031
58.315 13.43612
58.320 13.426827
58.325 13.040685
58.330 12.624372
58.335 12.369925
58.340 11.822001
58.345 11.428754
58.350 11.402946
58.355 11.502827
58.360 11.850363
58.365 11.827044
58.370 11.867521
58.375 12.070817
58.380 12.241714
58.385 12.113355
58.390 11.989546
58.395 12.177648
58.400 12.866524
58.405 13.418303
58.410 13.586283
58.415 13.584544
58.420 13.784876
58.425 13.586257
58.430 13.557563
58.435 13.573886
58.440 13.563457
58.445 13.729682
58.450 13.955935
58.455 14.260004
58.460 14.615864
58.465 15.14214
58.470 14.844624
58.475 14.902852
58.480 14.831893
58.485 14.793152
58.490 15.114731
58.495 15.602504
58.500 14.980337
58.505 14.471166
58.510 14.503872
58.515 14.439411
58.520 14.225122
58.525 13.584838
58.530 13.081167
58.535 13.152895
58.540 13.161741
58.545 12.868567
58.550 12.646938
58.555 12.864949
58.560 13.01943
58.565 12.672681
58.570 12.774346
58.575 13.258639
