!@!!GADDS PLOTSO FILE: Chi integration type
!@!!Title/SampleName: map-170
!@!!Comment: ?
!@!!User: Bruker Instrument Administrator
!@!!Site: University of Illinois Chicago
!@!!Frame: map-170_01_000.gfrm
!@!!Wavelengths    1.54184   1.54056   1.54439
!@!!Frame angles: 2Theta: 63.000 Omega: 50.000 Phi: 0.000 Chi: 90.000
!@!!Integration range: 2Theta: 53.000 to 73.000  Gamma: -105.000 to -75.000
!@!!Integration method: bin normalized
!@!N
!@!SS
!@!M
!@!L 0.0 0.0 0.0 0.0
!@!XDegrees
!@!YCounts
53.000 3.442224
53.005 3.452145
53.010 3.40835
53.015 3.164527
53.020 3.074741
53.025 3.090044
53.030 3.102819
53.035 2.920066
53.040 2.59149
53.045 2.850225
53.050 2.922111
53.055 3.009561
53.060 3.245493
53.065 3.114872
53.070 3.074284
53.075 3.127131
53.080 3.327173
53.085 3.928863
53.090 3.968907
53.095 3.917989
53.100 3.879748
53.105 4.092599
53.110 4.401153
53.115 4.074996
53.120 3.733395
53.125 3.748017
53.130 3.617109
53.135 3.760933
53.140 3.584062
53.145 3.500345
53.150 3.581189
53.155 3.646719
53.160 3.80644
53.165 4.041736
53.170 4.017026
53.175 4.116617
53.180 4.253778
53.185 4.301367
53.190 4.111503
53.195 3.90614
53.200 3.823132
53.205 3.808268
53.210 3.529579
53.215 3.625978
53.220 3.52749
53.225 3.609887
53.230 3.43807
53.235 3.544886
53.240 3.594539
53.245 3.467485
53.250 3.32868
53.255 3.54495
53.260 3.763846
53.265 3.653784
53.270 3.265552
53.275 3.40441
53.280 3.36191
53.285 3.324495
53.290 3.229012
53.295 3.247589
53.300 3.694901
53.305 4.162679
53.310 4.176416
53.315 4.040541
53.320 3.870457
53.325 3.848776
53.330 3.771843
53.335 3.587743
53.340 3.388816
53.345 3.435988
53.350 3.688678
53.355 3.743153
53.360 3.753628
53.365 3.715664
53.370 3.584262
53.375 3.497729
53.380 3.668901
53.385 3.837376
53.390 4.058384
53.395 4.121015
53.400 4.133528
53.405 4.117724
53.410 3.999353
53.415 3.883184
53.420 3.652508
53.425 3.473114
53.430 3.578353
53.435 3.720688
53.440 3.810888
53.445 3.881898
53.450 3.644021
53.455 3.679494
53.460 3.747189
53.465 3.632361
53.470 3.446793
53.475 3.459348
53.480 3.419223
53.485 3.683663
53.490 3.825462
53.495 3.50198
53.500 3.573575
53.505 3.650349
53.510 3.71013
53.515 3.952194
53.520 3.784576
53.525 3.600646
53.530 3.866528
53.535 3.897166
53.540 4.044761
53.545 3.946629
53.550 3.635893
53.555 3.695609
53.560 3.695921
53.565 3.537586
53.570 3.614939
53.575 3.535236
53.580 3.469956
53.585 3.462837
53.590 3.226617
53.595 3.250753
53.600 3.287047
53.605 3.077293
53.610 3.125817
53.615 3.449982
53.620 3.718617
53.625 3.510993
53.630 3.618311
53.635 3.786312
53.640 4.191918
53.645 4.253937
53.650 4.126656
53.655 4.078387
53.660 4.490103
53.665 4.580396
53.670 4.393481
53.675 4.188444
53.680 3.955253
53.685 3.946342
53.690 4.105388
53.695 3.806655
53.700 3.697087
53.705 3.539474
53.710 3.478396
53.715 3.536904
53.720 3.587984
53.725 3.653066
53.730 3.779373
53.735 3.761027
53.740 3.771013
53.745 3.848126
53.750 4.123203
53.755 3.92133
53.760 3.540899
53.765 3.343836
53.770 3.583599
53.775 3.572708
53.780 3.454203
53.785 3.654618
53.790 3.802814
53.795 4.358824
53.800 4.302305
53.805 3.985123
53.810 4.02373
53.815 3.842603
53.820 3.457684
53.825 3.287447
53.830 2.810643
53.835 3.110899
53.840 3.468625
53.845 3.677207
53.850 3.625908
53.855 3.524512
53.860 3.584387
53.865 3.804532
53.870 3.759916
53.875 3.423063
53.880 3.287966
53.885 3.287263
53.890 3.137803
53.895 2.9815
53.900 2.701183
53.905 2.402143
53.910 2.10801
53.915 2.236654
53.920 2.328219
53.925 2.517803
53.930 2.751486
53.935 2.774072
53.940 3.260954
53.945 3.336861
53.950 3.256473
53.955 3.371332
53.960 3.353446
53.965 3.316904
53.970 3.670845
53.975 3.940672
53.980 4.231541
53.985 4.41872
53.990 4.541025
53.995 4.460666
54.000 4.512321
54.005 3.966929
54.010 3.60044
54.015 3.327493
54.020 3.280131
54.025 3.273459
54.030 3.48189
54.035 3.572589
54.040 3.678694
54.045 4.025886
54.050 4.175283
54.055 4.14328
54.060 4.08017
54.065 4.020276
54.070 4.124677
54.075 4.172949
54.080 3.951553
54.085 3.910835
54.090 3.98472
54.095 3.879091
54.100 3.700932
54.105 3.455796
54.110 3.683504
54.115 4.013885
54.120 4.163921
54.125 4.512856
54.130 4.581794
54.135 5.056661
54.140 5.327307
54.145 5.127266
54.150 4.644344
54.155 4.436458
54.160 4.320937
54.165 4.324128
54.170 3.905924
54.175 3.859993
54.180 3.890824
54.185 4.295118
54.190 4.380877
54.195 4.279012
54.200 3.98743
54.205 3.92005
54.210 3.827312
54.215 3.604745
54.220 3.541222
54.225 3.56871
54.230 3.828955
54.235 4.172022
54.240 4.11389
54.245 4.073048
54.250 4.059673
54.255 3.923788
54.260 3.627008
54.265 3.458596
54.270 3.516158
54.275 3.496611
54.280 3.600212
54.285 3.391024
54.290 3.516928
54.295 3.712337
54.300 4.327836
54.305 4.475981
54.310 4.510641
54.315 4.493593
54.320 4.518795
54.325 4.430516
54.330 4.37751
54.335 4.006084
54.340 3.668232
54.345 3.420362
54.350 3.307119
54.355 3.237574
54.360 3.115102
54.365 2.833106
54.370 2.888169
54.375 3.17947
54.380 3.508057
54.385 3.812535
54.390 4.064109
54.395 4.241243
54.400 4.291591
54.405 4.380531
54.410 4.532282
54.415 4.565492
54.420 4.329989
54.425 3.975749
54.430 3.663485
54.435 3.487303
54.440 3.241414
54.445 2.907105
54.450 2.811596
54.455 3.265742
54.460 3.492139
54.465 3.771594
54.470 4.086265
54.475 4.147303
54.480 4.217346
54.485 4.386837
54.490 4.370626
54.495 4.341096
54.500 3.997468
54.505 3.940296
54.510 3.933232
54.515 3.98801
54.520 3.92976
54.525 3.545122
54.530 3.676513
54.535 3.860213
54.540 4.068073
54.545 4.015191
54.550 3.870915
54.555 3.733831
54.560 3.814109
54.565 4.132613
54.570 4.116457
54.575 3.709339
54.580 3.6601
54.585 3.63134
54.590 3.762673
54.595 3.917044
54.600 3.70614
54.605 3.537691
54.610 3.737757
54.615 3.772791
54.620 3.838238
54.625 3.593923
54.630 3.408422
54.635 3.438559
54.640 3.859042
54.645 4.07294
54.650 4.255026
54.655 4.099979
54.660 4.116066
54.665 4.049623
54.670 3.930228
54.675 3.563793
54.680 3.363556
54.685 3.32295
54.690 3.443868
54.695 3.567806
54.700 3.88725
54.705 3.980016
54.710 3.97561
54.715 4.070403
54.720 4.033261
54.725 4.200566
54.730 4.044604
54.735 3.983584
54.740 3.856972
54.745 3.749611
54.750 3.798329
54.755 3.905808
54.760 3.671697
54.765 3.639297
54.770 3.560308
54.775 3.804998
54.780 3.886387
54.785 3.698931
54.790 3.789667
54.795 3.774897
54.800 3.919344
54.805 3.804742
54.810 3.728421
54.815 3.797033
54.820 3.85488
54.825 3.888454
54.830 3.921081
54.835 3.776873
54.840 4.1079
54.845 4.033145
54.850 3.996677
54.855 4.031667
54.860 4.098998
54.865 4.186578
54.870 4.079466
54.875 4.11949
54.880 4.402408
54.885 4.213277
54.890 4.225852
54.895 4.237408
54.900 4.443205
54.905 4.209777
54.910 3.968229
54.915 4.205604
54.920 4.363399
54.925 4.451148
54.930 4.324539
54.935 4.062445
54.940 4.175386
54.945 4.096673
54.950 3.476895
54.955 3.509205
54.960 3.529305
54.965 3.401982
54.970 3.644207
54.975 3.569717
54.980 3.672948
54.985 3.89728
54.990 3.703918
54.995 3.474057
55.000 3.768717
55.005 3.893582
55.010 3.995001
55.015 4.013309
55.020 4.084264
55.025 4.271495
55.030 4.266243
55.035 3.94915
55.040 3.824233
55.045 3.980149
55.050 3.856545
55.055 3.821483
55.060 3.830631
55.065 3.83138
55.070 3.95058
55.075 3.915812
55.080 3.822031
55.085 3.984742
55.090 3.925002
55.095 4.137848
55.100 4.141117
55.105 4.105975
55.110 4.120059
55.115 3.93498
55.120 3.974839
55.125 3.937816
55.130 3.999313
55.135 4.140496
55.140 4.003047
55.145 3.882663
55.150 3.998916
55.155 3.914992
55.160 3.536083
55.165 3.401747
55.170 3.375302
55.175 3.649379
55.180 3.897797
55.185 3.922309
55.190 3.99691
55.195 3.889653
55.200 3.7453
55.205 3.576168
55.210 3.377571
55.215 3.247157
55.220 2.917407
55.225 3.171521
55.230 3.527594
55.235 3.510192
55.240 3.612394
55.245 3.971193
55.250 4.20589
55.255 4.348173
55.260 4.113013
55.265 4.430596
55.270 4.675261
55.275 4.706739
55.280 4.192692
55.285 4.039621
55.290 3.947103
55.295 3.802212
55.300 3.611152
55.305 3.452021
55.310 3.528225
55.315 3.738787
55.320 3.782689
55.325 3.896387
55.330 3.876464
55.335 3.634068
55.340 3.58404
55.345 3.362509
55.350 3.335917
55.355 3.345873
55.360 3.384758
55.365 3.226537
55.370 3.365661
55.375 3.490526
55.380 3.679914
55.385 3.811732
55.390 3.675012
55.395 3.911859
55.400 4.163351
55.405 4.376862
55.410 4.512948
55.415 4.443316
55.420 4.36045
55.425 4.297288
55.430 4.022149
55.435 3.810492
55.440 3.514768
55.445 3.098269
55.450 2.980026
55.455 2.894983
55.460 3.06953
55.465 3.159413
55.470 3.135302
55.475 3.278065
55.480 3.583129
55.485 3.719902
55.490 3.76513
55.495 3.668258
55.500 3.8629
55.505 4.07326
55.510 4.327348
55.515 4.243034
55.520 4.306622
55.525 4.397537
55.530 4.331048
55.535 4.174352
55.540 3.925672
55.545 3.578387
55.550 3.368409
55.555 3.403887
55.560 3.512162
55.565 3.388039
55.570 3.569811
55.575 3.835457
55.580 4.160635
55.585 4.458476
55.590 4.562169
55.595 4.421597
55.600 4.646936
55.605 4.529387
55.610 4.308043
55.615 4.163423
55.620 4.369527
55.625 4.480249
55.630 4.444598
55.635 3.955214
55.640 3.538164
55.645 3.490786
55.650 3.312404
55.655 2.991254
55.660 2.92012
55.665 3.130653
55.670 3.623858
55.675 3.893982
55.680 3.894876
55.685 4.12974
55.690 4.033444
55.695 4.024698
55.700 3.916434
55.705 3.86291
55.710 4.117819
55.715 4.245962
55.720 4.188966
55.725 4.21565
55.730 4.304751
55.735 4.493655
55.740 4.338664
55.745 4.558572
55.750 4.682846
55.755 4.573442
55.760 4.54219
55.765 4.410404
55.770 4.368363
55.775 4.589621
55.780 4.116437
55.785 3.854355
55.790 3.782938
55.795 3.784046
55.800 3.779451
55.805 3.684086
55.810 3.222596
55.815 3.09945
55.820 3.305248
55.825 3.579633
55.830 3.43582
55.835 3.626695
55.840 3.866881
55.845 4.129639
55.850 4.205582
55.855 4.051611
55.860 3.838644
55.865 4.111982
55.870 4.014767
55.875 4.030373
55.880 3.879774
55.885 3.952487
55.890 4.018533
55.895 4.198781
55.900 4.053696
55.905 3.905158
55.910 4.008269
55.915 4.327126
55.920 4.523738
55.925 4.643862
55.930 4.386274
55.935 4.282467
55.940 4.183575
55.945 4.021035
55.950 3.79973
55.955 3.83188
55.960 4.013542
55.965 4.17298
55.970 3.99151
55.975 3.882167
55.980 3.874012
55.985 3.949262
55.990 3.62741
55.995 3.390093
56.000 3.338461
56.005 3.534223
56.010 3.678069
56.015 3.89878
56.020 3.785593
56.025 3.997868
56.030 4.229651
56.035 4.241978
56.040 4.1594
56.045 4.201611
56.050 3.929335
56.055 3.766725
56.060 3.431641
56.065 3.200885
56.070 3.39936
56.075 3.673146
56.080 3.647282
56.085 4.154465
56.090 4.290282
56.095 4.433933
56.100 4.650321
56.105 4.529143
56.110 4.491486
56.115 4.561679
56.120 4.23577
56.125 4.378585
56.130 4.477651
56.135 4.210981
56.140 4.088777
56.145 4.375866
56.150 4.440801
56.155 4.321081
56.160 4.356248
56.165 4.246422
56.170 4.530788
56.175 4.5295
56.180 4.145483
56.185 4.131145
56.190 4.288047
56.195 4.352505
56.200 4.449432
56.205 4.490311
56.210 4.669937
56.215 4.597918
56.220 4.322176
56.225 4.019657
56.230 3.936519
56.235 3.939825
56.240 4.063101
56.245 4.151969
56.250 4.076564
56.255 4.147373
56.260 4.335118
56.265 4.312122
56.270 4.45219
56.275 4.133414
56.280 3.991931
56.285 4.038966
56.290 4.223657
56.295 4.536297
56.300 4.569075
56.305 4.381169
56.310 4.509916
56.315 4.349058
56.320 4.463393
56.325 4.283501
56.330 4.225461
56.335 4.131557
56.340 4.266105
56.345 4.719893
56.350 5.209607
56.355 5.267968
56.360 5.373133
56.365 5.22234
56.370 5.32443
56.375 4.848207
56.380 4.412689
56.385 4.320939
56.390 4.28731
56.395 4.181188
56.400 4.109469
56.405 4.237315
56.410 4.50814
56.415 4.541595
56.420 4.284695
56.425 4.241169
56.430 3.956316
56.435 3.854816
56.440 3.72454
56.445 3.406849
56.450 3.452473
56.455 3.668573
56.460 3.870552
56.465 4.136355
56.470 3.956772
56.475 4.128249
56.480 4.282968
56.485 4.233744
56.490 3.998146
56.495 4.105296
56.500 4.251154
56.505 4.311632
56.510 4.28541
56.515 4.312063
56.520 4.388595
56.525 4.319841
56.530 3.748595
56.535 3.503951
56.540 3.63459
56.545 3.57202
56.550 3.541194
56.555 3.565866
56.560 3.93073
56.565 4.212909
56.570 4.268343
56.575 4.389813
56.580 4.524131
56.585 4.886679
56.590 4.903872
56.595 4.78317
56.600 4.730852
56.605 4.787844
56.610 4.872941
56.615 4.787497
56.620 4.361392
56.625 4.288998
56.630 4.047266
56.635 4.204487
56.640 4.24701
56.645 4.178485
56.650 4.281133
56.655 4.402583
56.660 4.631399
56.665 4.932312
56.670 4.902169
56.675 4.91222
56.680 4.570481
56.685 4.382192
56.690 4.364672
56.695 4.105851
56.700 4.134395
56.705 4.121218
56.710 4.006919
56.715 4.146259
56.720 4.259727
56.725 4.219835
56.730 4.267589
56.735 4.072729
56.740 4.036833
56.745 4.572323
56.750 5.003809
56.755 5.167113
56.760 5.277781
56.765 5.793923
56.770 6.130757
56.775 6.029221
56.780 5.569785
56.785 5.446909
56.790 5.602369
56.795 5.646038
56.800 5.534023
56.805 5.42037
56.810 5.446693
56.815 5.309675
56.820 4.826546
56.825 4.946028
56.830 4.678023
56.835 4.337444
56.840 4.280407
56.845 4.593509
56.850 4.838249
56.855 4.809608
56.860 4.66812
56.865 4.903754
56.870 5.303432
56.875 5.168813
56.880 4.93169
56.885 4.796023
56.890 4.688234
56.895 4.353182
56.900 3.858716
56.905 3.679675
56.910 3.709066
56.915 3.586545
56.920 3.520508
56.925 3.582108
56.930 3.730044
56.935 3.831132
56.940 3.743382
56.945 3.433128
56.950 3.672208
56.955 4.025561
56.960 3.955332
56.965 4.126372
56.970 4.068121
56.975 4.556475
56.980 5.084641
56.985 4.978735
56.990 4.903207
56.995 4.993468
57.000 5.033056
57.005 4.963066
57.010 4.862131
57.015 4.734819
57.020 4.615326
57.025 4.704468
57.030 4.435562
57.035 4.204351
57.040 4.174648
57.045 3.882385
57.050 3.746115
57.055 3.718165
57.060 3.549248
57.065 3.670401
57.070 3.466176
57.075 3.266767
57.080 3.162181
57.085 3.075147
57.090 3.161092
57.095 3.086323
57.100 3.096114
57.105 3.492295
57.110 3.818324
57.115 3.757699
57.120 3.854629
57.125 3.876804
57.130 4.178039
57.135 4.280372
57.140 4.150662
57.145 3.879211
57.150 4.05137
57.155 3.978028
57.160 4.017726
57.165 3.718016
57.170 3.721856
57.175 3.958707
57.180 4.106695
57.185 3.997862
57.190 4.012497
57.195 4.008763
57.200 4.187892
57.205 4.103355
57.210 4.46516
57.215 4.651436
57.220 4.645513
57.225 4.994324
57.230 4.921896
57.235 4.865468
57.240 4.777881
57.245 4.753228
57.250 5.172329
57.255 5.3669
57.260 5.252502
57.265 5.756244
57.270 5.834736
57.275 5.704723
57.280 5.250674
57.285 4.710667
57.290 4.391245
57.295 4.27637
57.300 3.83093
57.305 3.862096
57.310 3.969748
57.315 4.144142
57.320 4.589186
57.325 4.732164
57.330 4.697174
57.335 4.989273
57.340 5.17828
57.345 5.377804
57.350 5.280499
57.355 4.910072
57.360 4.998196
57.365 5.085154
57.370 5.062914
57.375 5.092497
57.380 4.84407
57.385 4.943997
57.390 5.213665
57.395 5.20586
57.400 5.192453
57.405 5.178743
57.410 5.290154
57.415 5.508638
57.420 5.161655
57.425 5.137409
57.430 5.069028
57.435 4.750341
57.440 4.36883
57.445 4.076728
57.450 3.843444
57.455 3.776117
57.460 3.610772
57.465 3.633705
57.470 3.899586
57.475 3.93891
57.480 3.781618
57.485 3.927084
57.490 4.303932
57.495 4.557754
57.500 4.417746
57.505 4.345568
57.510 4.463283
57.515 4.920109
57.520 5.213016
57.525 5.356819
57.530 5.300376
57.535 5.406041
57.540 5.28429
57.545 5.21749
57.550 4.764107
57.555 4.566986
57.560 4.264389
57.565 4.162702
57.570 4.202211
57.575 4.381454
57.580 4.461138
57.585 4.533676
57.590 4.678928
57.595 4.782344
57.600 4.858658
57.605 5.189542
57.610 5.275143
57.615 5.315595
57.620 5.364853
57.625 5.232751
57.630 5.272521
57.635 4.999915
57.640 4.684832
57.645 4.833127
57.650 4.985131
57.655 5.035935
57.660 4.586073
57.665 4.521759
57.670 4.579425
57.675 4.418873
57.680 4.11528
57.685 4.215885
57.690 4.360425
57.695 4.645443
57.700 4.430105
57.705 4.387125
57.710 4.275912
57.715 4.092723
57.720 3.939905
57.725 3.651801
57.730 3.378961
57.735 3.788319
57.740 4.087957
57.745 4.199437
57.750 4.385366
57.755 4.320436
57.760 4.665221
57.765 5.252766
57.770 5.268781
57.775 5.241337
57.780 5.152103
57.785 4.95277
57.790 5.009335
57.795 4.80441
57.800 4.448023
57.805 4.293356
57.810 4.187859
57.815 4.454302
57.820 4.813286
57.825 4.820849
57.830 5.110407
57.835 5.362472
57.840 5.644648
57.845 5.831228
57.850 5.597442
57.855 5.175015
57.860 4.939432
57.865 5.027942
57.870 5.040045
57.875 4.613667
57.880 4.536696
57.885 4.59062
57.890 4.622312
57.895 4.62413
57.900 4.544311
57.905 4.123602
57.910 4.295832
57.915 4.395382
57.920 4.486966
57.925 4.787197
57.930 4.726138
57.935 4.645782
57.940 5.034204
57.945 5.099087
57.950 5.101493
57.955 5.352812
57.960 5.406624
57.965 5.351665
57.970 5.243218
57.975 5.149116
57.980 5.227952
57.985 5.317675
57.990 5.020624
57.995 4.821837
58.000 4.746396
58.005 4.794907
58.010 4.868615
58.015 4.639817
58.020 4.409758
58.025 4.593319
58.030 4.816226
58.035 4.870652
58.040 4.802618
58.045 4.856952
58.050 4.948285
58.055 5.056946
58.060 4.832113
58.065 4.869592
58.070 5.082409
58.075 5.295919
58.080 5.496557
58.085 5.530577
58.090 5.615902
58.095 5.682981
58.100 5.705253
58.105 5.613708
58.110 5.541584
58.115 5.266609
58.120 5.119601
58.125 5.074624
58.130 5.094147
58.135 4.93423
58.140 5.104488
58.145 5.024529
58.150 5.22628
58.155 5.668347
58.160 5.765482
58.165 5.969611
58.170 5.993827
58.175 5.854793
58.180 5.752995
58.185 5.358233
58.190 4.756602
58.195 4.701735
58.200 4.608977
58.205 4.731714
58.210 4.388863
58.215 4.472396
58.220 4.85176
58.225 5.198923
58.230 5.058251
58.235 4.888786
58.240 4.749236
58.245 5.239362
58.250 5.033547
58.255 5.11302
58.260 4.995605
58.265 4.821093
58.270 4.839097
58.275 4.708035
58.280 4.586103
58.285 4.91729
58.290 4.378817
58.295 4.603526
58.300 4.731879
58.305 4.788201
58.310 5.168237
58.315 5.315407
58.320 5.035008
58.325 5.400813
58.330 5.289787
58.335 5.576755
58.340 5.468944
58.345 5.159017
58.350 4.617984
58.355 4.613023
58.360 4.40681
58.365 4.204278
58.370 3.891856
58.375 3.914284
58.380 3.986701
58.385 4.370374
58.390 4.75664
58.395 5.052173
58.400 5.249546
58.405 5.520371
58.410 5.427517
58.415 5.208567
58.420 5.075794
58.425 4.985174
58.430 4.998904
58.435 5.172039
58.440 5.434626
58.445 5.678091
58.450 6.025435
58.455 6.02856
58.460 5.737268
58.465 5.52342
58.470 5.432591
58.475 5.043703
58.480 5.138366
58.485 4.931064
58.490 4.873538
58.495 5.137244
58.500 5.439364
58.505 5.620811
58.510 5.501059
58.515 5.756039
58.520 6.057531
58.525 6.202211
58.530 6.048427
58.535 5.995095
58.540 6.106053
58.545 6.440433
58.550 6.009386
58.555 5.740079
58.560 6.078033
58.565 6.500738
58.570 6.455892
58.575 6.177929
58.580 5.947479
58.585 6.3307
58.590 6.768919
58.595 6.880181
58.600 6.528935
58.605 6.625378
58.610 6.707554
58.615 6.796087
58.620 6.827532
58.625 6.965499
58.630 7.136688
58.635 7.159
58.640 7.446527
58.645 7.497699
58.650 7.623406
58.655 7.371316
58.660 7.115506
58.665 7.293057
58.670 7.169183
58.675 6.896701
58.680 7.106193
58.685 7.225148
58.690 7.837145
58.695 7.768958
58.700 7.431452
58.705 7.840065
58.710 7.861492
58.715 7.694986
58.720 7.456383
58.725 6.768358
58.730 6.493745
58.735 6.773076
58.740 6.519018
58.745 6.5516
58.750 6.609819
58.755 6.371265
58.760 6.612595
