!@!!GADDS PLOTSO FILE: Chi integration type
!@!!Title/SampleName: map-12a
!@!!Comment: ?
!@!!User: Bruker Instrument Administrator
!@!!Site: University of Illinois Chicago
!@!!Frame: map-12a_01_000.gfrm
!@!!Wavelengths    1.54184   1.54056   1.54439
!@!!Frame angles: 2Theta: 63.000 Omega: 50.000 Phi: 0.000 Chi: 90.000
!@!!Integration range: 2Theta: 53.000 to 73.000  Gamma: -105.000 to -75.000
!@!!Integration method: bin normalized
!@!N
!@!SS
!@!M
!@!L 0.0 0.0 0.0 0.0
!@!XDegrees
!@!YCounts
53.000 4.651966
53.005 4.564955
53.010 4.670916
53.015 4.754091
53.020 4.666989
53.025 4.309686
53.030 4.173825
53.035 3.989138
53.040 4.165627
53.045 4.103259
53.050 4.039824
53.055 3.862339
53.060 3.997467
53.065 4.223591
53.070 4.2659
53.075 4.061728
53.080 3.879306
53.085 3.808128
53.090 3.660062
53.095 3.469939
53.100 3.689668
53.105 3.691703
53.110 3.690084
53.115 3.789262
53.120 3.674035
53.125 3.942839
53.130 4.247578
53.135 4.202206
53.140 4.330221
53.145 4.259089
53.150 4.292907
53.155 4.536688
53.160 4.457425
53.165 3.905643
53.170 4.022449
53.175 3.922818
53.180 3.978388
53.185 3.745539
53.190 3.6871
53.195 3.842314
53.200 4.017563
53.205 3.722201
53.210 3.753775
53.215 3.755693
53.220 4.020325
53.225 3.678816
53.230 3.561312
53.235 3.546491
53.240 3.773142
53.245 4.132733
53.250 4.173391
53.255 4.283856
53.260 4.631708
53.265 4.527555
53.270 4.442811
53.275 4.324152
53.280 4.18476
53.285 4.343852
53.290 4.086493
53.295 4.149231
53.300 4.278715
53.305 4.33367
53.310 4.238282
53.315 4.15796
53.320 4.272892
53.325 4.261797
53.330 4.191106
53.335 4.280063
53.340 4.149029
53.345 4.136989
53.350 3.988749
53.355 3.800367
53.360 3.985742
53.365 3.645461
53.370 3.987998
53.375 4.294932
53.380 4.361871
53.385 4.148165
53.390 3.989447
53.395 4.128945
53.400 4.27133
53.405 3.801684
53.410 3.689407
53.415 3.839091
53.420 4.239911
53.425 4.485766
53.430 4.640514
53.435 4.90339
53.440 5.08275
53.445 4.874733
53.450 4.913254
53.455 4.74535
53.460 4.762081
53.465 4.656823
53.470 4.403401
53.475 4.263594
53.480 4.293439
53.485 3.969006
53.490 4.006167
53.495 3.87917
53.500 3.901601
53.505 4.002132
53.510 3.954642
53.515 4.137664
53.520 4.672846
53.525 4.381409
53.530 4.599285
53.535 4.609492
53.540 4.785316
53.545 5.126872
53.550 4.845432
53.555 4.69857
53.560 4.727319
53.565 4.587087
53.570 4.680686
53.575 4.70704
53.580 4.461785
53.585 4.210842
53.590 3.974408
53.595 3.773073
53.600 3.347093
53.605 3.089827
53.610 2.847012
53.615 3.061804
53.620 3.533176
53.625 3.609866
53.630 3.857075
53.635 4.190099
53.640 4.36268
53.645 4.487602
53.650 4.127698
53.655 3.771498
53.660 4.037951
53.665 4.101143
53.670 4.01939
53.675 4.092929
53.680 4.209482
53.685 4.80222
53.690 5.038723
53.695 4.974492
53.700 5.013699
53.705 5.213388
53.710 5.28043
53.715 5.04875
53.720 4.555469
53.725 4.507275
53.730 4.545856
53.735 4.113022
53.740 4.011496
53.745 4.054676
53.750 4.34009
53.755 4.307591
53.760 4.174332
53.765 4.176203
53.770 4.493922
53.775 4.303452
53.780 4.392772
53.785 4.254695
53.790 4.331019
53.795 4.420646
53.800 4.279928
53.805 4.207
53.810 4.125996
53.815 4.101486
53.820 4.476861
53.825 4.465096
53.830 4.437407
53.835 4.565117
53.840 4.724461
53.845 4.767217
53.850 4.448999
53.855 3.87527
53.860 3.624517
53.865 3.902644
53.870 3.73595
53.875 3.553278
53.880 3.601728
53.885 3.925937
53.890 4.318704
53.895 4.616683
53.900 4.540853
53.905 4.877067
53.910 4.965009
53.915 4.860918
53.920 4.818659
53.925 4.790591
53.930 4.656412
53.935 4.293216
53.940 3.852999
53.945 3.664678
53.950 3.868614
53.955 3.983843
53.960 4.159585
53.965 4.1486
53.970 4.160656
53.975 4.404548
53.980 4.336452
53.985 4.238328
53.990 4.054143
53.995 3.908149
54.000 4.26785
54.005 4.499764
54.010 4.217916
54.015 4.178548
54.020 4.125812
54.025 4.112605
54.030 4.185718
54.035 4.031966
54.040 4.106154
54.045 4.248775
54.050 4.181019
54.055 4.261527
54.060 4.341278
54.065 4.098547
54.070 4.152119
54.075 4.092696
54.080 4.409571
54.085 4.737832
54.090 4.732036
54.095 4.633815
54.100 4.533488
54.105 4.444952
54.110 4.683984
54.115 4.62804
54.120 4.230254
54.125 4.104718
54.130 4.134301
54.135 4.243145
54.140 4.130293
54.145 3.760307
54.150 3.740837
54.155 3.976494
54.160 4.252546
54.165 4.324913
54.170 4.150652
54.175 4.300424
54.180 4.406655
54.185 4.135701
54.190 4.04601
54.195 4.140997
54.200 4.119176
54.205 4.284448
54.210 4.088978
54.215 4.339108
54.220 4.596716
54.225 4.599244
54.230 4.294895
54.235 4.317676
54.240 4.32724
54.245 4.384928
54.250 4.218095
54.255 4.07101
54.260 3.908088
54.265 3.923921
54.270 3.816079
54.275 3.806514
54.280 4.080582
54.285 4.047827
54.290 4.290729
54.295 4.611045
54.300 4.748453
54.305 5.004617
54.310 5.026716
54.315 4.93392
54.320 4.806008
54.325 4.38476
54.330 4.166123
54.335 4.253858
54.340 4.253677
54.345 4.289519
54.350 4.352945
54.355 4.418017
54.360 4.45403
54.365 4.496644
54.370 4.260488
54.375 4.176172
54.380 4.120542
54.385 4.066155
54.390 4.292591
54.395 4.389754
54.400 4.650694
54.405 4.896173
54.410 4.735055
54.415 4.407414
54.420 4.257325
54.425 4.144118
54.430 4.042145
54.435 3.858551
54.440 3.939574
54.445 4.002796
54.450 4.204375
54.455 4.136016
54.460 4.058822
54.465 4.16343
54.470 4.112702
54.475 3.912572
54.480 3.954951
54.485 3.917745
54.490 3.935114
54.495 4.048374
54.500 3.94421
54.505 3.762744
54.510 3.720943
54.515 3.574876
54.520 3.747244
54.525 4.043641
54.530 4.124386
54.535 4.418951
54.540 4.316435
54.545 4.518418
54.550 4.40601
54.555 4.249169
54.560 4.174129
54.565 4.039777
54.570 3.806288
54.575 3.719291
54.580 3.941635
54.585 4.367796
54.590 4.377768
54.595 4.331452
54.600 4.512556
54.605 4.566806
54.610 4.767802
54.615 4.418454
54.620 4.362595
54.625 4.197162
54.630 4.17045
54.635 4.105643
54.640 4.178616
54.645 4.267727
54.650 4.296845
54.655 4.156835
54.660 4.086639
54.665 3.850893
54.670 3.606601
54.675 3.783263
54.680 3.588273
54.685 3.727403
54.690 3.923911
54.695 4.340673
54.700 4.696542
54.705 4.943398
54.710 4.80623
54.715 4.713714
54.720 4.701859
54.725 4.537391
54.730 4.412764
54.735 4.158021
54.740 4.085294
54.745 4.202239
54.750 4.328721
54.755 4.343508
54.760 4.688674
54.765 4.83014
54.770 4.913594
54.775 4.722717
54.780 4.612683
54.785 4.830552
54.790 4.458898
54.795 4.228948
54.800 4.162787
54.805 4.290989
54.810 4.535799
54.815 4.43551
54.820 4.414277
54.825 4.780955
54.830 4.788501
54.835 4.957125
54.840 5.306905
54.845 5.80457
54.850 6.036654
54.855 5.604349
54.860 5.627257
54.865 5.814832
54.870 5.648949
54.875 5.242349
54.880 4.828935
54.885 4.539134
54.890 4.494037
54.895 4.491821
54.900 4.41143
54.905 4.601799
54.910 4.699827
54.915 4.533141
54.920 4.678161
54.925 4.718939
54.930 4.522546
54.935 4.316145
54.940 4.307991
54.945 4.284235
54.950 4.521272
54.955 4.539926
54.960 4.577459
54.965 4.548573
54.970 4.351821
54.975 4.158219
54.980 3.897175
54.985 3.950721
54.990 3.961844
54.995 4.085116
55.000 4.409091
55.005 4.492755
55.010 4.479872
55.015 4.55959
55.020 4.890656
55.025 4.838741
55.030 4.662357
55.035 4.43959
55.040 4.522472
55.045 4.663567
55.050 4.615124
55.055 4.344412
55.060 4.315635
55.065 4.099491
55.070 4.136815
55.075 4.068217
55.080 4.160775
55.085 3.870112
55.090 3.947348
55.095 4.064016
55.100 4.169156
55.105 4.047362
55.110 3.906843
55.115 3.897579
55.120 4.033383
55.125 3.941018
55.130 4.02774
55.135 3.979703
55.140 3.755952
55.145 3.942423
55.150 3.997584
55.155 4.199532
55.160 4.165036
55.165 4.353545
55.170 4.703373
55.175 4.867854
55.180 4.89976
55.185 5.136825
55.190 4.983793
55.195 5.019255
55.200 4.526591
55.205 4.386122
55.210 4.385231
55.215 4.239081
55.220 3.977499
55.225 3.930068
55.230 3.846078
55.235 3.853025
55.240 3.794707
55.245 3.808091
55.250 3.665647
55.255 3.635985
55.260 3.705338
55.265 3.875311
55.270 4.017263
55.275 3.971831
55.280 3.901158
55.285 3.94502
55.290 3.765473
55.295 3.917229
55.300 4.068666
55.305 3.959269
55.310 4.167721
55.315 4.324529
55.320 4.392996
55.325 4.51095
55.330 4.256665
55.335 4.088535
55.340 4.310241
55.345 4.272859
55.350 4.181365
55.355 4.374762
55.360 4.84653
55.365 4.950399
55.370 4.895857
55.375 4.767631
55.380 4.727505
55.385 4.592378
55.390 4.350594
55.395 3.991501
55.400 3.956677
55.405 3.972508
55.410 3.831057
55.415 3.837688
55.420 3.94667
55.425 3.872515
55.430 3.946467
55.435 3.919431
55.440 3.861286
55.445 3.991348
55.450 4.47364
55.455 4.574804
55.460 4.635894
55.465 4.578453
55.470 4.760114
55.475 4.917074
55.480 4.931566
55.485 4.469913
55.490 4.300171
55.495 4.098327
55.500 4.050759
55.505 4.229975
55.510 4.290312
55.515 4.16753
55.520 4.027121
55.525 4.102906
55.530 4.175627
55.535 4.106968
55.540 3.670496
55.545 3.526708
55.550 3.709487
55.555 3.69313
55.560 3.737303
55.565 4.150415
55.570 4.491132
55.575 4.660003
55.580 4.535648
55.585 4.513318
55.590 4.811988
55.595 4.767951
55.600 4.319037
55.605 4.130739
55.610 4.270461
55.615 4.548847
55.620 4.391321
55.625 4.407223
55.630 4.732834
55.635 4.8456
55.640 5.231883
55.645 5.154111
55.650 4.914839
55.655 5.108863
55.660 5.054654
55.665 4.701235
55.670 4.497589
55.675 4.19863
55.680 4.158295
55.685 4.372719
55.690 4.282461
55.695 3.970337
55.700 3.929438
55.705 4.213782
55.710 4.356141
55.715 4.205052
55.720 4.136039
55.725 4.352942
55.730 4.494606
55.735 4.574501
55.740 4.292711
55.745 3.798368
55.750 3.786715
55.755 3.843828
55.760 3.64925
55.765 3.635384
55.770 3.498932
55.775 3.788357
55.780 4.407256
55.785 4.402908
55.790 4.293137
55.795 4.30809
55.800 4.338934
55.805 4.510169
55.810 4.308603
55.815 4.253192
55.820 4.445516
55.825 4.459982
55.830 4.49062
55.835 4.661936
55.840 4.473589
55.845 4.563755
55.850 4.504489
55.855 4.636827
55.860 4.507165
55.865 4.878478
55.870 4.911084
55.875 4.999271
55.880 5.2111
55.885 5.150119
55.890 5.198704
55.895 5.219023
55.900 4.94662
55.905 5.052148
55.910 5.339864
55.915 4.950896
55.920 4.932823
55.925 4.771371
55.930 4.583993
55.935 4.555753
55.940 4.377031
55.945 4.325571
55.950 4.331429
55.955 4.17069
55.960 4.651347
55.965 4.754881
55.970 4.918886
55.975 5.095141
55.980 5.023792
55.985 4.981596
55.990 5.131408
55.995 4.973802
56.000 5.008021
56.005 4.910977
56.010 4.66966
56.015 4.795435
56.020 4.93578
56.025 4.67062
56.030 4.385166
56.035 4.105177
56.040 3.928514
56.045 3.494558
56.050 3.711975
56.055 4.025768
56.060 3.963324
56.065 4.199921
56.070 4.436633
56.075 4.390174
56.080 4.509542
56.085 4.069055
56.090 3.813354
56.095 4.093221
56.100 3.972154
56.105 4.065887
56.110 4.316284
56.115 4.344892
56.120 4.38243
56.125 4.403607
56.130 4.191491
56.135 4.13871
56.140 4.146099
56.145 4.594576
56.150 4.799736
56.155 5.124424
56.160 5.10041
56.165 5.350444
56.170 5.540329
56.175 5.393879
56.180 5.225528
56.185 5.372522
56.190 5.353128
56.195 5.363423
56.200 5.09599
56.205 4.973776
56.210 4.843817
56.215 4.294368
56.220 3.963346
56.225 3.739885
56.230 3.903547
56.235 4.300107
56.240 4.236702
56.245 4.433963
56.250 4.74498
56.255 4.806136
56.260 4.831726
56.265 4.722162
56.270 4.956218
56.275 5.089691
56.280 5.110927
56.285 5.202051
56.290 5.348518
56.295 5.241084
56.300 5.13459
56.305 4.812879
56.310 4.805201
56.315 4.458055
56.320 4.083928
56.325 3.942604
56.330 4.123328
56.335 4.26138
56.340 4.239207
56.345 4.285665
56.350 4.693659
56.355 5.316679
56.360 5.545607
56.365 5.246348
56.370 5.160953
56.375 5.074103
56.380 5.163759
56.385 5.068234
56.390 4.717208
56.395 4.529161
56.400 4.349372
56.405 4.249698
56.410 4.189337
56.415 3.965091
56.420 3.989665
56.425 4.020128
56.430 4.271112
56.435 4.69824
56.440 4.598484
56.445 4.786682
56.450 4.925669
56.455 4.95228
56.460 5.040563
56.465 5.255824
56.470 5.212718
56.475 5.367871
56.480 5.292891
56.485 5.360316
56.490 5.66306
56.495 5.473745
56.500 5.219646
56.505 5.404882
56.510 5.599576
56.515 5.636271
56.520 5.528645
56.525 5.585948
56.530 5.479371
56.535 5.222906
56.540 4.973543
56.545 4.99308
56.550 5.058137
56.555 4.832072
56.560 4.506293
56.565 4.594621
56.570 4.811713
56.575 4.534155
56.580 4.334007
56.585 4.402768
56.590 4.413681
56.595 4.45192
56.600 4.379374
56.605 4.155443
56.610 4.276482
56.615 4.318928
56.620 4.143259
56.625 4.373585
56.630 4.401481
56.635 4.788324
56.640 5.07553
56.645 5.463843
56.650 5.320291
56.655 5.23524
56.660 4.836161
56.665 4.717313
56.670 4.652311
56.675 4.49703
56.680 4.472659
56.685 4.587165
56.690 4.661231
56.695 4.91574
56.700 4.957294
56.705 4.793624
56.710 4.711255
56.715 4.533132
56.720 4.475689
56.725 4.688989
56.730 4.881165
56.735 4.827099
56.740 5.042287
56.745 5.167131
56.750 5.363753
56.755 5.343309
56.760 4.985333
56.765 4.500226
56.770 4.512363
56.775 4.47724
56.780 4.569306
56.785 4.42555
56.790 4.334169
56.795 4.460189
56.800 4.77379
56.805 4.836797
56.810 4.896418
56.815 4.94452
56.820 5.228356
56.825 5.551661
56.830 5.421229
56.835 5.364223
56.840 5.038721
56.845 4.735771
56.850 4.549088
56.855 4.335131
56.860 4.184258
56.865 4.641441
56.870 4.788126
56.875 4.865537
56.880 4.785679
56.885 4.72064
56.890 4.606295
56.895 4.722203
56.900 4.52672
56.905 4.661119
56.910 4.83697
56.915 5.069001
56.920 5.037828
56.925 5.127019
56.930 5.131427
56.935 5.481676
56.940 5.595818
56.945 5.501218
56.950 5.530759
56.955 5.743065
56.960 5.538599
56.965 5.444531
56.970 5.118496
56.975 4.912712
56.980 4.838109
56.985 4.740592
56.990 4.704481
56.995 5.2005
57.000 5.238498
57.005 4.824189
57.010 4.836021
57.015 4.743698
57.020 4.460503
57.025 4.148395
57.030 3.909045
57.035 3.730147
57.040 3.79921
57.045 3.9201
57.050 4.326367
57.055 4.974219
57.060 5.228295
57.065 5.259296
57.070 5.163674
57.075 5.198342
57.080 5.066359
57.085 4.722326
57.090 4.422531
57.095 4.250353
57.100 4.088385
57.105 4.413471
57.110 4.756802
57.115 4.774292
57.120 5.094063
57.125 5.206493
57.130 5.199481
57.135 5.146539
57.140 4.987334
57.145 4.923917
57.150 5.058962
57.155 4.642875
57.160 4.544887
57.165 4.82917
57.170 5.308562
57.175 5.158479
57.180 4.856984
57.185 4.732014
57.190 4.833999
57.195 4.890715
57.200 4.588004
57.205 4.210851
57.210 4.375581
57.215 4.341806
57.220 4.465723
57.225 4.41744
57.230 4.371862
57.235 4.587182
57.240 4.885324
57.245 4.793646
57.250 4.719507
57.255 4.885748
57.260 5.086736
57.265 5.133812
57.270 5.09812
57.275 4.958622
57.280 4.979901
57.285 4.912758
57.290 4.820848
57.295 4.70906
57.300 4.557092
57.305 4.409947
57.310 4.517343
57.315 4.54744
57.320 4.517929
57.325 4.312854
57.330 4.542991
57.335 4.77705
57.340 4.68752
57.345 4.789967
57.350 5.013406
57.355 5.382452
57.360 5.346238
57.365 5.003327
57.370 4.858076
57.375 4.800576
57.380 4.695531
57.385 4.576461
57.390 4.385877
57.395 4.335484
57.400 4.609636
57.405 4.767767
57.410 4.704332
57.415 4.588366
57.420 4.586576
57.425 4.693186
57.430 4.566076
57.435 4.753605
57.440 4.846651
57.445 4.933639
57.450 4.847911
57.455 4.793759
57.460 5.125996
57.465 5.459475
57.470 5.070448
57.475 4.898388
57.480 5.187917
57.485 5.362794
57.490 5.594356
57.495 5.580031
57.500 5.655784
57.505 5.94338
57.510 5.81257
57.515 5.384038
57.520 5.244164
57.525 4.889129
57.530 4.54884
57.535 4.333628
57.540 3.90309
57.545 4.109926
57.550 4.118906
57.555 4.277603
57.560 4.339235
57.565 4.318026
57.570 4.326191
57.575 4.474135
57.580 4.635973
57.585 5.025655
57.590 5.318242
57.595 5.541152
57.600 5.638537
57.605 5.473948
57.610 5.378829
57.615 5.391332
57.620 5.303926
57.625 5.121342
57.630 5.010016
57.635 4.877759
57.640 5.020379
57.645 5.22452
57.650 5.137007
57.655 5.142692
57.660 5.131517
57.665 5.277694
57.670 5.2957
57.675 5.355012
57.680 5.192195
57.685 5.110343
57.690 4.873632
57.695 4.694442
57.700 4.704176
57.705 5.134927
57.710 4.854019
57.715 4.954844
57.720 5.0918
57.725 5.023199
57.730 5.05362
57.735 4.77235
57.740 4.685346
57.745 4.883669
57.750 4.796228
57.755 4.732874
57.760 5.136482
57.765 5.265137
57.770 5.367407
57.775 5.314703
57.780 5.543854
57.785 5.60849
57.790 5.334134
57.795 4.969213
57.800 5.072556
57.805 5.22907
57.810 5.201634
57.815 5.245321
57.820 5.699099
57.825 6.177214
57.830 6.269122
57.835 6.219506
57.840 5.863056
57.845 5.762256
57.850 5.618949
57.855 5.704582
57.860 5.687297
57.865 5.663363
57.870 5.674591
57.875 5.968223
57.880 5.950418
57.885 5.876343
57.890 5.477187
57.895 5.458377
57.900 5.39028
57.905 5.232661
57.910 5.036869
57.915 5.040429
57.920 5.034013
57.925 5.122349
57.930 5.299803
57.935 5.396857
57.940 5.578258
57.945 5.994617
57.950 5.957614
57.955 6.004042
57.960 5.870978
57.965 5.590592
57.970 5.533278
57.975 5.524801
57.980 5.227464
57.985 5.233674
57.990 4.941111
57.995 5.19017
58.000 5.352743
58.005 5.582771
58.010 5.803735
58.015 5.924926
58.020 5.81468
58.025 5.902291
58.030 5.969154
58.035 6.129678
58.040 6.17917
58.045 6.255395
58.050 6.438606
58.055 6.560435
58.060 6.542801
58.065 5.962965
58.070 5.703914
58.075 5.717027
58.080 5.499972
58.085 5.555681
58.090 5.448207
58.095 5.727334
58.100 6.301724
58.105 5.919476
58.110 5.560954
58.115 5.590641
58.120 5.584832
58.125 5.844445
58.130 5.717861
58.135 5.692756
58.140 6.254183
58.145 6.415685
58.150 6.257632
58.155 6.336738
58.160 6.347859
58.165 5.934865
58.170 5.772793
58.175 5.685433
58.180 5.598564
58.185 5.611895
58.190 5.473431
58.195 5.506998
58.200 5.641689
58.205 5.324024
58.210 4.871517
58.215 4.851329
58.220 4.702041
58.225 4.202155
58.230 4.002775
58.235 4.15503
58.240 4.279725
58.245 4.43786
58.250 4.339336
58.255 4.683994
58.260 5.17658
58.265 5.326102
58.270 5.35977
58.275 5.217303
58.280 5.518153
58.285 5.499547
58.290 5.118051
58.295 4.96453
58.300 5.247496
58.305 5.192073
58.310 5.339353
58.315 5.065342
58.320 4.889241
58.325 5.132802
58.330 5.056367
58.335 4.940886
58.340 5.017551
58.345 5.204446
58.350 5.604347
58.355 5.809227
58.360 5.784882
58.365 5.659205
58.370 5.611829
58.375 5.705284
58.380 5.697525
58.385 5.340372
58.390 5.673977
58.395 6.341528
58.400 6.328361
58.405 6.019075
58.410 5.895644
58.415 5.828916
58.420 6.140396
58.425 5.644304
58.430 5.292017
58.435 5.486127
58.440 5.860176
58.445 6.013576
58.450 6.17485
58.455 6.121157
58.460 6.419491
58.465 6.351064
58.470 6.548808
58.475 6.641509
58.480 6.869983
58.485 6.599798
58.490 6.585776
58.495 6.632113
58.500 6.863902
58.505 6.755451
58.510 6.71269
58.515 6.798819
58.520 7.167412
58.525 7.410563
58.530 7.134995
58.535 6.957054
58.540 7.157611
58.545 6.843741
58.550 6.643141
58.555 6.694582
58.560 7.072304
58.565 7.56137
58.570 7.662885
58.575 7.606095
58.580 8.0994
58.585 8.04963
58.590 8.186488
58.595 7.843006
58.600 7.927408
58.605 7.878866
58.610 7.802436
58.615 7.301635
58.620 7.382873
58.625 7.341723
58.630 7.349719
58.635 7.254372
58.640 7.494445
58.645 7.626577
58.650 8.11445
58.655 8.268382
58.660 8.482132
58.665 8.809515
58.670 8.742227
58.675 8.549068
58.680 8.554012
58.685 8.226445
58.690 8.359742
58.695 8.599921
58.700 8.758395
58.705 9.121184
58.710 9.515146
58.715 9.588041
58.720 10.185681
58.725 10.345166
58.730 10.195993
58.735 10.128409
58.740 10.000749
58.745 10.263157
58.750 10.33557
58.755 9.757954
58.760 9.421258
