!@!!GADDS PLOTSO FILE: Chi integration type
!@!!Title/SampleName: map-138
!@!!Comment: ?
!@!!User: Bruker Instrument Administrator
!@!!Site: University of Illinois Chicago
!@!!Frame: map-138_01_000.gfrm
!@!!Wavelengths    1.54184   1.54056   1.54439
!@!!Frame angles: 2Theta: 63.000 Omega: 50.000 Phi: 0.000 Chi: 90.000
!@!!Integration range: 2Theta: 53.000 to 73.000  Gamma: -105.000 to -75.000
!@!!Integration method: bin normalized
!@!N
!@!SS
!@!M
!@!L 0.0 0.0 0.0 0.0
!@!XDegrees
!@!YCounts
53.000 5.203946
53.005 5.212585
53.010 5.471598
53.015 5.203701
53.020 5.384818
53.025 5.593452
53.030 5.521218
53.035 5.427313
53.040 5.40352
53.045 5.052886
53.050 5.235792
53.055 4.805813
53.060 5.113929
53.065 5.343265
53.070 4.989758
53.075 4.912812
53.080 5.211655
53.085 5.87804
53.090 6.238308
53.095 5.9626
53.100 6.153836
53.105 6.651788
53.110 6.921591
53.115 6.621895
53.120 5.946455
53.125 6.059561
53.130 6.097562
53.135 5.767099
53.140 5.39591
53.145 5.320927
53.150 5.601875
53.155 6.061841
53.160 6.082776
53.165 5.947329
53.170 5.649996
53.175 5.504165
53.180 5.647075
53.185 5.336249
53.190 4.983048
53.195 4.549599
53.200 4.707948
53.205 4.716423
53.210 4.700691
53.215 4.494762
53.220 4.781942
53.225 5.181365
53.230 5.553256
53.235 5.524992
53.240 5.782181
53.245 5.758621
53.250 5.874557
53.255 5.711122
53.260 5.439085
53.265 5.405427
53.270 5.543371
53.275 5.596782
53.280 5.670559
53.285 5.287012
53.290 5.416588
53.295 5.417265
53.300 5.525089
53.305 5.643975
53.310 5.915596
53.315 6.030371
53.320 6.195964
53.325 6.386666
53.330 6.693984
53.335 6.83085
53.340 7.024698
53.345 6.951587
53.350 6.723015
53.355 6.598238
53.360 6.306406
53.365 5.857821
53.370 5.495534
53.375 5.619172
53.380 5.816101
53.385 6.595277
53.390 6.797808
53.395 6.641242
53.400 7.144587
53.405 6.931266
53.410 6.507858
53.415 6.597005
53.420 6.416973
53.425 6.748209
53.430 7.182882
53.435 7.063964
53.440 7.377864
53.445 7.340972
53.450 7.221581
53.455 7.161566
53.460 6.623738
53.465 6.549749
53.470 6.506173
53.475 6.20927
53.480 6.529305
53.485 6.398409
53.490 6.375795
53.495 6.72112
53.500 6.765436
53.505 6.89151
53.510 7.224429
53.515 6.913347
53.520 7.081617
53.525 7.072995
53.530 6.837474
53.535 6.997037
53.540 6.611703
53.545 6.559524
53.550 6.391804
53.555 5.667167
53.560 5.701026
53.565 5.565268
53.570 5.901752
53.575 6.351425
53.580 6.303282
53.585 6.204711
53.590 6.320882
53.595 6.384938
53.600 5.952477
53.605 5.271504
53.610 4.689034
53.615 4.948942
53.620 5.167756
53.625 5.416309
53.630 5.520908
53.635 5.75858
53.640 6.212563
53.645 6.255053
53.650 6.064804
53.655 5.947845
53.660 5.817042
53.665 6.056973
53.670 6.07693
53.675 5.909431
53.680 5.668685
53.685 5.921732
53.690 6.239802
53.695 5.849566
53.700 5.561235
53.705 5.654499
53.710 5.809072
53.715 6.018804
53.720 5.970376
53.725 6.215684
53.730 6.489156
53.735 6.451407
53.740 6.52164
53.745 7.002731
53.750 6.973072
53.755 6.637033
53.760 5.790174
53.765 5.819312
53.770 5.893525
53.775 5.778883
53.780 5.621763
53.785 5.538479
53.790 5.855205
53.795 6.14502
53.800 5.979548
53.805 5.666067
53.810 5.553587
53.815 6.021488
53.820 6.237301
53.825 6.285031
53.830 6.410276
53.835 6.720098
53.840 6.949766
53.845 6.410481
53.850 5.63874
53.855 5.642177
53.860 5.458787
53.865 5.537971
53.870 5.533359
53.875 5.640248
53.880 6.05833
53.885 6.027957
53.890 5.934001
53.895 6.0782
53.900 6.06458
53.905 6.169455
53.910 6.385943
53.915 6.48737
53.920 6.757536
53.925 7.097193
53.930 7.387409
53.935 7.268634
53.940 7.050312
53.945 6.764239
53.950 6.623977
53.955 6.793705
53.960 6.763015
53.965 6.441318
53.970 6.411716
53.975 6.892355
53.980 7.08806
53.985 7.407825
53.990 7.230582
53.995 6.775266
54.000 6.886454
54.005 6.788574
54.010 6.366519
54.015 6.19472
54.020 6.373378
54.025 6.621119
54.030 7.295283
54.035 7.422329
54.040 7.415292
54.045 7.606738
54.050 7.293305
54.055 6.883162
54.060 7.047291
54.065 6.927534
54.070 7.009868
54.075 7.219514
54.080 7.354052
54.085 7.481753
54.090 7.333215
54.095 6.901053
54.100 6.804589
54.105 6.79078
54.110 6.71145
54.115 6.411543
54.120 6.465495
54.125 7.082419
54.130 7.242765
54.135 7.359273
54.140 7.358705
54.145 7.170571
54.150 7.370707
54.155 7.153272
54.160 7.012741
54.165 6.918738
54.170 6.986896
54.175 6.968006
54.180 7.218692
54.185 7.44255
54.190 7.370321
54.195 7.203374
54.200 7.030516
54.205 6.812713
54.210 6.879159
54.215 6.843621
54.220 6.685484
54.225 6.98455
54.230 7.112282
54.235 7.252697
54.240 7.31051
54.245 7.470826
54.250 7.444658
54.255 7.381206
54.260 7.289846
54.265 7.491648
54.270 7.599136
54.275 7.359086
54.280 7.01879
54.285 6.984224
54.290 6.905274
54.295 6.722648
54.300 6.466695
54.305 6.172036
54.310 6.342926
54.315 6.730699
54.320 6.673406
54.325 6.742487
54.330 7.066405
54.335 7.340531
54.340 7.404913
54.345 7.286991
54.350 6.994223
54.355 6.98055
54.360 6.67134
54.365 6.381482
54.370 6.808795
54.375 6.9358
54.380 6.793467
54.385 6.848885
54.390 6.777844
54.395 6.981192
54.400 6.864139
54.405 6.506401
54.410 6.504959
54.415 6.592746
54.420 6.991994
54.425 7.307622
54.430 7.308336
54.435 7.114661
54.440 7.031946
54.445 7.075002
54.450 6.830647
54.455 6.607052
54.460 6.924492
54.465 7.245381
54.470 7.557162
54.475 7.676093
54.480 7.81486
54.485 7.92846
54.490 7.485788
54.495 6.958473
54.500 6.722638
54.505 7.115203
54.510 7.420328
54.515 7.630043
54.520 7.868709
54.525 7.830487
54.530 8.045131
54.535 7.952322
54.540 7.409176
54.545 6.975245
54.550 6.465713
54.555 6.28384
54.560 6.783737
54.565 7.1838
54.570 7.390247
54.575 7.580477
54.580 7.313555
54.585 7.906722
54.590 8.007115
54.595 7.573279
54.600 7.117677
54.605 6.798217
54.610 6.594181
54.615 6.293157
54.620 6.055594
54.625 5.902796
54.630 5.850768
54.635 5.825378
54.640 5.839993
54.645 6.087794
54.650 6.475314
54.655 6.650528
54.660 6.816729
54.665 7.011996
54.670 7.543712
54.675 7.92402
54.680 8.046417
54.685 7.951321
54.690 7.88969
54.695 8.284678
54.700 8.104665
54.705 7.734525
54.710 7.224035
54.715 7.154774
54.720 7.110626
54.725 7.538452
54.730 7.449175
54.735 7.111728
54.740 6.72806
54.745 6.827571
54.750 7.057369
54.755 7.076842
54.760 6.769431
54.765 7.029906
54.770 7.118727
54.775 7.437806
54.780 7.360934
54.785 7.191183
54.790 7.003184
54.795 6.811251
54.800 6.573595
54.805 6.549597
54.810 6.78582
54.815 6.602698
54.820 6.742726
54.825 6.731491
54.830 6.727108
54.835 6.695274
54.840 6.824226
54.845 6.622406
54.850 7.077253
54.855 6.835565
54.860 6.599553
54.865 6.732389
54.870 7.295008
54.875 7.373751
54.880 7.371689
54.885 7.356777
54.890 7.865119
54.895 8.14631
54.900 7.67652
54.905 7.863759
54.910 8.034199
54.915 7.987062
54.920 7.663258
54.925 7.451261
54.930 7.328175
54.935 7.4663
54.940 6.681397
54.945 6.649993
54.950 7.024071
54.955 7.141191
54.960 7.35739
54.965 7.481735
54.970 7.406325
54.975 7.943489
54.980 7.952919
54.985 8.144765
54.990 8.128608
54.995 7.894984
55.000 7.806599
55.005 8.107497
55.010 7.925573
55.015 7.886384
55.020 7.800711
55.025 8.031229
55.030 8.300885
55.035 8.416923
55.040 7.967057
55.045 7.812788
55.050 7.900503
55.055 7.732164
55.060 7.664443
55.065 7.73886
55.070 7.997983
55.075 8.085385
55.080 8.079962
55.085 7.93537
55.090 8.046432
55.095 7.641224
55.100 7.363222
55.105 7.377878
55.110 7.666813
55.115 7.80601
55.120 7.976297
55.125 8.030989
55.130 8.237469
55.135 8.39344
55.140 8.334373
55.145 8.680254
55.150 8.400342
55.155 8.313483
55.160 8.179864
55.165 8.367646
55.170 8.183175
55.175 7.869302
55.180 7.678137
55.185 7.935269
55.190 7.971234
55.195 8.213079
55.200 8.057823
55.205 8.197472
55.210 8.273009
55.215 7.998405
55.220 8.083739
55.225 7.928177
55.230 7.401484
55.235 7.396645
55.240 7.336999
55.245 7.095746
55.250 7.121624
55.255 6.90889
55.260 6.554039
55.265 6.583293
55.270 6.387002
55.275 6.530647
55.280 6.636894
55.285 6.816479
55.290 7.146008
55.295 7.420918
55.300 7.72144
55.305 7.915438
55.310 8.106301
55.315 7.998097
55.320 7.82171
55.325 8.127578
55.330 8.225511
55.335 8.173569
55.340 7.672244
55.345 7.123737
55.350 6.972311
55.355 6.809569
55.360 6.369112
55.365 6.132055
55.370 6.336184
55.375 6.226552
55.380 6.613674
55.385 6.829552
55.390 6.845334
55.395 7.154482
55.400 7.2883
55.405 7.447816
55.410 7.813685
55.415 7.990285
55.420 7.780447
55.425 7.9457
55.430 8.151568
55.435 8.471375
55.440 8.77152
55.445 8.749373
55.450 8.984556
55.455 8.940104
55.460 9.081653
55.465 8.749417
55.470 8.298931
55.475 8.189657
55.480 8.261744
55.485 8.286749
55.490 8.315174
55.495 8.324635
55.500 8.415643
55.505 8.369451
55.510 8.340129
55.515 8.194348
55.520 8.391151
55.525 8.422848
55.530 8.095063
55.535 8.231995
55.540 8.246121
55.545 8.442728
55.550 8.414632
55.555 8.00421
55.560 7.832442
55.565 7.782613
55.570 7.892743
55.575 8.284686
55.580 8.308634
55.585 8.501178
55.590 8.798227
55.595 9.188451
55.600 9.097728
55.605 9.007441
55.610 9.17456
55.615 9.1756
55.620 8.867791
55.625 8.778454
55.630 8.51564
55.635 8.71579
55.640 8.199489
55.645 7.618025
55.650 8.012194
55.655 8.442725
55.660 7.946982
55.665 8.262544
55.670 8.292362
55.675 8.561207
55.680 8.609493
55.685 8.061509
55.690 8.253341
55.695 8.541226
55.700 8.041699
55.705 8.067729
55.710 7.963799
55.715 8.021627
55.720 8.246965
55.725 8.028612
55.730 8.286487
55.735 8.545747
55.740 7.982072
55.745 8.01557
55.750 7.822859
55.755 7.316905
55.760 7.337278
55.765 7.26091
55.770 7.872795
55.775 7.977281
55.780 7.7145
55.785 8.033177
55.790 8.313698
55.795 7.936123
55.800 7.749946
55.805 7.460141
55.810 7.508749
55.815 7.649781
55.820 7.675174
55.825 7.776233
55.830 7.892454
55.835 8.153995
55.840 8.571196
55.845 9.249014
55.850 9.706547
55.855 9.649789
55.860 9.210957
55.865 9.51329
55.870 8.825579
55.875 8.401735
55.880 8.292291
55.885 8.05488
55.890 8.672925
55.895 8.698637
55.900 8.697564
55.905 9.271863
55.910 9.560253
55.915 9.1256
55.920 8.505583
55.925 7.998163
55.930 8.169608
55.935 8.24106
55.940 7.987322
55.945 7.77159
55.950 8.026071
55.955 8.27308
55.960 8.816648
55.965 8.833572
55.970 8.511991
55.975 8.437707
55.980 8.304804
55.985 8.19197
55.990 7.664733
55.995 7.39332
56.000 7.408782
56.005 7.84299
56.010 8.211859
56.015 8.302052
56.020 8.222398
56.025 8.270061
56.030 8.205982
56.035 8.220172
56.040 7.934955
56.045 8.252474
56.050 8.442716
56.055 8.68611
56.060 8.687002
56.065 8.810145
56.070 9.072711
56.075 9.283399
56.080 8.971997
56.085 9.081248
56.090 9.379775
56.095 9.696246
56.100 9.406944
56.105 9.241491
56.110 8.641851
56.115 8.102257
56.120 7.79086
56.125 7.606027
56.130 7.561315
56.135 8.069035
56.140 8.497058
56.145 8.988356
56.150 9.363805
56.155 9.95416
56.160 10.017306
56.165 10.178065
56.170 10.018701
56.175 9.695045
56.180 9.274473
56.185 9.269114
56.190 8.838297
56.195 8.414996
56.200 8.063611
56.205 7.968908
56.210 7.776902
56.215 7.981739
56.220 7.905611
56.225 8.058114
56.230 8.183021
56.235 7.907886
56.240 7.8729
56.245 8.21597
56.250 7.995298
56.255 8.109919
56.260 8.417391
56.265 8.768122
56.270 8.917685
56.275 8.979468
56.280 8.566112
56.285 8.954393
56.290 8.632376
56.295 8.194381
56.300 8.223461
56.305 8.22684
56.310 8.198728
56.315 8.621976
56.320 8.432991
56.325 8.5509
56.330 8.792617
56.335 9.214785
56.340 9.70885
56.345 10.04387
56.350 9.791568
56.355 9.74729
56.360 9.588861
56.365 9.361492
56.370 8.915786
56.375 8.455962
56.380 8.201227
56.385 8.227506
56.390 8.780039
56.395 8.834691
56.400 8.494247
56.405 8.291978
56.410 8.275117
56.415 8.384536
56.420 8.635107
56.425 8.123715
56.430 8.640384
56.435 9.329179
56.440 9.326115
56.445 8.945411
56.450 9.064467
56.455 8.660294
56.460 8.697075
56.465 7.935714
56.470 7.451984
56.475 7.37855
56.480 7.43745
56.485 7.392652
56.490 8.037483
56.495 7.96333
56.500 8.00413
56.505 8.101313
56.510 8.357297
56.515 8.480184
56.520 8.075839
56.525 7.816325
56.530 8.095584
56.535 8.329659
56.540 8.436255
56.545 8.398395
56.550 8.565774
56.555 9.13096
56.560 9.108711
56.565 8.69293
56.570 8.640543
56.575 8.367998
56.580 8.485976
56.585 8.30721
56.590 8.366975
56.595 8.504926
56.600 8.439672
56.605 8.533703
56.610 9.026246
56.615 8.871097
56.620 8.886357
56.625 8.59948
56.630 8.578936
56.635 9.120199
56.640 9.136009
56.645 8.876686
56.650 9.131336
56.655 8.878932
56.660 9.584652
56.665 10.050412
56.670 9.928778
56.675 10.119457
56.680 10.462048
56.685 10.582224
56.690 10.500733
56.695 9.410911
56.700 9.044519
56.705 9.181568
56.710 8.80492
56.715 8.551272
56.720 8.768181
56.725 9.166863
56.730 9.845218
56.735 9.911051
56.740 9.413132
56.745 9.499856
56.750 9.642379
56.755 9.908417
56.760 10.158874
56.765 9.78605
56.770 9.571064
56.775 9.786736
56.780 9.831547
56.785 9.356822
56.790 8.97704
56.795 9.047581
56.800 8.905697
56.805 9.19392
56.810 9.414086
56.815 9.52154
56.820 9.565381
56.825 9.48211
56.830 9.642179
56.835 10.111311
56.840 10.202997
56.845 10.125237
56.850 9.726054
56.855 9.446845
56.860 9.064841
56.865 8.703254
56.870 8.574372
56.875 8.611677
56.880 8.693807
56.885 9.013143
56.890 9.201063
56.895 9.377385
56.900 9.44543
56.905 9.458876
56.910 9.194941
56.915 8.871058
56.920 8.835431
56.925 8.913935
56.930 8.673237
56.935 8.701692
56.940 8.996552
56.945 9.488703
56.950 9.888634
56.955 10.42825
56.960 10.504703
56.965 10.551235
56.970 10.813191
56.975 10.926331
56.980 10.470609
56.985 10.447885
56.990 10.503703
56.995 10.79555
57.000 10.752297
57.005 9.86936
57.010 9.16208
57.015 9.177132
57.020 8.876805
57.025 8.099125
57.030 7.891003
57.035 8.216443
57.040 8.713132
57.045 9.26231
57.050 9.299337
57.055 9.345435
57.060 9.46105
57.065 9.517902
57.070 9.106586
57.075 8.897983
57.080 8.795603
57.085 9.034417
57.090 9.150929
57.095 9.387716
57.100 9.38163
57.105 9.655286
57.110 10.058433
57.115 9.828585
57.120 9.605332
57.125 9.4394
57.130 9.293797
57.135 9.29397
57.140 9.035491
57.145 8.444178
57.150 8.267479
57.155 8.496327
57.160 8.196968
57.165 8.139635
57.170 8.00394
57.175 8.22096
57.180 8.450084
57.185 8.5343
57.190 8.641177
57.195 9.143195
57.200 9.129582
57.205 9.230135
57.210 8.497583
57.215 8.191248
57.220 8.401799
57.225 8.352792
57.230 8.225317
57.235 8.1416
57.240 8.40988
57.245 8.725659
57.250 9.119301
57.255 8.947285
57.260 8.796391
57.265 9.116179
57.270 9.25134
57.275 9.161171
57.280 9.594458
57.285 9.093987
57.290 8.913401
57.295 9.202909
57.300 9.551315
57.305 10.087185
57.310 10.263116
57.315 9.903572
57.320 10.208472
57.325 10.296788
57.330 9.918879
57.335 9.418995
57.340 8.655024
57.345 8.195445
57.350 8.360951
57.355 8.866676
57.360 9.413808
57.365 9.795289
57.370 9.779819
57.375 10.257837
57.380 10.754639
57.385 11.245744
57.390 10.575312
57.395 10.028816
57.400 9.807205
57.405 9.907557
57.410 9.708246
57.415 9.708234
57.420 9.456044
57.425 9.575321
57.430 9.935684
57.435 10.050908
57.440 10.11645
57.445 10.237656
57.450 9.736921
57.455 9.916706
57.460 10.362265
57.465 10.260787
57.470 10.38225
57.475 10.598887
57.480 10.902722
57.485 11.027371
57.490 10.932036
57.495 10.610933
57.500 10.442414
57.505 10.1941
57.510 10.139374
57.515 10.209785
57.520 10.439332
57.525 10.64179
57.530 10.94641
57.535 11.006826
57.540 10.637661
57.545 10.293222
57.550 9.859165
57.555 9.743262
57.560 9.594782
57.565 9.39582
57.570 9.016052
57.575 9.316186
57.580 9.374734
57.585 9.390841
57.590 9.455892
57.595 9.239495
57.600 9.707496
57.605 10.603309
57.610 10.532443
57.615 10.689615
57.620 10.822666
57.625 11.086622
57.630 11.740039
57.635 11.354413
57.640 10.762566
57.645 11.156123
57.650 11.335175
57.655 11.268027
57.660 10.915757
57.665 10.519097
57.670 10.200974
57.675 10.406092
57.680 10.656058
57.685 10.890387
57.690 11.386842
57.695 11.291904
57.700 11.00967
57.705 11.720342
57.710 11.424305
57.715 10.797469
57.720 10.276268
57.725 10.021729
57.730 9.861182
57.735 9.706161
57.740 9.139646
57.745 9.474203
57.750 9.772051
57.755 9.891657
57.760 9.678678
57.765 9.713635
57.770 9.578049
57.775 10.1773
57.780 10.16268
57.785 10.431393
57.790 10.61235
57.795 10.606193
57.800 10.422833
57.805 10.844767
57.810 10.73172
57.815 9.899828
57.820 9.253753
57.825 9.536116
57.830 10.178458
57.835 10.821632
57.840 11.06995
57.845 11.160623
57.850 11.779999
57.855 11.756874
57.860 11.347557
57.865 10.703365
57.870 10.340696
57.875 9.85628
57.880 9.757491
57.885 9.8527
57.890 10.059283
57.895 10.344254
57.900 11.001365
57.905 10.961289
57.910 10.879174
57.915 10.944975
57.920 11.030648
57.925 10.955188
57.930 10.864439
57.935 10.707121
57.940 10.701348
57.945 10.28818
57.950 10.128871
57.955 9.953125
57.960 9.737185
57.965 9.607295
57.970 9.424938
57.975 9.695226
57.980 10.747167
57.985 11.015841
57.990 11.343202
57.995 11.954319
58.000 12.420875
58.005 12.792687
58.010 13.269533
58.015 12.994748
58.020 12.931079
58.025 12.71065
58.030 12.585689
58.035 12.370234
58.040 12.626046
58.045 12.747031
58.050 12.203135
58.055 12.360319
58.060 12.425314
58.065 12.169297
58.070 12.182453
58.075 11.653113
58.080 11.296983
58.085 11.491251
58.090 11.561856
58.095 11.187567
58.100 11.429851
58.105 11.562732
58.110 11.623218
58.115 11.846169
58.120 11.849812
58.125 11.626759
58.130 11.589912
58.135 11.473948
58.140 11.256515
58.145 11.243384
58.150 11.480006
58.155 11.44105
58.160 11.444415
58.165 11.474577
58.170 11.172215
58.175 11.141526
58.180 10.725221
58.185 10.222423
58.190 10.507705
58.195 10.652196
58.200 11.097829
58.205 11.320236
58.210 11.676455
58.215 11.98639
58.220 12.071223
58.225 12.081837
58.230 12.015349
58.235 11.786506
58.240 11.822849
58.245 11.663394
58.250 11.114156
58.255 11.000805
58.260 10.92067
58.265 10.972166
58.270 11.075788
58.275 10.891425
58.280 10.618812
58.285 11.227324
58.290 11.41535
58.295 11.360403
58.300 11.83572
58.305 12.107633
58.310 12.314742
58.315 13.006311
58.320 12.657901
58.325 12.592439
58.330 12.685365
58.335 12.552342
58.340 12.574305
58.345 12.478406
58.350 12.680915
58.355 12.833691
58.360 13.478167
58.365 13.889003
58.370 13.744789
58.375 13.835407
58.380 14.450524
58.385 14.653028
58.390 14.822938
58.395 15.032412
58.400 14.959536
58.405 14.982732
58.410 14.734838
58.415 14.328323
58.420 14.292089
58.425 14.204021
58.430 14.112433
58.435 13.932778
58.440 14.315558
58.445 14.710749
58.450 14.911242
58.455 14.987817
58.460 15.082217
58.465 14.58011
58.470 14.867659
58.475 15.248033
58.480 15.786196
58.485 15.79998
58.490 16.590464
58.495 17.129169
58.500 18.116081
58.505 18.595156
58.510 18.469933
58.515 18.420897
58.520 19.087454
58.525 18.860542
58.530 19.324335
58.535 19.089415
58.540 19.018953
58.545 19.340275
58.550 19.3986
58.555 19.279152
58.560 19.226088
58.565 19.202221
58.570 19.616644
58.575 20.103041
58.580 20.018854
58.585 19.905878
58.590 19.852051
58.595 20.706158
58.600 21.358902
58.605 21.33613
58.610 21.250212
58.615 21.630749
58.620 22.182602
58.625 22.740627
58.630 23.078709
58.635 23.17288
58.640 23.585825
58.645 23.763273
58.650 23.88517
58.655 24.699059
58.660 25.775122
58.665 25.270699
58.670 24.691874
58.675 24.444906
58.680 24.51852
58.685 24.120258
58.690 23.499817
58.695 23.660641
