!@!!GADDS PLOTSO FILE: Chi integration type
!@!!Title/SampleName: map-22
!@!!Comment: ?
!@!!User: Bruker Instrument Administrator
!@!!Site: University of Illinois Chicago
!@!!Frame: map-22_01_000.gfrm
!@!!Wavelengths    1.54184   1.54056   1.54439
!@!!Frame angles: 2Theta: 63.000 Omega: 50.000 Phi: 0.000 Chi: 90.000
!@!!Integration range: 2Theta: 53.000 to 73.000  Gamma: -105.000 to -75.000
!@!!Integration method: bin normalized
!@!N
!@!SS
!@!M
!@!L 0.0 0.0 0.0 0.0
!@!XDegrees
!@!YCounts
53.000 9.876804
53.005 10.094286
53.010 10.068937
53.015 10.218619
53.020 10.182563
53.025 10.275805
53.030 10.2041
53.035 9.667509
53.040 9.498672
53.045 9.828008
53.050 9.801991
53.055 9.56252
53.060 9.181129
53.065 9.200271
53.070 9.459902
53.075 9.090081
53.080 8.415768
53.085 8.770052
53.090 9.161185
53.095 9.661046
53.100 9.746211
53.105 9.665237
53.110 9.681389
53.115 10.301427
53.120 10.296129
53.125 10.092078
53.130 9.984719
53.135 10.056742
53.140 9.928348
53.145 10.026624
53.150 10.150855
53.155 10.49403
53.160 10.535882
53.165 10.299211
53.170 10.400391
53.175 10.568256
53.180 10.638746
53.185 10.067745
53.190 10.311619
53.195 10.001825
53.200 9.828969
53.205 9.628647
53.210 9.654126
53.215 9.227179
53.220 9.310463
53.225 9.265337
53.230 9.589647
53.235 9.63084
53.240 9.747272
53.245 9.974411
53.250 10.464311
53.255 10.646596
53.260 10.42052
53.265 10.188375
53.270 10.263301
53.275 10.120697
53.280 9.731373
53.285 9.96917
53.290 10.092786
53.295 10.715489
53.300 11.229433
53.305 11.446938
53.310 11.769021
53.315 11.381863
53.320 10.997906
53.325 10.51903
53.330 10.249857
53.335 9.829306
53.340 9.344903
53.345 9.397531
53.350 9.790572
53.355 9.780968
53.360 9.48753
53.365 9.282768
53.370 9.783483
53.375 10.012345
53.380 9.580976
53.385 9.437944
53.390 9.445459
53.395 9.699232
53.400 10.017125
53.405 9.946513
53.410 10.379702
53.415 10.715932
53.420 10.550571
53.425 10.657077
53.430 10.306503
53.435 10.075758
53.440 10.091223
53.445 9.738782
53.450 10.344174
53.455 11.148556
53.460 11.017529
53.465 11.140839
53.470 11.008738
53.475 11.316313
53.480 11.226984
53.485 10.599608
53.490 10.198633
53.495 10.385799
53.500 10.701733
53.505 10.946353
53.510 10.350656
53.515 9.852033
53.520 9.476002
53.525 9.064363
53.530 8.727755
53.535 8.201523
53.540 8.211752
53.545 8.742061
53.550 9.077909
53.555 9.852663
53.560 10.532268
53.565 10.651781
53.570 10.537533
53.575 10.80536
53.580 10.897809
53.585 10.844288
53.590 10.178763
53.595 9.997903
53.600 10.237758
53.605 10.670048
53.610 10.575352
53.615 10.291196
53.620 10.825952
53.625 11.386909
53.630 11.652305
53.635 11.719698
53.640 11.154945
53.645 10.93693
53.650 11.469379
53.655 11.250572
53.660 10.726071
53.665 10.719189
53.670 10.819839
53.675 11.17806
53.680 10.944451
53.685 10.729365
53.690 10.571065
53.695 10.456734
53.700 10.485081
53.705 10.557532
53.710 10.676349
53.715 11.075297
53.720 11.092212
53.725 11.050211
53.730 11.117486
53.735 11.138399
53.740 11.203414
53.745 11.338495
53.750 10.937006
53.755 10.668194
53.760 10.950417
53.765 11.144661
53.770 10.739866
53.775 10.602359
53.780 10.729784
53.785 10.766738
53.790 10.75472
53.795 10.784696
53.800 10.354599
53.805 10.363113
53.810 9.981183
53.815 9.813011
53.820 10.258582
53.825 10.274457
53.830 10.192645
53.835 10.400717
53.840 10.401052
53.845 10.594015
53.850 10.823442
53.855 10.710397
53.860 10.582661
53.865 10.166296
53.870 9.752797
53.875 10.199707
53.880 10.335285
53.885 10.172626
53.890 10.232447
53.895 10.408195
53.900 10.710296
53.905 10.933619
53.910 10.817186
53.915 10.68925
53.920 10.788797
53.925 11.226444
53.930 11.448754
53.935 11.415424
53.940 11.29846
53.945 11.507895
53.950 11.414651
53.955 11.497381
53.960 11.251322
53.965 11.551133
53.970 12.226978
53.975 12.330101
53.980 12.277294
53.985 12.391578
53.990 12.509284
53.995 12.448274
54.000 12.162788
54.005 11.71397
54.010 11.44532
54.015 11.331868
54.020 10.917374
54.025 10.575267
54.030 10.601835
54.035 10.606715
54.040 10.699596
54.045 10.419925
54.050 10.381471
54.055 10.49719
54.060 10.028335
54.065 9.541073
54.070 9.867484
54.075 10.208329
54.080 10.767394
54.085 11.13077
54.090 11.729031
54.095 12.564494
54.100 13.181432
54.105 13.372975
54.110 13.701033
54.115 13.813742
54.120 13.284662
54.125 12.940311
54.130 12.923036
54.135 12.829602
54.140 12.472991
54.145 12.393076
54.150 12.554182
54.155 12.671363
54.160 12.806618
54.165 12.334537
54.170 11.845345
54.175 11.744221
54.180 11.146373
54.185 10.773304
54.190 10.774517
54.195 10.662924
54.200 11.230536
54.205 11.691917
54.210 11.976671
54.215 12.088908
54.220 12.004134
54.225 12.014125
54.230 12.285466
54.235 12.251729
54.240 11.940354
54.245 11.533091
54.250 11.459106
54.255 11.558469
54.260 11.880702
54.265 11.600476
54.270 11.741224
54.275 11.883197
54.280 12.202739
54.285 12.21937
54.290 12.009128
54.295 11.814997
54.300 11.888325
54.305 11.858264
54.310 11.746697
54.315 12.039412
54.320 12.465823
54.325 12.643396
54.330 12.413793
54.335 12.949652
54.340 12.790912
54.345 12.636202
54.350 13.001438
54.355 13.135154
54.360 13.240722
54.365 12.970551
54.370 12.68115
54.375 13.278803
54.380 13.807763
54.385 13.37558
54.390 13.458385
54.395 14.128031
54.400 14.492834
54.405 14.658775
54.410 14.121129
54.415 13.072166
54.420 12.903579
54.425 12.344948
54.430 11.363728
54.435 10.968009
54.440 10.794145
54.445 11.212751
54.450 11.387197
54.455 11.250889
54.460 11.398531
54.465 11.553154
54.470 11.289313
54.475 10.965794
54.480 10.775249
54.485 10.62856
54.490 10.416678
54.495 10.660439
54.500 11.017845
54.505 11.67348
54.510 11.802361
54.515 11.988944
54.520 12.045717
54.525 11.929139
54.530 11.705976
54.535 11.708295
54.540 11.118105
54.545 10.63113
54.550 10.99691
54.555 11.193295
54.560 11.189762
54.565 11.048708
54.570 11.242376
54.575 12.293514
54.580 12.752339
54.585 13.135004
54.590 13.208962
54.595 13.267304
54.600 12.920057
54.605 12.222336
54.610 11.879177
54.615 11.98561
54.620 11.1434
54.625 11.191049
54.630 11.476982
54.635 11.894793
54.640 12.245355
54.645 11.73656
54.650 11.413264
54.655 11.62119
54.660 11.931228
54.665 12.164442
54.670 11.814139
54.675 11.452084
54.680 11.641722
54.685 11.38793
54.690 11.33767
54.695 10.989674
54.700 10.861101
54.705 11.182148
54.710 11.515352
54.715 11.936769
54.720 12.187398
54.725 12.650586
54.730 12.789778
54.735 12.591651
54.740 12.713838
54.745 12.697721
54.750 12.160594
54.755 11.686068
54.760 11.062931
54.765 11.298408
54.770 11.523536
54.775 11.035945
54.780 10.459643
54.785 10.559736
54.790 11.055937
54.795 11.210394
54.800 11.269303
54.805 11.149312
54.810 11.727865
54.815 12.068429
54.820 12.368469
54.825 12.935981
54.830 12.469997
54.835 12.151284
54.840 12.244739
54.845 12.328494
54.850 12.157434
54.855 11.690014
54.860 10.874268
54.865 11.18064
54.870 11.2273
54.875 11.207603
54.880 10.925619
54.885 11.461522
54.890 11.891014
54.895 12.463494
54.900 12.167219
54.905 11.962074
54.910 12.007175
54.915 12.337862
54.920 12.579042
54.925 12.398723
54.930 12.467365
54.935 12.818542
54.940 13.020442
54.945 13.431194
54.950 13.655056
54.955 13.170257
54.960 12.710274
54.965 12.372035
54.970 12.546044
54.975 12.61996
54.980 12.162488
54.985 12.044779
54.990 12.307043
54.995 12.716781
55.000 12.941339
55.005 12.263954
55.010 11.984233
55.015 11.927326
55.020 11.775816
55.025 11.607254
55.030 11.664028
55.035 11.922942
55.040 12.336198
55.045 12.749011
55.050 12.784287
55.055 12.910306
55.060 12.886443
55.065 12.301624
55.070 12.074636
55.075 12.258869
55.080 12.901758
55.085 12.783574
55.090 13.190087
55.095 13.788703
55.100 14.209926
55.105 14.344382
55.110 14.125453
55.115 13.307314
55.120 13.116237
55.125 12.535899
55.130 11.801894
55.135 11.848822
55.140 11.530364
55.145 11.65387
55.150 12.09768
55.155 12.513438
55.160 12.936666
55.165 13.125373
55.170 13.075283
55.175 13.55444
55.180 13.524902
55.185 13.211488
55.190 12.9199
55.195 12.789048
55.200 12.768007
55.205 13.150954
55.210 13.347423
55.215 13.885754
55.220 13.922067
55.225 14.147572
55.230 13.869379
55.235 14.081171
55.240 13.78089
55.245 13.012688
55.250 12.616271
55.255 11.966254
55.260 11.760481
55.265 12.027538
55.270 11.698664
55.275 11.63024
55.280 11.685132
55.285 11.89131
55.290 12.140686
55.295 11.743283
55.300 11.603641
55.305 11.520721
55.310 11.525176
55.315 11.100842
55.320 10.971376
55.325 11.47733
55.330 11.62567
55.335 11.447089
55.340 11.05092
55.345 10.822411
55.350 10.602161
55.355 10.537769
55.360 10.285733
55.365 10.366449
55.370 10.652217
55.375 10.842377
55.380 11.194852
55.385 11.815932
55.390 11.671315
55.395 12.010853
55.400 12.061495
55.405 11.725502
55.410 11.942139
55.415 11.977595
55.420 11.638298
55.425 11.849984
55.430 12.011166
55.435 12.212195
55.440 12.769107
55.445 12.689312
55.450 12.383834
55.455 12.229641
55.460 11.314322
55.465 11.228271
55.470 11.534676
55.475 11.605742
55.480 11.971296
55.485 12.398265
55.490 13.273143
55.495 13.633428
55.500 13.133588
55.505 12.437519
55.510 12.270601
55.515 12.23152
55.520 12.168839
55.525 11.747174
55.530 12.118968
55.535 12.790411
55.540 13.152562
55.545 13.060917
55.550 12.91378
55.555 12.676909
55.560 12.508356
55.565 12.671729
55.570 12.509539
55.575 12.508868
55.580 12.543917
55.585 12.668817
55.590 12.781391
55.595 13.214832
55.600 12.987761
55.605 12.720114
55.610 12.739675
55.615 12.759788
55.620 13.022309
55.625 13.203007
55.630 12.530281
55.635 12.395061
55.640 12.717661
55.645 13.100423
55.650 13.22653
55.655 13.296598
55.660 13.741027
55.665 14.519622
55.670 14.502233
55.675 14.751338
55.680 14.411508
55.685 14.043075
55.690 13.878955
55.695 13.155055
55.700 13.184798
55.705 13.464927
55.710 13.066357
55.715 12.37247
55.720 12.229652
55.725 12.324928
55.730 12.373298
55.735 11.982325
55.740 11.457733
55.745 11.772912
55.750 12.493737
55.755 12.856114
55.760 13.048356
55.765 13.125682
55.770 13.1104
55.775 12.844117
55.780 12.930026
55.785 12.422392
55.790 11.989264
55.795 11.661677
55.800 11.332444
55.805 11.536685
55.810 11.864933
55.815 12.0737
55.820 12.320837
55.825 12.587886
55.830 12.706793
55.835 13.329374
55.840 13.613086
55.845 13.30789
55.850 13.339643
55.855 13.165031
55.860 12.687321
55.865 12.429229
55.870 11.960715
55.875 11.973305
55.880 12.228996
55.885 12.020247
55.890 12.03285
55.895 12.390738
55.900 12.757445
55.905 12.973227
55.910 13.130589
55.915 13.353956
55.920 13.673881
55.925 14.166889
55.930 14.19443
55.935 14.485459
55.940 14.827656
55.945 14.897684
55.950 15.118112
55.955 15.055442
55.960 15.021168
55.965 15.062262
55.970 14.684889
55.975 14.316632
55.980 13.42198
55.985 13.084302
55.990 12.839527
55.995 12.337805
56.000 11.892577
56.005 11.779261
56.010 11.350656
56.015 11.449955
56.020 10.694921
56.025 10.602903
56.030 10.667193
56.035 10.948643
56.040 11.174833
56.045 11.815477
56.050 12.420008
56.055 12.877971
56.060 13.277326
56.065 13.545946
56.070 13.443437
56.075 13.366896
56.080 12.817018
56.085 12.715105
56.090 12.844584
56.095 12.705012
56.100 12.635381
56.105 12.485284
56.110 12.676692
56.115 12.757795
56.120 12.783478
56.125 12.875079
56.130 13.268381
56.135 13.616024
56.140 13.869338
56.145 14.226147
56.150 14.154775
56.155 14.125913
56.160 14.067653
56.165 13.912857
56.170 14.423215
56.175 14.308321
56.180 14.049291
56.185 14.277199
56.190 14.351296
56.195 14.423831
56.200 13.810945
56.205 12.698109
56.210 12.21184
56.215 11.909956
56.220 11.640368
56.225 11.642505
56.230 11.881683
56.235 12.293793
56.240 13.365364
56.245 14.684145
56.250 15.621543
56.255 15.696394
56.260 15.732402
56.265 16.238792
56.270 15.805909
56.275 15.054063
56.280 13.887794
56.285 13.133745
56.290 13.234049
56.295 13.301805
56.300 13.139741
56.305 13.741777
56.310 14.133853
56.315 14.692121
56.320 15.162509
56.325 14.765599
56.330 14.488812
56.335 14.171859
56.340 14.440115
56.345 14.662867
56.350 14.326344
56.355 14.289778
56.360 13.707941
56.365 13.84362
56.370 13.444721
56.375 12.218735
56.380 12.183466
56.385 12.036191
56.390 11.594797
56.395 11.70444
56.400 11.535058
56.405 11.892742
56.410 12.566474
56.415 11.808187
56.420 12.015701
56.425 12.512568
56.430 13.170627
56.435 13.230573
56.440 13.074306
56.445 13.249858
56.450 13.539406
56.455 14.261308
56.460 14.880817
56.465 14.807716
56.470 14.789526
56.475 14.955319
56.480 14.509418
56.485 14.336561
56.490 14.312426
56.495 13.857535
56.500 13.606451
56.505 13.644539
56.510 13.528578
56.515 13.562806
56.520 13.634599
56.525 13.240839
56.530 13.228742
56.535 13.109756
56.540 13.175281
56.545 13.33064
56.550 13.491279
56.555 13.640359
56.560 13.156673
56.565 12.937434
56.570 13.453778
56.575 13.383418
56.580 13.551149
56.585 13.663383
56.590 13.373871
56.595 13.740772
56.600 13.860434
56.605 13.99751
56.610 13.905228
56.615 14.115887
56.620 14.076721
56.625 14.498205
56.630 14.534629
56.635 14.546845
56.640 14.314545
56.645 14.83442
56.650 14.446292
56.655 14.222493
56.660 14.230308
56.665 14.280869
56.670 13.614281
56.675 13.727634
56.680 13.52428
56.685 13.651321
56.690 14.125316
56.695 14.163192
56.700 13.812599
56.705 14.310917
56.710 13.681052
56.715 13.888502
56.720 14.328096
56.725 13.760025
56.730 14.228458
56.735 14.321885
56.740 14.453796
56.745 14.840596
56.750 15.290253
56.755 15.020025
56.760 15.600453
56.765 15.559576
56.770 15.764424
56.775 15.923098
56.780 16.144962
56.785 15.690653
56.790 15.873212
56.795 15.648144
56.800 15.704197
56.805 15.763735
56.810 15.691385
56.815 15.065852
56.820 15.228772
56.825 15.445277
56.830 15.208825
56.835 15.372623
56.840 15.891635
56.845 16.395918
56.850 16.123472
56.855 16.011492
56.860 15.88961
56.865 16.01276
56.870 15.554174
56.875 15.033719
56.880 14.65511
56.885 14.983777
56.890 14.538262
56.895 14.202941
56.900 14.032619
56.905 14.229425
56.910 13.990063
56.915 13.954926
56.920 13.964797
56.925 14.229426
56.930 14.544028
56.935 14.8021
56.940 15.194828
56.945 15.340211
56.950 15.111965
56.955 15.042602
56.960 14.989759
56.965 14.926819
56.970 14.35632
56.975 14.159239
56.980 14.47631
56.985 14.222139
56.990 14.011087
56.995 13.579
57.000 13.880783
57.005 14.185826
57.010 13.810185
57.015 13.768878
57.020 14.602208
57.025 14.808308
57.030 15.43121
57.035 14.982051
57.040 15.069606
57.045 15.046686
57.050 14.994628
57.055 14.677423
57.060 14.530458
57.065 14.035726
57.070 14.429348
57.075 14.236504
57.080 14.113642
57.085 13.852052
57.090 14.339773
57.095 14.553303
57.100 14.990891
57.105 14.625377
57.110 14.723126
57.115 14.716966
57.120 14.3692
57.125 13.82585
57.130 13.374874
57.135 13.119368
57.140 12.885642
57.145 12.99448
57.150 14.037617
57.155 14.527449
57.160 14.875918
57.165 15.403287
57.170 15.777577
57.175 15.809121
57.180 15.607603
57.185 15.047658
57.190 15.219041
57.195 15.177046
57.200 14.941992
57.205 15.093747
57.210 15.557063
57.215 15.725507
57.220 15.217237
57.225 14.935068
57.230 14.884397
57.235 14.777967
57.240 14.91243
57.245 14.780676
57.250 15.117743
57.255 15.254895
57.260 15.493295
57.265 15.765805
57.270 15.521111
57.275 14.633919
57.280 14.384779
57.285 13.981207
57.290 13.930778
57.295 13.552382
57.300 13.440204
57.305 13.507217
57.310 13.670427
57.315 13.451679
57.320 13.736451
57.325 14.168386
57.330 14.090452
57.335 13.433331
57.340 13.280594
57.345 13.513021
57.350 13.929543
57.355 13.851022
57.360 14.057133
57.365 14.126038
57.370 14.54114
57.375 15.317698
57.380 15.625219
57.385 15.149829
57.390 14.982406
57.395 14.838351
57.400 15.368607
57.405 15.51009
57.410 15.063006
57.415 14.83837
57.420 14.717697
57.425 14.447607
57.430 13.951937
57.435 13.528708
57.440 13.57433
57.445 13.259056
57.450 13.204367
57.455 13.129025
57.460 13.3363
57.465 13.822791
57.470 14.200127
57.475 14.790606
57.480 15.15125
57.485 15.591661
57.490 16.285654
57.495 16.605406
57.500 16.668465
57.505 16.75185
57.510 16.221008
57.515 16.398592
57.520 16.369013
57.525 15.839265
57.530 15.505019
57.535 14.994116
57.540 14.724386
57.545 14.951486
57.550 14.435695
57.555 14.355015
57.560 14.816465
57.565 14.973934
57.570 15.139304
57.575 15.341253
57.580 15.231909
57.585 15.428028
57.590 15.986397
57.595 15.85098
57.600 15.925658
57.605 15.746857
57.610 15.493672
57.615 15.532161
57.620 15.705056
57.625 15.248507
57.630 15.171721
57.635 15.000557
57.640 15.14388
57.645 15.260573
57.650 15.038937
57.655 14.796247
57.660 14.56931
57.665 14.78489
57.670 14.996075
57.675 14.336163
57.680 13.852625
57.685 14.344689
57.690 14.876804
57.695 15.179042
57.700 15.133312
57.705 14.749719
57.710 15.370252
57.715 16.129738
57.720 15.854676
57.725 15.638463
57.730 15.271573
57.735 15.516582
57.740 16.229166
57.745 15.911415
57.750 15.914333
57.755 15.994079
57.760 15.843822
57.765 15.842527
57.770 15.838407
57.775 15.825873
57.780 16.238651
57.785 15.75002
57.790 15.568141
57.795 15.564886
57.800 15.483087
57.805 15.242687
57.810 15.474513
57.815 15.697524
57.820 15.860611
57.825 16.243801
57.830 16.923325
57.835 17.104143
57.840 17.331619
57.845 16.83427
57.850 16.945236
57.855 17.075981
57.860 16.864466
57.865 16.217808
57.870 16.120558
57.875 16.057791
57.880 15.441452
57.885 15.014953
57.890 15.176648
57.895 15.304123
57.900 15.286442
57.905 15.376006
57.910 15.531581
57.915 16.517729
57.920 16.772715
57.925 16.429962
57.930 16.292543
57.935 16.299408
57.940 16.16424
57.945 15.869883
57.950 15.017003
57.955 14.495989
57.960 14.373935
57.965 14.088355
57.970 14.502079
57.975 14.568666
57.980 15.095055
57.985 15.551911
57.990 15.435155
57.995 15.389006
58.000 15.522393
58.005 15.196779
58.010 15.539134
58.015 15.622149
58.020 15.637452
58.025 16.516199
58.030 16.888233
58.035 16.820459
58.040 16.500849
58.045 15.833028
58.050 15.244281
58.055 14.878436
58.060 14.433808
58.065 14.261616
58.070 14.029867
58.075 13.669494
58.080 14.263126
58.085 14.323507
58.090 14.029493
58.095 14.323619
58.100 14.476234
58.105 14.274866
58.110 14.85112
58.115 14.390924
58.120 15.316477
58.125 15.950144
58.130 15.467267
58.135 15.577879
58.140 15.984983
58.145 16.002502
58.150 15.713621
58.155 14.902833
58.160 14.383651
58.165 14.335779
58.170 14.533834
58.175 14.935354
58.180 14.33544
58.185 14.165033
58.190 14.361036
58.195 14.984804
58.200 15.297326
58.205 15.158167
58.210 14.764771
58.215 15.200151
58.220 15.510564
58.225 15.160246
58.230 14.632753
58.235 14.867141
58.240 15.128846
58.245 15.171505
58.250 15.61718
58.255 15.992348
58.260 16.435795
58.265 16.644741
58.270 16.633121
58.275 16.935986
58.280 16.760309
58.285 16.327423
58.290 16.334402
58.295 16.414972
58.300 16.341614
58.305 16.30448
58.310 16.684118
58.315 17.141199
58.320 17.428926
58.325 17.095762
58.330 16.845762
58.335 16.521183
58.340 15.733393
58.345 15.402046
58.350 15.050843
58.355 15.169191
58.360 15.407619
58.365 16.027666
58.370 16.417524
58.375 16.66337
58.380 16.815266
58.385 16.975691
58.390 16.675571
58.395 16.635136
58.400 16.206556
58.405 16.392059
58.410 16.654457
58.415 16.50251
58.420 16.316059
58.425 16.364323
58.430 16.416531
58.435 16.069876
58.440 16.283144
58.445 16.168343
58.450 15.974165
58.455 15.7957
