!@!!GADDS PLOTSO FILE: Chi integration type
!@!!Title/SampleName: map-3b
!@!!Comment: ?
!@!!User: Bruker Instrument Administrator
!@!!Site: University of Illinois Chicago
!@!!Frame: map-3b_01_000.gfrm
!@!!Wavelengths    1.54184   1.54056   1.54439
!@!!Frame angles: 2Theta: 63.000 Omega: 50.000 Phi: 0.000 Chi: 90.000
!@!!Integration range: 2Theta: 53.000 to 73.000  Gamma: -105.000 to -75.000
!@!!Integration method: bin normalized
!@!N
!@!SS
!@!M
!@!L 0.0 0.0 0.0 0.0
!@!XDegrees
!@!YCounts
53.000 7.371917
53.005 6.909347
53.010 7.031443
53.015 7.294258
53.020 7.414808
53.025 7.088909
53.030 6.454696
53.035 6.59465
53.040 6.49062
53.045 6.27928
53.050 6.484321
53.055 6.657406
53.060 7.178641
53.065 7.608016
53.070 7.655576
53.075 7.733572
53.080 7.887239
53.085 7.857214
53.090 7.939703
53.095 7.969012
53.100 7.840656
53.105 7.778679
53.110 7.648798
53.115 7.166584
53.120 7.071007
53.125 6.96636
53.130 6.733675
53.135 6.480523
53.140 6.384343
53.145 6.811537
53.150 7.503039
53.155 7.684856
53.160 7.63012
53.165 8.171656
53.170 8.37703
53.175 8.429406
53.180 8.416349
53.185 8.288116
53.190 8.124115
53.195 7.997674
53.200 7.768629
53.205 7.663074
53.210 7.703152
53.215 7.427401
53.220 7.522141
53.225 7.988167
53.230 8.198284
53.235 8.285996
53.240 8.653634
53.245 8.594296
53.250 8.187029
53.255 7.733149
53.260 7.529073
53.265 7.10687
53.270 6.915458
53.275 6.401236
53.280 6.690021
53.285 7.243032
53.290 7.322248
53.295 7.500901
53.300 7.988873
53.305 8.488414
53.310 8.712793
53.315 8.583375
53.320 8.652429
53.325 9.001676
53.330 8.940828
53.335 8.669603
53.340 8.535846
53.345 8.659757
53.350 8.345939
53.355 8.22727
53.360 8.242596
53.365 7.944417
53.370 7.881589
53.375 7.888398
53.380 8.380496
53.385 8.471286
53.390 8.333364
53.395 8.133451
53.400 8.451477
53.405 8.042778
53.410 7.543196
53.415 6.648139
53.420 5.967044
53.425 5.564551
53.430 5.480781
53.435 5.657081
53.440 5.812829
53.445 5.90877
53.450 6.260468
53.455 7.049695
53.460 7.219884
53.465 7.299664
53.470 7.535613
53.475 7.65049
53.480 7.99012
53.485 8.232632
53.490 8.086713
53.495 8.135159
53.500 7.802845
53.505 7.966858
53.510 8.152349
53.515 8.392888
53.520 8.712388
53.525 8.950291
53.530 9.037437
53.535 9.172443
53.540 8.877067
53.545 9.15288
53.550 8.526236
53.555 8.212172
53.560 8.333816
53.565 8.290794
53.570 8.556284
53.575 9.167858
53.580 9.104788
53.585 9.386583
53.590 9.550328
53.595 10.013974
53.600 10.563031
53.605 10.331498
53.610 9.917663
53.615 10.229323
53.620 10.551379
53.625 10.665435
53.630 10.273598
53.635 10.102136
53.640 10.259911
53.645 10.052726
53.650 9.770788
53.655 9.263056
53.660 8.929321
53.665 9.038337
53.670 8.359738
53.675 8.223465
53.680 8.265208
53.685 8.335233
53.690 8.33093
53.695 8.123981
53.700 8.04575
53.705 8.173326
53.710 8.1108
53.715 8.258467
53.720 8.123599
53.725 8.317816
53.730 8.749302
53.735 9.293455
53.740 9.365427
53.745 9.553221
53.750 9.436222
53.755 9.336619
53.760 9.351786
53.765 8.864143
53.770 8.382651
53.775 8.076074
53.780 7.94344
53.785 8.444097
53.790 8.845539
53.795 8.593261
53.800 8.971766
53.805 9.010123
53.810 9.345575
53.815 9.276109
53.820 8.795904
53.825 8.581375
53.830 8.731236
53.835 8.604437
53.840 8.691047
53.845 8.212753
53.850 8.09796
53.855 7.985072
53.860 7.802728
53.865 7.831171
53.870 7.507233
53.875 7.764436
53.880 8.087334
53.885 8.552564
53.890 8.482584
53.895 8.324829
53.900 8.178492
53.905 8.284935
53.910 8.094163
53.915 8.400121
53.920 8.668791
53.925 8.961534
53.930 9.329615
53.935 9.427394
53.940 9.389865
53.945 9.388226
53.950 9.097585
53.955 8.848556
53.960 9.016984
53.965 9.431304
53.970 9.472521
53.975 9.556818
53.980 9.70731
53.985 9.350988
53.990 9.265494
53.995 8.856873
54.000 8.524773
54.005 9.005389
54.010 8.881145
54.015 8.924601
54.020 9.501462
54.025 9.705727
54.030 10.003095
54.035 9.714662
54.040 9.776418
54.045 9.755301
54.050 9.630392
54.055 9.100087
54.060 8.740808
54.065 8.623644
54.070 8.401832
54.075 8.15283
54.080 8.272515
54.085 8.443137
54.090 8.408711
54.095 8.644952
54.100 8.821676
54.105 8.99556
54.110 9.144109
54.115 9.019888
54.120 8.724898
54.125 9.057309
54.130 8.905993
54.135 8.773572
54.140 8.839932
54.145 8.625701
54.150 8.96142
54.155 8.938271
54.160 8.838592
54.165 9.177164
54.170 9.162563
54.175 9.245538
54.180 9.611859
54.185 9.558375
54.190 9.691467
54.195 9.790118
54.200 9.98497
54.205 9.797578
54.210 9.431216
54.215 9.067059
54.220 8.725325
54.225 8.480276
54.230 8.005622
54.235 8.148417
54.240 8.351429
54.245 8.356518
54.250 8.348379
54.255 9.054502
54.260 9.067533
54.265 8.85436
54.270 8.962864
54.275 9.042237
54.280 8.941236
54.285 8.805355
54.290 8.401807
54.295 8.530005
54.300 8.795962
54.305 8.893641
54.310 9.083049
54.315 9.05842
54.320 9.093342
54.325 9.372807
54.330 9.331448
54.335 8.999608
54.340 9.076029
54.345 9.415196
54.350 9.656651
54.355 9.612385
54.360 9.67979
54.365 9.698244
54.370 10.080403
54.375 9.68574
54.380 9.194739
54.385 9.214619
54.390 9.313509
54.395 9.323931
54.400 9.272834
54.405 8.77359
54.410 8.990859
54.415 8.863413
54.420 8.347116
54.425 8.215273
54.430 8.075221
54.435 8.278506
54.440 8.683928
54.445 9.105372
54.450 9.167191
54.455 9.646999
54.460 9.742576
54.465 9.718108
54.470 9.598577
54.475 9.859068
54.480 10.091235
54.485 9.69461
54.490 9.328225
54.495 9.284618
54.500 9.243386
54.505 9.114065
54.510 8.891129
54.515 8.760494
54.520 9.242435
54.525 9.419814
54.530 9.789082
54.535 10.217289
54.540 10.245097
54.545 10.059649
54.550 9.960172
54.555 9.80457
54.560 9.84806
54.565 8.948554
54.570 8.995566
54.575 9.14396
54.580 8.83636
54.585 9.011623
54.590 9.151566
54.595 9.236729
54.600 9.257347
54.605 8.980127
54.610 8.589507
54.615 9.134504
54.620 9.721515
54.625 9.796053
54.630 9.834782
54.635 10.013848
54.640 9.930224
54.645 10.421743
54.650 9.827003
54.655 9.329195
54.660 9.026625
54.665 9.131936
54.670 9.108384
54.675 8.780731
54.680 8.818998
54.685 9.047711
54.690 9.281522
54.695 9.566903
54.700 9.886353
54.705 10.140322
54.710 10.083821
54.715 9.980306
54.720 9.802331
54.725 9.792281
54.730 9.71877
54.735 9.478472
54.740 9.594358
54.745 9.764344
54.750 9.546994
54.755 9.463848
54.760 9.662894
54.765 9.778446
54.770 10.215002
54.775 10.288578
54.780 10.310934
54.785 10.596045
54.790 11.019779
54.795 10.682022
54.800 10.130112
54.805 10.117817
54.810 10.547009
54.815 10.450691
54.820 10.222013
54.825 9.81107
54.830 9.984157
54.835 10.089459
54.840 9.228732
54.845 9.120172
54.850 9.244412
54.855 9.587417
54.860 9.783842
54.865 10.008159
54.870 10.119864
54.875 10.415898
54.880 10.119925
54.885 10.351399
54.890 10.089499
54.895 10.278929
54.900 10.21654
54.905 10.324768
54.910 10.775036
54.915 11.660191
54.920 11.641455
54.925 11.420127
54.930 11.098656
54.935 11.300955
54.940 11.409749
54.945 10.784173
54.950 10.146651
54.955 10.223733
54.960 10.705338
54.965 10.810697
54.970 10.812348
54.975 10.828421
54.980 11.142508
54.985 11.068052
54.990 11.156728
54.995 11.119145
55.000 10.925515
55.005 10.777064
55.010 11.139967
55.015 10.874866
55.020 10.81005
55.025 10.815384
55.030 10.659981
55.035 11.02201
55.040 10.491211
55.045 9.698348
55.050 9.997817
55.055 9.477977
55.060 9.613075
55.065 9.657245
55.070 9.663991
55.075 10.103971
55.080 10.248292
55.085 9.838995
55.090 9.821986
55.095 9.688159
55.100 10.125899
55.105 10.214515
55.110 10.449723
55.115 10.773557
55.120 11.509502
55.125 11.870673
55.130 11.823663
55.135 11.796581
55.140 11.515782
55.145 11.408459
55.150 11.0423
55.155 10.335974
55.160 9.990382
55.165 9.898268
55.170 9.826003
55.175 10.031024
55.180 10.180148
55.185 10.60092
55.190 10.655501
55.195 10.07021
55.200 9.622704
55.205 9.376563
55.210 9.110326
55.215 8.839114
55.220 8.667883
55.225 9.163645
55.230 9.773066
55.235 10.240664
55.240 10.439936
55.245 10.959377
55.250 11.089869
55.255 11.037371
55.260 10.76838
55.265 11.062214
55.270 10.952332
55.275 10.867182
55.280 10.800076
55.285 10.787108
55.290 11.575313
55.295 11.405518
55.300 10.760659
55.305 10.494438
55.310 10.637956
55.315 10.539275
55.320 10.48598
55.325 10.604589
55.330 10.894455
55.335 11.079888
55.340 11.428514
55.345 11.279337
55.350 10.953959
55.355 10.978415
55.360 11.451159
55.365 11.768081
55.370 11.851791
55.375 11.724566
55.380 11.32412
55.385 11.319264
55.390 11.372783
55.395 10.431026
55.400 10.185218
55.405 10.332789
55.410 10.509756
55.415 11.263423
55.420 11.234504
55.425 11.2574
55.430 11.971919
55.435 12.353752
55.440 12.52486
55.445 12.130283
55.450 11.833438
55.455 11.978263
55.460 11.530442
55.465 11.257583
55.470 11.174072
55.475 10.756401
55.480 10.658435
55.485 10.412018
55.490 10.468608
55.495 11.267491
55.500 10.995511
55.505 10.882832
55.510 11.011183
55.515 11.309509
55.520 12.030963
55.525 11.923265
55.530 11.479283
55.535 11.798167
55.540 12.559198
55.545 12.557304
55.550 12.438781
55.555 12.122881
55.560 11.553895
55.565 11.415488
55.570 10.75001
55.575 10.055106
55.580 10.318144
55.585 10.469993
55.590 10.886923
55.595 11.153251
55.600 11.129384
55.605 11.613662
55.610 11.808184
55.615 11.429539
55.620 11.280419
55.625 10.860588
55.630 11.067924
55.635 11.398142
55.640 11.135044
55.645 10.86999
55.650 10.966052
55.655 11.092378
55.660 10.913068
55.665 10.576354
55.670 10.553739
55.675 10.342933
55.680 10.07651
55.685 10.255505
55.690 10.675867
55.695 11.145366
55.700 11.201303
55.705 11.194887
55.710 11.741936
55.715 12.098701
55.720 11.712046
55.725 11.354399
55.730 11.165024
55.735 11.0158
55.740 10.883166
55.745 10.301129
55.750 10.372766
55.755 10.418399
55.760 10.436502
55.765 10.787638
55.770 11.01263
55.775 11.297647
55.780 11.622918
55.785 11.627848
55.790 11.532967
55.795 11.326612
55.800 10.874434
55.805 10.567472
55.810 10.445025
55.815 10.758169
55.820 10.836069
55.825 10.780267
55.830 10.902762
55.835 11.185705
55.840 11.650197
55.845 11.347898
55.850 11.467914
55.855 11.618607
55.860 11.985511
55.865 11.785748
55.870 11.590454
55.875 11.63745
55.880 11.550366
55.885 11.452308
55.890 11.459079
55.895 11.372334
55.900 11.392611
55.905 11.358292
55.910 11.492966
55.915 11.867581
55.920 12.227064
55.925 12.379444
55.930 12.583273
55.935 12.683379
55.940 12.50149
55.945 12.694913
55.950 12.563465
55.955 12.25799
55.960 12.360804
55.965 12.601315
55.970 12.818684
55.975 12.204494
55.980 12.02757
55.985 12.113801
55.990 11.275859
55.995 10.743673
56.000 10.494797
56.005 10.463871
56.010 10.527141
56.015 10.283258
56.020 10.30559
56.025 10.579386
56.030 11.050393
56.035 11.171208
56.040 10.99868
56.045 11.065197
56.050 11.333881
56.055 11.553301
56.060 11.488378
56.065 11.02668
56.070 10.771117
56.075 11.166323
56.080 11.158358
56.085 10.809371
56.090 10.475174
56.095 10.725668
56.100 11.243214
56.105 11.398665
56.110 11.503855
56.115 12.149504
56.120 12.067895
56.125 11.974044
56.130 11.934142
56.135 11.691197
56.140 11.99276
56.145 11.881567
56.150 11.464857
56.155 11.796422
56.160 11.853542
56.165 11.480193
56.170 11.637553
56.175 11.398744
56.180 10.918376
56.185 10.737135
56.190 10.489288
56.195 10.680566
56.200 10.6456
56.205 10.294218
56.210 9.964442
56.215 10.42653
56.220 10.242599
56.225 10.132495
56.230 10.040315
56.235 10.378859
56.240 10.961847
56.245 11.628278
56.250 11.232756
56.255 11.939371
56.260 12.152086
56.265 12.25118
56.270 12.184207
56.275 12.344376
56.280 12.018104
56.285 12.327237
56.290 12.278543
56.295 11.924224
56.300 11.999566
56.305 11.817227
56.310 11.295579
56.315 11.712648
56.320 11.666552
56.325 11.798992
56.330 12.086461
56.335 11.612701
56.340 11.209881
56.345 10.969101
56.350 10.937961
56.355 10.502275
56.360 10.621856
56.365 10.577266
56.370 10.888914
56.375 10.949466
56.380 11.082335
56.385 10.654712
56.390 10.653301
56.395 10.135289
56.400 10.020661
56.405 9.98713
56.410 10.244788
56.415 10.165878
56.420 10.656779
56.425 11.132019
56.430 11.326236
56.435 11.682717
56.440 12.299186
56.445 12.161571
56.450 12.357505
56.455 12.427061
56.460 12.88748
56.465 13.004119
56.470 12.493945
56.475 12.106493
56.480 11.960201
56.485 11.881759
56.490 12.115679
56.495 12.182911
56.500 12.072193
56.505 12.190022
56.510 12.22096
56.515 12.699672
56.520 12.504622
56.525 12.177381
56.530 12.071884
56.535 12.248818
56.540 12.252149
56.545 12.375384
56.550 12.115753
56.555 12.203613
56.560 12.360003
56.565 12.026641
56.570 12.184319
56.575 11.975367
56.580 12.19681
56.585 12.454242
56.590 12.251604
56.595 12.179431
56.600 12.881824
56.605 12.926929
56.610 13.04459
56.615 12.759035
56.620 12.039496
56.625 12.318697
56.630 11.586556
56.635 11.295117
56.640 11.135735
56.645 11.070594
56.650 11.071679
56.655 11.237516
56.660 11.44519
56.665 11.572835
56.670 11.309307
56.675 11.247271
56.680 11.140673
56.685 11.123722
56.690 10.87256
56.695 10.6506
56.700 10.547562
56.705 10.73141
56.710 10.801131
56.715 11.097816
56.720 11.472672
56.725 12.209962
56.730 12.748236
56.735 12.964156
56.740 12.762784
56.745 12.82922
56.750 12.411868
56.755 12.538907
56.760 12.528363
56.765 12.9555
56.770 13.387797
56.775 13.610492
56.780 13.713675
56.785 13.942574
56.790 13.891308
56.795 13.625772
56.800 12.96579
56.805 13.269592
56.810 13.574775
56.815 13.526403
56.820 13.362335
56.825 12.822231
56.830 12.514051
56.835 12.034078
56.840 11.17894
56.845 11.142536
56.850 11.499732
56.855 11.850044
56.860 11.909739
56.865 12.251101
56.870 12.681631
56.875 12.608891
56.880 11.889508
56.885 11.494404
56.890 11.339522
56.895 11.617792
56.900 11.256085
56.905 11.175517
56.910 11.618836
56.915 12.003542
56.920 12.266535
56.925 12.637971
56.930 12.716149
56.935 12.9182
56.940 12.791215
56.945 12.532331
56.950 12.505564
56.955 12.175626
56.960 11.850183
56.965 11.450129
56.970 11.530167
56.975 11.498525
56.980 11.715086
56.985 11.618373
56.990 11.525891
56.995 11.507852
57.000 11.260696
57.005 11.324824
57.010 11.830935
57.015 12.679058
57.020 13.508473
57.025 13.57268
57.030 13.581565
57.035 13.736614
57.040 13.279751
57.045 12.221457
57.050 11.577511
57.055 11.150447
57.060 10.985171
57.065 11.232755
57.070 11.66043
57.075 12.124614
57.080 12.054121
57.085 11.90619
57.090 11.818139
57.095 12.063407
57.100 11.951146
57.105 12.020292
57.110 12.282497
57.115 12.850067
57.120 12.82917
57.125 12.897807
57.130 12.643731
57.135 12.585646
57.140 12.293418
57.145 12.101687
57.150 12.314469
57.155 12.679129
57.160 12.675341
57.165 12.938089
57.170 13.15013
57.175 13.093288
57.180 12.89568
57.185 12.202572
57.190 12.202942
57.195 12.169178
57.200 11.859316
57.205 11.749178
57.210 11.414112
57.215 11.338441
57.220 11.199148
57.225 10.860841
57.230 10.760094
57.235 10.797073
57.240 10.571738
57.245 10.769497
57.250 11.115956
57.255 11.318534
57.260 11.536509
57.265 11.663108
57.270 11.86242
57.275 12.163456
57.280 12.75754
57.285 13.198212
57.290 13.499539
57.295 13.662575
57.300 14.058216
57.305 14.44424
57.310 14.533393
57.315 14.75237
57.320 14.589108
57.325 14.345794
57.330 14.042184
57.335 13.612517
57.340 13.627834
57.345 13.459225
57.350 12.60267
57.355 12.520204
57.360 12.70896
57.365 13.302119
57.370 13.168577
57.375 12.890657
57.380 13.109928
57.385 13.210666
57.390 13.550283
57.395 13.776914
57.400 13.496058
57.405 13.962258
57.410 13.853696
57.415 14.025373
57.420 13.794879
57.425 13.636484
57.430 13.68596
57.435 13.560725
57.440 13.411839
57.445 13.526031
57.450 13.378207
57.455 13.797389
57.460 14.134971
57.465 14.094542
57.470 14.076545
57.475 13.967855
57.480 13.742198
57.485 13.629337
57.490 13.183041
57.495 12.792107
57.500 12.958491
57.505 13.327508
57.510 12.898731
57.515 13.277823
57.520 13.057113
57.525 13.059991
57.530 12.412233
57.535 12.18379
57.540 12.046765
57.545 12.23385
57.550 12.067811
57.555 12.915615
57.560 12.945965
57.565 13.264174
57.570 13.237098
57.575 13.166856
57.580 12.87714
57.585 12.910144
57.590 12.866369
57.595 12.970549
57.600 13.4967
57.605 13.551985
57.610 13.608308
57.615 13.510845
57.620 13.641073
57.625 13.205601
57.630 13.355667
57.635 13.148158
57.640 12.832302
57.645 12.919846
57.650 13.120152
57.655 13.230254
57.660 14.151393
57.665 14.124171
57.670 14.518064
57.675 14.500894
57.680 14.528252
57.685 14.47537
57.690 14.529064
57.695 13.991789
57.700 13.743541
57.705 14.043579
57.710 14.138809
57.715 14.096122
57.720 14.10465
57.725 13.977403
57.730 14.072436
57.735 13.579103
57.740 13.087356
57.745 13.475745
57.750 14.079746
57.755 13.821839
57.760 14.101749
57.765 14.101221
57.770 13.734212
57.775 13.31186
57.780 13.135738
57.785 12.791018
57.790 12.655534
57.795 12.31405
57.800 12.304988
57.805 12.694442
57.810 13.413405
57.815 13.080959
57.820 13.265413
57.825 13.831572
57.830 13.396763
57.835 13.419583
57.840 13.665447
57.845 13.207145
57.850 13.060085
57.855 12.665396
57.860 12.182592
57.865 12.797952
57.870 13.151829
57.875 13.394388
57.880 14.018513
57.885 14.289167
57.890 14.535361
57.895 14.88168
57.900 15.061138
57.905 14.922686
57.910 14.5762
57.915 14.591466
57.920 14.670137
57.925 14.856161
57.930 14.541022
57.935 14.093399
57.940 13.965413
57.945 13.417224
57.950 13.209126
57.955 12.716036
57.960 12.037655
57.965 12.132454
57.970 12.082689
57.975 12.019497
57.980 12.236425
57.985 12.538006
57.990 12.951582
57.995 13.343665
58.000 13.139563
58.005 13.281985
58.010 13.285987
58.015 12.964505
58.020 12.910936
58.025 12.629756
58.030 12.418139
58.035 12.803189
58.040 13.600582
58.045 14.431926
58.050 14.935338
58.055 14.778922
58.060 14.986436
58.065 15.130283
58.070 14.768519
58.075 14.557301
58.080 14.380708
58.085 14.196428
58.090 14.5807
58.095 14.732139
58.100 14.886585
58.105 14.975675
58.110 14.181846
58.115 14.190006
58.120 14.255708
58.125 13.902274
58.130 14.114777
58.135 14.11554
58.140 14.189633
58.145 14.239406
58.150 13.946855
58.155 14.368906
58.160 14.240248
58.165 13.710719
58.170 13.776378
58.175 13.649542
58.180 13.667866
58.185 13.331481
58.190 13.023044
58.195 13.545912
58.200 14.320455
58.205 14.670011
58.210 14.888516
58.215 15.004951
58.220 16.016441
58.225 16.221117
58.230 16.271885
58.235 15.789346
58.240 15.459443
58.245 15.368162
58.250 15.152575
58.255 14.454611
58.260 14.53368
58.265 14.260571
58.270 14.351336
58.275 14.595108
58.280 14.227895
58.285 14.204448
58.290 14.107188
58.295 13.699014
58.300 13.347375
58.305 13.085478
58.310 13.053387
58.315 14.007001
58.320 14.521941
58.325 15.026814
58.330 15.167005
58.335 15.452416
58.340 15.660397
58.345 16.182665
58.350 15.67006
58.355 15.826484
58.360 15.503851
58.365 15.40809
58.370 15.368789
58.375 15.65064
58.380 14.981713
58.385 14.370505
58.390 14.317761
58.395 14.251025
58.400 14.910638
58.405 14.916573
58.410 14.365048
58.415 14.582232
58.420 14.600161
58.425 14.775952
58.430 14.948172
58.435 14.814313
58.440 14.495852
58.445 14.500422
58.450 14.579635
58.455 14.336047
58.460 14.404442
58.465 14.326449
58.470 14.681801
58.475 15.517184
58.480 15.677814
58.485 16.041464
58.490 16.495886
58.495 16.509026
58.500 16.511852
58.505 16.221128
58.510 15.699821
58.515 15.446666
58.520 15.219092
58.525 15.556974
58.530 15.500196
58.535 15.806766
58.540 15.360774
