!@!!GADDS PLOTSO FILE: Chi integration type
!@!!Title/SampleName: map-88
!@!!Comment: ?
!@!!User: Bruker Instrument Administrator
!@!!Site: University of Illinois Chicago
!@!!Frame: map-88_01_000.gfrm
!@!!Wavelengths    1.54184   1.54056   1.54439
!@!!Frame angles: 2Theta: 63.000 Omega: 50.000 Phi: 0.000 Chi: 90.000
!@!!Integration range: 2Theta: 53.000 to 73.000  Gamma: -105.000 to -75.000
!@!!Integration method: bin normalized
!@!N
!@!SS
!@!M
!@!L 0.0 0.0 0.0 0.0
!@!XDegrees
!@!YCounts
53.000 8.773577
53.005 8.763741
53.010 8.365138
53.015 8.172864
53.020 8.175009
53.025 8.070024
53.030 8.328034
53.035 8.216198
53.040 7.977698
53.045 7.966794
53.050 8.011006
53.055 8.56777
53.060 8.99788
53.065 8.621129
53.070 8.33706
53.075 8.607841
53.080 9.16818
53.085 9.580229
53.090 9.225667
53.095 9.205641
53.100 9.363289
53.105 10.08364
53.110 9.70588
53.115 9.147149
53.120 8.707374
53.125 8.607094
53.130 8.53405
53.135 8.271386
53.140 8.075711
53.145 8.388381
53.150 8.351269
53.155 9.16367
53.160 9.29496
53.165 9.514214
53.170 9.746342
53.175 9.591798
53.180 9.298123
53.185 8.92885
53.190 7.911708
53.195 7.739841
53.200 7.813778
53.205 7.851843
53.210 8.179838
53.215 8.565199
53.220 8.914773
53.225 9.123728
53.230 8.915874
53.235 8.570431
53.240 8.490451
53.245 8.459945
53.250 8.625618
53.255 8.728189
53.260 8.910344
53.265 8.978827
53.270 8.673246
53.275 8.324464
53.280 8.503719
53.285 8.638923
53.290 8.826018
53.295 8.810869
53.300 9.315265
53.305 9.968801
53.310 9.929987
53.315 9.451838
53.320 9.095746
53.325 8.890817
53.330 8.594083
53.335 8.03797
53.340 8.366088
53.345 8.603098
53.350 8.616249
53.355 8.874213
53.360 8.911346
53.365 8.799799
53.370 8.479046
53.375 7.957176
53.380 7.838599
53.385 7.665287
53.390 7.571382
53.395 7.696303
53.400 8.281646
53.405 8.289624
53.410 8.466022
53.415 8.618365
53.420 9.136569
53.425 9.416183
53.430 8.964955
53.435 8.925817
53.440 9.135418
53.445 8.909538
53.450 8.906221
53.455 8.361364
53.460 8.62245
53.465 8.78883
53.470 8.528602
53.475 8.393195
53.480 8.900137
53.485 8.765932
53.490 8.428808
53.495 8.536606
53.500 8.620172
53.505 8.682526
53.510 8.304004
53.515 7.592722
53.520 7.401436
53.525 7.570288
53.530 6.953091
53.535 6.657217
53.540 6.875161
53.545 7.213795
53.550 7.755537
53.555 7.349002
53.560 7.080867
53.565 7.277948
53.570 7.45964
53.575 7.550116
53.580 7.790889
53.585 8.065508
53.590 8.520951
53.595 8.933239
53.600 9.287632
53.605 9.394214
53.610 9.339441
53.615 9.270368
53.620 9.238084
53.625 9.364194
53.630 9.126721
53.635 8.704796
53.640 8.128126
53.645 8.336396
53.650 8.272091
53.655 8.465297
53.660 8.7548
53.665 8.735276
53.670 9.160788
53.675 9.248486
53.680 9.151639
53.685 9.482607
53.690 9.637021
53.695 9.748751
53.700 9.490643
53.705 9.412354
53.710 9.272322
53.715 8.77206
53.720 8.593613
53.725 8.188691
53.730 7.998342
53.735 8.142155
53.740 7.910579
53.745 8.375349
53.750 8.560764
53.755 8.595343
53.760 8.591365
53.765 8.972799
53.770 9.261087
53.775 9.317698
53.780 9.522531
53.785 9.901648
53.790 9.524162
53.795 9.375566
53.800 9.049137
53.805 9.016291
53.810 8.836147
53.815 8.743353
53.820 8.614457
53.825 8.516984
53.830 8.512793
53.835 8.7962
53.840 8.967822
53.845 9.124779
53.850 8.690513
53.855 8.429588
53.860 9.102934
53.865 9.145529
53.870 8.742223
53.875 8.504395
53.880 8.267456
53.885 8.611551
53.890 8.838046
53.895 8.987524
53.900 8.648566
53.905 8.589709
53.910 8.58674
53.915 8.337938
53.920 8.020818
53.925 7.950205
53.930 8.373189
53.935 9.119074
53.940 9.448736
53.945 9.411133
53.950 9.833609
53.955 10.057993
53.960 9.5343
53.965 8.959446
53.970 8.924493
53.975 8.652706
53.980 8.880002
53.985 8.7675
53.990 8.897306
53.995 9.477292
54.000 9.296782
54.005 9.131915
54.010 9.453032
54.015 9.567535
54.020 9.317926
54.025 9.147592
54.030 9.174309
54.035 9.286882
54.040 9.212866
54.045 9.250959
54.050 9.52624
54.055 9.545943
54.060 9.48229
54.065 9.516882
54.070 9.476714
54.075 9.659681
54.080 9.434661
54.085 9.414877
54.090 9.463541
54.095 9.476748
54.100 9.314665
54.105 9.409649
54.110 9.478848
54.115 9.529955
54.120 9.408169
54.125 9.120142
54.130 8.777602
54.135 8.829194
54.140 9.098237
54.145 9.321989
54.150 9.367677
54.155 9.680971
54.160 9.713585
54.165 9.92695
54.170 9.891735
54.175 9.709617
54.180 9.495277
54.185 9.164666
54.190 9.397144
54.195 9.896136
54.200 10.035277
54.205 9.705038
54.210 9.623225
54.215 9.630422
54.220 9.69708
54.225 9.812513
54.230 9.571761
54.235 9.676702
54.240 9.847082
54.245 10.190682
54.250 10.495945
54.255 10.7166
54.260 10.82286
54.265 10.807909
54.270 10.499501
54.275 10.367014
54.280 10.444144
54.285 10.560349
54.290 10.478312
54.295 10.111383
54.300 10.276502
54.305 10.461052
54.310 10.42937
54.315 9.53795
54.320 9.284534
54.325 9.2207
54.330 9.518264
54.335 9.65657
54.340 9.628143
54.345 10.171404
54.350 10.675117
54.355 10.648292
54.360 10.174365
54.365 9.818995
54.370 10.09157
54.375 9.79326
54.380 9.270736
54.385 9.505723
54.390 9.574794
54.395 9.680643
54.400 9.803619
54.405 9.749413
54.410 10.257271
54.415 10.494866
54.420 10.589211
54.425 10.72217
54.430 11.020552
54.435 11.211898
54.440 11.090284
54.445 10.834805
54.450 10.366967
54.455 9.975272
54.460 10.010495
54.465 10.335521
54.470 10.325053
54.475 11.137293
54.480 11.327806
54.485 11.619716
54.490 11.787117
54.495 11.588584
54.500 11.325706
54.505 11.073276
54.510 10.697055
54.515 10.297282
54.520 10.240465
54.525 10.120938
54.530 10.274458
54.535 9.910568
54.540 9.563762
54.545 9.610005
54.550 10.415951
54.555 10.509085
54.560 10.348699
54.565 10.055691
54.570 10.093422
54.575 10.231907
54.580 10.337343
54.585 10.365232
54.590 10.088861
54.595 10.114391
54.600 10.282017
54.605 10.652412
54.610 10.594429
54.615 9.881576
54.620 9.925624
54.625 10.151942
54.630 10.332993
54.635 10.275096
54.640 10.072158
54.645 10.035501
54.650 9.936649
54.655 10.032115
54.660 10.200066
54.665 9.79452
54.670 9.709851
54.675 9.730625
54.680 10.314055
54.685 10.839033
54.690 10.522669
54.695 10.656854
54.700 11.136518
54.705 11.02879
54.710 10.427887
54.715 9.960283
54.720 9.788753
54.725 9.388447
54.730 9.108766
54.735 8.804461
54.740 8.974248
54.745 9.363821
54.750 9.517519
54.755 9.447307
54.760 9.661309
54.765 9.710299
54.770 9.69715
54.775 9.428204
54.780 9.339435
54.785 9.153193
54.790 9.167963
54.795 9.244723
54.800 9.191034
54.805 9.553446
54.810 9.381789
54.815 9.034738
54.820 9.421108
54.825 9.487256
54.830 9.393613
54.835 9.568578
54.840 9.638377
54.845 9.832146
54.850 10.029745
54.855 9.983024
54.860 10.001346
54.865 9.93325
54.870 9.567976
54.875 9.549257
54.880 9.928049
54.885 10.09072
54.890 10.083308
54.895 10.730556
54.900 11.359924
54.905 11.520178
54.910 11.642822
54.915 11.115644
54.920 10.767554
54.925 10.859627
54.930 10.333824
54.935 9.957838
54.940 9.69695
54.945 9.967567
54.950 10.854216
54.955 10.678222
54.960 10.711641
54.965 10.793773
54.970 10.653958
54.975 11.087619
54.980 10.63893
54.985 10.297606
54.990 10.225177
54.995 9.970798
55.000 9.973932
55.005 10.113499
55.010 9.986312
55.015 10.068763
55.020 10.320382
55.025 10.239455
55.030 10.336764
55.035 10.479319
55.040 10.41919
55.045 10.329752
55.050 9.818682
55.055 9.678932
55.060 9.947809
55.065 10.15681
55.070 10.010384
55.075 10.017686
55.080 10.420869
55.085 11.193198
55.090 10.976485
55.095 10.98895
55.100 10.598724
55.105 10.505298
55.110 10.381025
55.115 10.300716
55.120 9.884562
55.125 10.066549
55.130 9.85354
55.135 10.130943
55.140 10.021036
55.145 9.647776
55.150 9.619144
55.155 9.702049
55.160 9.799421
55.165 9.730225
55.170 9.802877
55.175 10.19613
55.180 10.328431
55.185 9.954751
55.190 10.104387
55.195 10.249717
55.200 10.209352
55.205 9.912894
55.210 9.782213
55.215 9.934692
55.220 10.353775
55.225 9.808129
55.230 9.577324
55.235 9.579619
55.240 9.722794
55.245 9.451228
55.250 9.191868
55.255 8.940475
55.260 9.168386
55.265 9.309186
55.270 9.368354
55.275 9.295832
55.280 9.445231
55.285 9.685678
55.290 9.870896
55.295 10.224004
55.300 10.244194
55.305 10.771523
55.310 10.864995
55.315 11.051593
55.320 11.199542
55.325 11.098189
55.330 10.923014
55.335 10.730788
55.340 10.317662
55.345 10.457028
55.350 10.316373
55.355 9.748712
55.360 9.604875
55.365 9.395505
55.370 9.31525
55.375 9.181056
55.380 9.057675
55.385 9.263668
55.390 9.565475
55.395 9.746275
55.400 9.599244
55.405 9.836075
55.410 10.249478
55.415 10.679016
55.420 10.666311
55.425 10.764287
55.430 11.08363
55.435 11.025262
55.440 10.755061
55.445 10.35472
55.450 9.776732
55.455 9.96011
55.460 10.385159
55.465 10.389788
55.470 10.915718
55.475 11.5431
55.480 11.783455
55.485 11.992086
55.490 11.878358
55.495 11.589749
55.500 12.123676
55.505 11.840197
55.510 11.423388
55.515 11.750194
55.520 11.759832
55.525 11.768858
55.530 11.990087
55.535 12.121546
55.540 12.536476
55.545 12.819668
55.550 13.188262
55.555 13.440947
55.560 13.525276
55.565 13.045056
55.570 12.751042
55.575 12.654693
55.580 12.277676
55.585 11.965465
55.590 12.040533
55.595 12.043203
55.600 12.625587
55.605 12.564548
55.610 12.605391
55.615 12.500284
55.620 11.922806
55.625 11.754788
55.630 11.697863
55.635 10.90787
55.640 10.558725
55.645 10.374646
55.650 10.395133
55.655 10.793653
55.660 10.844999
55.665 10.847144
55.670 10.824764
55.675 11.036024
55.680 11.26875
55.685 11.273356
55.690 11.322274
55.695 11.603909
55.700 11.490433
55.705 11.522911
55.710 10.939061
55.715 10.455629
55.720 10.511014
55.725 10.346833
55.730 10.175066
55.735 10.139573
55.740 10.633251
55.745 11.384149
55.750 11.622365
55.755 11.327742
55.760 10.979761
55.765 10.396677
55.770 10.437424
55.775 10.231118
55.780 9.947602
55.785 10.088549
55.790 10.292622
55.795 10.511807
55.800 10.894281
55.805 10.763611
55.810 10.533713
55.815 10.829664
55.820 10.825134
55.825 10.595469
55.830 10.569362
55.835 10.414652
55.840 10.730677
55.845 11.088451
55.850 10.960136
55.855 11.020866
55.860 11.47682
55.865 11.662733
55.870 11.549357
55.875 11.582987
55.880 11.798478
55.885 11.634906
55.890 11.656479
55.895 11.351034
55.900 11.241394
55.905 11.554031
55.910 11.309895
55.915 10.95028
55.920 11.384285
55.925 11.754885
55.930 11.94764
55.935 11.932846
55.940 11.964128
55.945 12.089099
55.950 12.610386
55.955 12.135262
55.960 11.900929
55.965 12.046828
55.970 11.910238
55.975 11.833436
55.980 11.858006
55.985 11.3224
55.990 11.310281
55.995 11.103325
56.000 10.567326
56.005 10.451086
56.010 10.356624
56.015 10.787973
56.020 11.356935
56.025 11.683198
56.030 12.168648
56.035 12.756597
56.040 13.372752
56.045 13.243492
56.050 12.661486
56.055 11.915611
56.060 11.146164
56.065 10.914457
56.070 10.921483
56.075 10.611696
56.080 10.67452
56.085 10.905741
56.090 11.484323
56.095 12.109612
56.100 11.732603
56.105 11.554712
56.110 11.934118
56.115 11.884984
56.120 11.820694
56.125 11.790317
56.130 11.885672
56.135 12.089051
56.140 12.283708
56.145 11.835799
56.150 11.724941
56.155 11.646483
56.160 11.432418
56.165 11.147546
56.170 11.225413
56.175 10.898732
56.180 10.730586
56.185 10.754724
56.190 11.425794
56.195 11.626039
56.200 11.742846
56.205 12.051777
56.210 12.462691
56.215 12.742875
56.220 12.659254
56.225 11.974065
56.230 11.910387
56.235 11.956718
56.240 11.893798
56.245 11.621471
56.250 11.382141
56.255 11.678856
56.260 11.760143
56.265 11.743828
56.270 11.314469
56.275 11.071746
56.280 11.773312
56.285 12.332707
56.290 12.298239
56.295 12.74293
56.300 12.862199
56.305 12.885891
56.310 12.872318
56.315 12.119374
56.320 11.64801
56.325 11.702381
56.330 11.354035
56.335 11.461868
56.340 11.479352
56.345 11.639936
56.350 12.155156
56.355 12.477379
56.360 11.933536
56.365 12.060187
56.370 11.853117
56.375 11.533222
56.380 11.165731
56.385 10.670704
56.390 10.526849
56.395 10.640418
56.400 10.727749
56.405 10.982599
56.410 11.600064
56.415 11.86208
56.420 12.074468
56.425 11.965823
56.430 11.665782
56.435 11.599056
56.440 11.352514
56.445 11.073244
56.450 11.173519
56.455 10.944263
56.460 11.250335
56.465 11.564945
56.470 11.9096
56.475 12.325268
56.480 12.252309
56.485 12.306626
56.490 12.757891
56.495 12.768188
56.500 12.801482
56.505 12.512869
56.510 12.38171
56.515 12.632273
56.520 12.484077
56.525 12.608831
56.530 12.584928
56.535 12.804973
56.540 13.028747
56.545 12.856536
56.550 12.877845
56.555 13.143665
56.560 13.067082
56.565 12.389941
56.570 12.063664
56.575 12.024191
56.580 12.461882
56.585 12.74843
56.590 12.560516
56.595 12.946195
56.600 13.369851
56.605 13.249799
56.610 13.136637
56.615 12.804844
56.620 12.21023
56.625 12.092627
56.630 11.746948
56.635 12.209477
56.640 12.021204
56.645 11.894656
56.650 11.95349
56.655 12.039628
56.660 11.839413
56.665 12.227733
56.670 12.192543
56.675 12.714523
56.680 12.770912
56.685 12.970502
56.690 13.223088
56.695 13.031169
56.700 12.503972
56.705 12.319829
56.710 12.350199
56.715 12.067191
56.720 12.043105
56.725 12.250629
56.730 12.543263
56.735 13.009392
56.740 12.927897
56.745 12.674242
56.750 12.694437
56.755 12.940454
56.760 12.62019
56.765 13.045403
56.770 13.214805
56.775 13.341514
56.780 13.47471
56.785 13.963227
56.790 14.007309
56.795 14.203676
56.800 13.550858
56.805 13.452229
56.810 13.776567
56.815 13.465906
56.820 12.982558
56.825 12.838185
56.830 12.90587
56.835 13.04715
56.840 12.503407
56.845 12.059884
56.850 12.380279
56.855 12.539532
56.860 12.161595
56.865 12.08639
56.870 11.872577
56.875 12.224476
56.880 12.192369
56.885 12.059013
56.890 11.812341
56.895 12.0705
56.900 12.148171
56.905 12.24345
56.910 12.38196
56.915 12.282359
56.920 12.078922
56.925 11.908645
56.930 11.418335
56.935 11.441192
56.940 10.782592
56.945 10.926709
56.950 11.409184
56.955 11.725489
56.960 12.360419
56.965 12.734508
56.970 13.326555
56.975 13.937212
56.980 13.36278
56.985 12.873453
56.990 12.704646
56.995 13.006779
57.000 13.436102
57.005 13.419455
57.010 13.556969
57.015 14.214111
57.020 14.40392
57.025 14.435357
57.030 14.090046
57.035 13.554876
57.040 12.987127
57.045 13.016009
57.050 12.68496
57.055 12.493477
57.060 12.337295
57.065 12.611018
57.070 12.429434
57.075 12.852095
57.080 12.573227
57.085 12.648643
57.090 13.211977
57.095 12.927141
57.100 12.499907
57.105 12.506826
57.110 12.22293
57.115 12.701559
57.120 12.538303
57.125 12.351344
57.130 12.475903
57.135 12.564824
57.140 12.854942
57.145 13.308995
57.150 13.291218
57.155 12.791124
57.160 12.039303
57.165 12.257175
57.170 12.342704
57.175 12.380895
57.180 11.74534
57.185 11.949625
57.190 12.69673
57.195 13.664696
57.200 13.70961
57.205 13.802299
57.210 13.489163
57.215 13.5855
57.220 13.045411
57.225 12.966096
57.230 12.95549
57.235 12.82281
57.240 12.749753
57.245 12.892743
57.250 13.212535
57.255 13.925174
57.260 14.059836
57.265 13.662601
57.270 13.504568
57.275 13.525863
57.280 13.393824
57.285 13.150897
57.290 12.784988
57.295 12.443974
57.300 12.351474
57.305 12.660751
57.310 12.196984
57.315 12.490344
57.320 12.824931
57.325 12.985066
57.330 13.220951
57.335 13.332942
57.340 13.473609
57.345 14.122252
57.350 13.45329
57.355 13.043223
57.360 13.115971
57.365 13.158944
57.370 13.408473
57.375 13.520336
57.380 13.446115
57.385 14.370584
57.390 14.796272
57.395 14.795735
57.400 14.560072
57.405 14.692724
57.410 13.856833
57.415 13.407341
57.420 12.799561
57.425 12.172669
57.430 12.03944
57.435 12.005017
57.440 11.667383
57.445 12.312563
57.450 12.318326
57.455 11.992221
57.460 11.910569
57.465 12.260795
57.470 12.254244
57.475 12.227614
57.480 13.011333
57.485 13.07222
57.490 13.299243
57.495 13.64179
57.500 13.358499
57.505 13.176068
57.510 12.832553
57.515 12.102017
57.520 12.746036
57.525 12.334492
57.530 12.051865
57.535 11.973169
57.540 12.403358
57.545 12.828918
57.550 13.142301
57.555 13.920371
57.560 14.90075
57.565 15.278868
57.570 15.694139
57.575 15.479354
57.580 14.845351
57.585 14.056978
57.590 13.139206
57.595 13.180837
57.600 13.092202
57.605 12.804305
57.610 13.203474
57.615 13.629481
57.620 13.520611
57.625 13.855452
57.630 13.678113
57.635 13.64859
57.640 13.770191
57.645 13.857059
57.650 13.979181
57.655 14.831299
57.660 14.851526
57.665 14.532161
57.670 14.191804
57.675 13.866532
57.680 14.050258
57.685 14.14049
57.690 14.081553
57.695 14.521858
57.700 14.931607
57.705 15.0399
57.710 15.16755
57.715 14.871585
57.720 14.577249
57.725 13.964522
57.730 13.256665
57.735 13.203497
57.740 13.212014
57.745 13.447957
57.750 13.563469
57.755 13.453423
57.760 13.448709
57.765 13.802447
57.770 13.887784
57.775 14.073032
57.780 13.401557
57.785 13.425731
57.790 13.62412
57.795 13.855866
57.800 13.360645
57.805 12.902224
57.810 12.870517
57.815 13.16004
57.820 13.225828
57.825 12.911179
57.830 12.711694
57.835 13.456989
57.840 13.88634
57.845 13.788567
57.850 13.674593
57.855 13.679639
57.860 13.597994
57.865 13.93997
57.870 13.549872
57.875 13.608705
57.880 13.570797
57.885 13.707588
57.890 13.959389
57.895 14.484523
57.900 14.486601
57.905 14.42884
57.910 14.841592
57.915 14.880856
57.920 14.973151
57.925 14.79379
57.930 14.91686
57.935 14.593843
57.940 14.416411
57.945 13.842484
57.950 14.176728
57.955 14.16663
57.960 14.126894
57.965 14.183699
57.970 14.103144
57.975 14.143482
57.980 14.156879
57.985 13.678024
57.990 13.883169
57.995 14.22799
58.000 14.133035
58.005 14.344559
58.010 14.312213
58.015 14.602942
58.020 14.417192
58.025 14.156819
58.030 14.034356
58.035 13.926972
58.040 13.71555
58.045 13.981213
58.050 14.262939
58.055 14.695073
58.060 15.028696
58.065 14.952395
58.070 15.040117
58.075 14.809621
58.080 14.22233
58.085 14.204865
58.090 14.822298
58.095 14.381525
58.100 14.194162
58.105 14.575339
58.110 15.466393
58.115 15.643246
58.120 15.248754
58.125 14.741563
58.130 14.737314
58.135 14.996035
58.140 14.731491
58.145 14.760404
58.150 14.750742
58.155 14.292334
58.160 14.073887
58.165 13.897901
58.170 13.749508
58.175 14.364691
58.180 13.918084
58.185 13.958915
58.190 14.636623
58.195 14.85881
58.200 15.197283
58.205 15.567584
58.210 15.678068
58.215 15.71846
58.220 16.034967
58.225 15.877833
58.230 16.18646
58.235 16.245548
58.240 15.568336
58.245 15.232559
58.250 15.438149
58.255 15.421169
58.260 15.741554
58.265 15.398099
58.270 15.655585
58.275 15.540089
58.280 15.445458
58.285 15.678891
58.290 15.523858
58.295 15.405275
58.300 15.092717
58.305 14.792212
58.310 15.354487
58.315 15.348701
58.320 15.226011
58.325 15.430515
58.330 14.888897
58.335 15.151994
58.340 14.761408
58.345 14.408504
58.350 14.485151
58.355 14.198895
58.360 13.606468
58.365 13.994702
58.370 14.342988
58.375 14.633704
58.380 14.637877
58.385 14.527222
58.390 14.647772
58.395 14.901658
58.400 14.981706
58.405 14.720572
58.410 14.701021
58.415 14.708452
58.420 15.042543
58.425 14.909659
58.430 14.800204
58.435 14.879754
58.440 15.020448
58.445 14.812726
58.450 15.008214
58.455 15.12303
58.460 15.464151
58.465 15.344419
58.470 14.905442
58.475 14.891884
58.480 14.963814
58.485 14.817834
58.490 14.357923
58.495 14.570113
58.500 14.847444
58.505 15.13472
58.510 15.292744
58.515 15.503802
58.520 15.162137
58.525 15.009681
58.530 15.01751
58.535 15.127609
58.540 15.082443
