!@!!GADDS PLOTSO FILE: Chi integration type
!@!!Title/SampleName: map-30
!@!!Comment: ?
!@!!User: Bruker Instrument Administrator
!@!!Site: University of Illinois Chicago
!@!!Frame: map-30_01_000.gfrm
!@!!Wavelengths    1.54184   1.54056   1.54439
!@!!Frame angles: 2Theta: 63.000 Omega: 50.000 Phi: 0.000 Chi: 90.000
!@!!Integration range: 2Theta: 53.000 to 73.000  Gamma: -105.000 to -75.000
!@!!Integration method: bin normalized
!@!N
!@!SS
!@!M
!@!L 0.0 0.0 0.0 0.0
!@!XDegrees
!@!YCounts
53.000 10.48555
53.005 10.503896
53.010 10.783624
53.015 10.709366
53.020 10.750832
53.025 10.910697
53.030 10.862433
53.035 10.648847
53.040 10.459538
53.045 10.195479
53.050 10.231218
53.055 10.231113
53.060 10.477619
53.065 10.473857
53.070 10.427411
53.075 10.91324
53.080 10.999982
53.085 11.201555
53.090 11.220941
53.095 10.437931
53.100 10.294895
53.105 10.742683
53.110 10.830078
53.115 11.139118
53.120 11.169928
53.125 10.969136
53.130 11.148999
53.135 11.27647
53.140 11.273097
53.145 11.217929
53.150 10.692437
53.155 10.320663
53.160 10.19343
53.165 10.001081
53.170 9.94795
53.175 9.822322
53.180 9.902318
53.185 10.258886
53.190 10.615288
53.195 10.871515
53.200 10.759093
53.205 10.176299
53.210 9.524137
53.215 9.602756
53.220 9.652447
53.225 9.76305
53.230 10.022252
53.235 10.238056
53.240 10.599855
53.245 10.731745
53.250 10.219299
53.255 9.59753
53.260 9.136379
53.265 8.999658
53.270 8.785564
53.275 9.001385
53.280 9.148577
53.285 9.463862
53.290 9.98998
53.295 9.991983
53.300 9.966623
53.305 10.120522
53.310 9.740677
53.315 9.875751
53.320 10.333609
53.325 10.556023
53.330 10.240008
53.335 10.042022
53.340 10.010554
53.345 10.349563
53.350 10.215481
53.355 9.930745
53.360 10.415271
53.365 11.199947
53.370 11.628925
53.375 11.506281
53.380 11.401197
53.385 11.438613
53.390 11.24813
53.395 10.78092
53.400 10.49751
53.405 10.266571
53.410 10.394767
53.415 10.625145
53.420 10.488702
53.425 10.522243
53.430 10.672896
53.435 11.01109
53.440 11.413196
53.445 11.263813
53.450 11.250957
53.455 11.403644
53.460 11.613905
53.465 11.535502
53.470 11.313019
53.475 11.235203
53.480 11.084313
53.485 11.329593
53.490 11.664469
53.495 11.894106
53.500 11.897953
53.505 12.182693
53.510 12.194215
53.515 11.764364
53.520 11.985722
53.525 12.1392
53.530 12.227118
53.535 11.985818
53.540 11.882449
53.545 12.019265
53.550 11.952955
53.555 10.997392
53.560 10.751869
53.565 11.028116
53.570 11.125867
53.575 11.184929
53.580 10.794073
53.585 11.478811
53.590 11.624661
53.595 11.433699
53.600 11.39756
53.605 11.468024
53.610 12.145968
53.615 12.643291
53.620 12.476296
53.625 12.416636
53.630 12.536485
53.635 12.024967
53.640 11.742951
53.645 11.311759
53.650 11.273335
53.655 10.857521
53.660 11.001916
53.665 11.134553
53.670 11.705186
53.675 12.014662
53.680 12.020257
53.685 11.880315
53.690 12.338904
53.695 12.273591
53.700 12.332182
53.705 12.151175
53.710 12.070796
53.715 12.036822
53.720 12.110864
53.725 11.962198
53.730 11.541343
53.735 11.837684
53.740 12.096057
53.745 12.170895
53.750 12.620399
53.755 12.317609
53.760 12.418563
53.765 12.646075
53.770 11.68229
53.775 11.310805
53.780 10.917623
53.785 10.901469
53.790 11.233227
53.795 10.764861
53.800 10.72708
53.805 10.79313
53.810 11.034684
53.815 10.691569
53.820 10.350738
53.825 10.525988
53.830 10.928649
53.835 10.916418
53.840 11.28394
53.845 11.322204
53.850 11.234124
53.855 11.310705
53.860 11.228595
53.865 11.115116
53.870 11.474736
53.875 11.661118
53.880 12.503117
53.885 12.780107
53.890 12.637176
53.895 12.554969
53.900 12.397782
53.905 11.895619
53.910 11.408043
53.915 11.376949
53.920 11.595818
53.925 11.761548
53.930 11.843997
53.935 12.029374
53.940 12.147384
53.945 11.82517
53.950 11.377622
53.955 11.170882
53.960 11.19709
53.965 10.887521
53.970 10.599209
53.975 10.762755
53.980 11.120472
53.985 11.497827
53.990 11.615453
53.995 11.068176
54.000 10.910622
54.005 10.995321
54.010 11.055916
54.015 11.030455
54.020 11.140427
54.025 11.555406
54.030 11.922424
54.035 12.421335
54.040 12.735679
54.045 13.014374
54.050 12.990841
54.055 12.29146
54.060 11.92312
54.065 11.905154
54.070 11.531381
54.075 11.453226
54.080 11.092864
54.085 10.708646
54.090 11.316858
54.095 11.333634
54.100 11.720362
54.105 11.793129
54.110 11.70546
54.115 12.071866
54.120 12.16214
54.125 11.646851
54.130 11.739903
54.135 11.893707
54.140 12.103549
54.145 12.075163
54.150 11.93821
54.155 11.754984
54.160 11.860598
54.165 11.898747
54.170 12.001873
54.175 11.839445
54.180 11.966434
54.185 12.441532
54.190 12.925523
54.195 13.062651
54.200 13.276265
54.205 13.479705
54.210 13.446313
54.215 13.246113
54.220 13.167906
54.225 13.341013
54.230 13.261561
54.235 12.950645
54.240 12.246545
54.245 12.047075
54.250 11.888183
54.255 11.854401
54.260 12.133043
54.265 12.207148
54.270 12.232985
54.275 12.534683
54.280 12.275554
54.285 11.663376
54.290 11.304974
54.295 10.693855
54.300 11.175329
54.305 11.932082
54.310 11.973329
54.315 12.511963
54.320 13.23976
54.325 13.195416
54.330 13.531062
54.335 12.854087
54.340 12.128287
54.345 12.258813
54.350 11.993663
54.355 11.646379
54.360 11.504247
54.365 10.988036
54.370 11.142683
54.375 11.460149
54.380 11.365634
54.385 11.4168
54.390 11.874371
54.395 12.098816
54.400 12.037777
54.405 11.555985
54.410 11.772619
54.415 12.653069
54.420 12.582903
54.425 12.156446
54.430 12.264229
54.435 12.655506
54.440 12.425684
54.445 11.61684
54.450 11.171192
54.455 11.606384
54.460 11.80303
54.465 11.836808
54.470 11.719004
54.475 12.303948
54.480 13.023958
54.485 13.269067
54.490 13.260837
54.495 13.0759
54.500 12.938397
54.505 12.974732
54.510 12.721203
54.515 12.171505
54.520 11.464911
54.525 10.812093
54.530 10.533721
54.535 10.740145
54.540 10.653172
54.545 10.533864
54.550 10.663506
54.555 10.842371
54.560 11.230184
54.565 11.319931
54.570 10.73132
54.575 10.944122
54.580 11.203198
54.585 11.467214
54.590 11.876076
54.595 12.355801
54.600 12.305021
54.605 12.569884
54.610 12.301772
54.615 12.289703
54.620 12.085714
54.625 11.521803
54.630 11.621111
54.635 11.891006
54.640 11.696643
54.645 11.862149
54.650 11.695135
54.655 11.918376
54.660 11.90027
54.665 11.844285
54.670 11.960939
54.675 12.335253
54.680 12.148636
54.685 11.995231
54.690 12.099488
54.695 12.268306
54.700 11.959233
54.705 11.865
54.710 11.978818
54.715 12.458205
54.720 12.535801
54.725 12.226409
54.730 12.729423
54.735 12.62121
54.740 12.346055
54.745 11.73693
54.750 11.482275
54.755 11.44846
54.760 11.468852
54.765 11.558026
54.770 12.096739
54.775 12.361703
54.780 12.640469
54.785 12.4299
54.790 12.604015
54.795 12.959276
54.800 12.576882
54.805 12.549899
54.810 12.681987
54.815 12.891818
54.820 12.686901
54.825 12.543259
54.830 12.992574
54.835 13.352885
54.840 13.232137
54.845 13.382681
54.850 13.434148
54.855 13.461333
54.860 13.312797
54.865 12.814269
54.870 12.796577
54.875 12.992859
54.880 12.822495
54.885 13.000761
54.890 13.306732
54.895 13.111891
54.900 12.472301
54.905 12.083069
54.910 11.868747
54.915 11.486259
54.920 11.220647
54.925 11.17518
54.930 11.660027
54.935 12.248705
54.940 12.888507
54.945 13.31974
54.950 13.687506
54.955 13.859541
54.960 13.934444
54.965 13.612756
54.970 13.333359
54.975 12.934073
54.980 12.819937
54.985 12.95263
54.990 13.262613
54.995 13.161922
55.000 13.246203
55.005 13.038267
55.010 13.090428
55.015 13.346711
55.020 13.913838
55.025 13.858999
55.030 13.521523
55.035 13.569317
55.040 13.624327
55.045 13.462112
55.050 12.457029
55.055 11.898907
55.060 11.714838
55.065 11.727862
55.070 11.823738
55.075 11.6738
55.080 11.90841
55.085 12.365846
55.090 12.179463
55.095 12.328918
55.100 12.264708
55.105 12.335004
55.110 12.503056
55.115 12.600536
55.120 12.783085
55.125 12.784429
55.130 12.596121
55.135 12.297583
55.140 12.071799
55.145 12.641084
55.150 12.569713
55.155 12.328391
55.160 12.151618
55.165 12.015971
55.170 12.361834
55.175 12.190642
55.180 11.505414
55.185 11.330397
55.190 10.980043
55.195 11.148621
55.200 11.504774
55.205 11.633884
55.210 11.98299
55.215 11.954843
55.220 12.424681
55.225 12.938988
55.230 13.108855
55.235 13.006142
55.240 12.76921
55.245 12.757242
55.250 12.986346
55.255 12.947216
55.260 13.000064
55.265 12.969284
55.270 13.466731
55.275 13.567389
55.280 13.32891
55.285 13.141726
55.290 12.870529
55.295 13.064303
55.300 13.123532
55.305 12.370441
55.310 12.085454
55.315 12.13254
55.320 12.237024
55.325 12.216818
55.330 11.814125
55.335 11.845447
55.340 12.512697
55.345 12.782016
55.350 13.120718
55.355 13.31577
55.360 13.324216
55.365 13.72511
55.370 13.715847
55.375 13.794222
55.380 14.064139
55.385 13.625479
55.390 13.346789
55.395 13.40153
55.400 13.135105
55.405 12.904033
55.410 13.120312
55.415 13.121689
55.420 13.174553
55.425 12.719716
55.430 12.33887
55.435 12.743755
55.440 12.805031
55.445 12.067371
55.450 12.156749
55.455 12.373796
55.460 12.631748
55.465 13.247469
55.470 13.086746
55.475 13.40297
55.480 12.996472
55.485 12.639573
55.490 12.870757
55.495 13.001759
55.500 12.581876
55.505 12.711362
55.510 12.543255
55.515 12.932997
55.520 13.108397
55.525 13.006773
55.530 13.181831
55.535 13.335281
55.540 13.016312
55.545 12.920183
55.550 13.041119
55.555 13.089737
55.560 13.566413
55.565 13.423123
55.570 13.804943
55.575 14.123653
55.580 14.337946
55.585 14.618008
55.590 14.575996
55.595 14.080964
55.600 13.35974
55.605 12.786592
55.610 13.058396
55.615 13.106072
55.620 13.091708
55.625 13.084665
55.630 13.255545
55.635 14.185781
55.640 14.349832
55.645 13.597878
55.650 13.253751
55.655 13.178065
55.660 13.266387
55.665 13.167044
55.670 13.003517
55.675 13.207965
55.680 13.826704
55.685 14.64159
55.690 14.654663
55.695 14.445452
55.700 14.214749
55.705 13.49205
55.710 12.996562
55.715 12.591959
55.720 11.780089
55.725 11.722173
55.730 11.886992
55.735 11.749968
55.740 11.465001
55.745 11.428914
55.750 11.447291
55.755 11.436028
55.760 11.533628
55.765 11.758148
55.770 12.018766
55.775 12.641505
55.780 13.387013
55.785 13.714829
55.790 13.829075
55.795 13.926147
55.800 13.940533
55.805 14.362664
55.810 14.056412
55.815 13.806927
55.820 14.160793
55.825 14.444681
55.830 14.25891
55.835 14.889068
55.840 15.068165
55.845 15.74977
55.850 15.736454
55.855 15.34455
55.860 14.989483
55.865 14.613062
55.870 13.811152
55.875 13.469446
55.880 12.946809
55.885 12.908136
55.890 12.785841
55.895 12.834361
55.900 12.99702
55.905 12.676078
55.910 12.886258
55.915 12.910957
55.920 12.936271
55.925 13.421341
55.930 13.605327
55.935 13.889575
55.940 14.258647
55.945 14.530968
55.950 14.752831
55.955 14.740269
55.960 14.276808
55.965 13.895325
55.970 13.741712
55.975 13.94272
55.980 13.910375
55.985 13.382611
55.990 13.16202
55.995 13.416196
56.000 14.032531
56.005 14.339233
56.010 14.29932
56.015 14.06986
56.020 14.449695
56.025 14.710185
56.030 14.669997
56.035 14.522112
56.040 14.002173
56.045 14.065001
56.050 13.911057
56.055 13.44647
56.060 13.046515
56.065 12.691898
56.070 12.545185
56.075 12.698177
56.080 12.96372
56.085 13.03795
56.090 12.998498
56.095 12.896373
56.100 12.670064
56.105 13.13615
56.110 13.266606
56.115 13.015687
56.120 12.946347
56.125 12.813608
56.130 13.062255
56.135 13.196517
56.140 12.759065
56.145 12.575567
56.150 12.620654
56.155 13.468117
56.160 14.180459
56.165 14.682343
56.170 14.977133
56.175 14.62051
56.180 13.852718
56.185 13.443304
56.190 12.995688
56.195 12.138052
56.200 11.805601
56.205 11.729785
56.210 12.330719
56.215 13.159383
56.220 13.755056
56.225 14.11083
56.230 14.882178
56.235 14.961492
56.240 14.885277
56.245 15.279279
56.250 14.769118
56.255 13.620132
56.260 13.040671
56.265 12.783922
56.270 12.711643
56.275 12.622985
56.280 12.016243
56.285 12.310968
56.290 12.979084
56.295 13.429027
56.300 12.971762
56.305 13.088542
56.310 13.624128
56.315 13.729045
56.320 14.125645
56.325 14.093699
56.330 13.714082
56.335 14.023897
56.340 13.300475
56.345 12.754268
56.350 12.834882
56.355 13.074173
56.360 13.010663
56.365 13.442204
56.370 13.914942
56.375 14.718709
56.380 14.612055
56.385 14.013142
56.390 13.903095
56.395 14.015973
56.400 14.12295
56.405 13.776619
56.410 13.743808
56.415 14.224492
56.420 14.188517
56.425 13.753623
56.430 13.696642
56.435 13.420601
56.440 13.215247
56.445 12.797402
56.450 12.79207
56.455 12.945015
56.460 12.971891
56.465 13.170314
56.470 13.310555
56.475 13.109898
56.480 13.332213
56.485 13.387362
56.490 13.627558
56.495 14.147964
56.500 13.373879
56.505 13.009201
56.510 13.15609
56.515 12.731915
56.520 12.592629
56.525 12.364983
56.530 11.957891
56.535 12.695828
56.540 13.014572
56.545 12.571976
56.550 12.659466
56.555 12.642135
56.560 12.981006
56.565 13.017985
56.570 12.579147
56.575 12.999374
56.580 13.915958
56.585 14.441961
56.590 14.321657
56.595 13.960158
56.600 14.38407
56.605 14.855731
56.610 14.735758
56.615 14.536205
56.620 14.241284
56.625 14.090186
56.630 14.147355
56.635 14.114705
56.640 14.691959
56.645 14.431872
56.650 14.094315
56.655 14.192066
56.660 14.197635
56.665 14.426824
56.670 14.362138
56.675 14.150714
56.680 14.482558
56.685 14.635577
56.690 14.929169
56.695 15.157077
56.700 14.969882
56.705 14.838869
56.710 14.525509
56.715 14.533292
56.720 14.438774
56.725 13.970116
56.730 13.952316
56.735 14.178901
56.740 14.075575
56.745 14.03672
56.750 13.827303
56.755 13.975041
56.760 14.852338
56.765 15.601723
56.770 15.57059
56.775 15.622464
56.780 15.886773
56.785 16.816242
56.790 16.74375
56.795 16.482586
56.800 16.462246
56.805 16.412237
56.810 16.526533
56.815 16.564253
56.820 16.124712
56.825 15.714664
56.830 15.294741
56.835 14.984418
56.840 15.217506
56.845 15.259438
56.850 15.54649
56.855 15.798779
56.860 16.242468
56.865 16.552284
56.870 16.254967
56.875 15.427351
56.880 14.919663
56.885 14.044898
56.890 13.919181
56.895 13.945513
56.900 13.750465
56.905 13.915582
56.910 14.576642
56.915 14.903469
56.920 15.227958
56.925 15.040436
56.930 14.752391
56.935 14.658717
56.940 14.808035
56.945 15.065935
56.950 15.10382
56.955 15.291378
56.960 15.546838
56.965 15.660937
56.970 16.140144
56.975 15.854398
56.980 15.297341
56.985 14.714524
56.990 13.976044
56.995 13.691442
57.000 13.680424
57.005 13.18368
57.010 13.330778
57.015 13.950239
57.020 14.538964
57.025 14.745191
57.030 14.583909
57.035 14.327861
57.040 14.638169
57.045 14.406377
57.050 14.407354
57.055 14.31688
57.060 14.796512
57.065 15.049272
57.070 14.761505
57.075 14.64976
57.080 14.953715
57.085 14.947229
57.090 14.84869
57.095 14.208912
57.100 14.093214
57.105 14.631327
57.110 14.219357
57.115 13.861207
57.120 13.926811
57.125 14.371527
57.130 15.109573
57.135 15.705444
57.140 15.558974
57.145 15.649782
57.150 15.75949
57.155 15.724065
57.160 15.595172
57.165 15.221512
57.170 15.044913
57.175 14.771461
57.180 15.082477
57.185 14.896833
57.190 15.027883
57.195 15.060084
57.200 14.928837
57.205 14.635014
57.210 15.133452
57.215 14.568209
57.220 14.812563
57.225 14.695788
57.230 14.48462
57.235 14.521975
57.240 14.849038
57.245 15.2542
57.250 15.585857
57.255 14.546693
57.260 13.760549
57.265 13.567133
57.270 13.461046
57.275 13.018633
57.280 12.631906
57.285 12.777616
57.290 13.73881
57.295 14.506049
57.300 14.573535
57.305 14.763429
57.310 14.836803
57.315 15.313066
57.320 15.434714
57.325 15.096384
57.330 14.527103
57.335 14.677056
57.340 14.642469
57.345 14.535005
57.350 14.088465
57.355 14.274106
57.360 14.689733
57.365 15.427641
57.370 15.759627
57.375 16.041702
57.380 16.406427
57.385 15.991987
57.390 15.900734
57.395 15.665738
57.400 15.370335
57.405 15.293416
57.410 15.325405
57.415 14.782782
57.420 15.161301
57.425 14.62371
57.430 14.265643
57.435 14.506777
57.440 14.243601
57.445 14.019499
57.450 14.414272
57.455 14.514489
57.460 14.459674
57.465 14.736406
57.470 14.480863
57.475 14.653434
57.480 14.992633
57.485 14.569532
57.490 14.867653
57.495 15.328857
57.500 15.454716
57.505 15.603514
57.510 15.39259
57.515 15.219196
57.520 15.189503
57.525 14.941571
57.530 14.489564
57.535 14.349821
57.540 13.903983
57.545 14.360991
57.550 15.218369
57.555 15.845038
57.560 15.97372
57.565 16.554876
57.570 16.71694
57.575 16.862368
57.580 16.328409
57.585 16.099756
57.590 16.111477
57.595 16.012217
57.600 15.599475
57.605 15.706564
57.610 15.990853
57.615 16.452459
57.620 16.372272
57.625 16.306013
57.630 16.475769
57.635 15.930648
57.640 15.878937
57.645 15.452912
57.650 14.876703
57.655 14.832543
57.660 14.603719
57.665 14.437946
57.670 14.726166
57.675 14.487102
57.680 14.668231
57.685 14.5509
57.690 14.425067
57.695 13.979341
57.700 14.070741
57.705 14.20724
57.710 14.459508
57.715 14.79117
57.720 15.061729
57.725 15.667953
57.730 17.591034
57.735 18.395756
57.740 18.681978
57.745 19.095015
57.750 19.547318
57.755 19.196842
57.760 18.752066
57.765 17.967625
57.770 17.754446
57.775 17.734434
57.780 17.385366
57.785 16.882626
57.790 16.522846
57.795 15.753659
57.800 14.853167
57.805 15.411278
57.810 15.774078
57.815 15.959643
57.820 16.243948
57.825 16.868097
57.830 17.818844
57.835 18.252882
57.840 18.10383
57.845 17.806799
57.850 17.58954
57.855 17.259098
57.860 17.071747
57.865 16.432028
57.870 15.877651
57.875 15.520504
57.880 15.758489
57.885 16.210466
57.890 16.313099
57.895 16.514814
57.900 16.614536
57.905 16.747272
57.910 17.034889
57.915 16.778641
57.920 17.123522
57.925 17.064939
57.930 17.04143
57.935 17.441284
57.940 17.656313
57.945 17.471361
57.950 17.618622
57.955 17.477968
57.960 17.703033
57.965 17.495237
57.970 16.95871
57.975 16.887947
57.980 17.339556
57.985 17.273598
57.990 17.045691
57.995 17.052172
58.000 17.112415
58.005 17.582407
58.010 17.642265
58.015 17.072121
58.020 17.199453
58.025 17.4037
58.030 17.170128
58.035 17.427567
58.040 17.884537
58.045 17.991051
58.050 18.00013
58.055 18.510147
58.060 18.855288
58.065 18.796179
58.070 18.573421
58.075 18.092234
58.080 17.974945
58.085 18.015518
58.090 17.025066
58.095 16.772654
58.100 16.867836
58.105 16.566088
58.110 16.763067
58.115 16.9174
58.120 16.597107
58.125 16.839001
58.130 16.78367
58.135 16.942242
58.140 17.413382
58.145 17.942307
58.150 17.858845
58.155 17.90423
58.160 17.559818
58.165 18.012701
58.170 18.141516
58.175 17.952839
58.180 17.196159
58.185 18.086971
58.190 18.166162
58.195 18.640373
58.200 18.702749
58.205 18.953096
58.210 19.18808
58.215 19.665493
58.220 18.949858
58.225 19.218899
58.230 19.300486
58.235 19.007711
58.240 18.993736
58.245 18.854734
58.250 18.451836
58.255 19.060835
58.260 19.623316
58.265 19.347139
58.270 19.318575
58.275 18.967577
58.280 19.240072
58.285 19.54283
58.290 19.178713
58.295 19.25242
58.300 19.496
58.305 20.109035
58.310 19.903492
58.315 20.06671
58.320 20.48151
58.325 21.390272
58.330 21.283144
58.335 21.986109
58.340 22.451706
58.345 23.357889
58.350 23.265615
58.355 23.425106
58.360 23.249567
58.365 23.570454
58.370 23.907536
58.375 23.787037
58.380 23.870325
58.385 25.125553
58.390 26.76862
58.395 27.428631
58.400 27.860392
58.405 27.808584
58.410 28.472811
58.415 28.826426
58.420 28.492826
58.425 27.426022
58.430 27.959316
58.435 28.110987
58.440 28.255491
58.445 28.26438
