!@!!GADDS PLOTSO FILE: Chi integration type
!@!!Title/SampleName: map-5f
!@!!Comment: ?
!@!!User: Bruker Instrument Administrator
!@!!Site: University of Illinois Chicago
!@!!Frame: map-5f_01_000.gfrm
!@!!Wavelengths    1.54184   1.54056   1.54439
!@!!Frame angles: 2Theta: 63.000 Omega: 50.000 Phi: 0.000 Chi: 90.000
!@!!Integration range: 2Theta: 53.000 to 73.000  Gamma: -105.000 to -75.000
!@!!Integration method: bin normalized
!@!N
!@!SS
!@!M
!@!L 0.0 0.0 0.0 0.0
!@!XDegrees
!@!YCounts
53.000 8.748857
53.005 8.27454
53.010 8.067748
53.015 7.719672
53.020 7.41353
53.025 7.085218
53.030 6.740548
53.035 6.385743
53.040 6.642619
53.045 6.655163
53.050 6.790322
53.055 7.030999
53.060 7.409744
53.065 7.654507
53.070 8.130874
53.075 8.171792
53.080 7.835414
53.085 7.813877
53.090 7.609288
53.095 7.867272
53.100 8.113391
53.105 8.112922
53.110 8.285182
53.115 8.728827
53.120 8.826537
53.125 8.721914
53.130 8.244035
53.135 8.254037
53.140 8.22858
53.145 8.235508
53.150 8.246509
53.155 8.732778
53.160 8.821732
53.165 9.214744
53.170 9.386556
53.175 9.844715
53.180 9.573811
53.185 9.240871
53.190 9.022205
53.195 9.142935
53.200 8.72236
53.205 8.330611
53.210 8.250583
53.215 8.510159
53.220 8.721289
53.225 9.167295
53.230 9.077816
53.235 9.22724
53.240 9.080242
53.245 8.750079
53.250 8.931583
53.255 8.929273
53.260 8.884412
53.265 8.902753
53.270 8.587693
53.275 8.81332
53.280 8.654871
53.285 8.508028
53.290 7.999099
53.295 7.890697
53.300 7.946714
53.305 8.502007
53.310 8.54964
53.315 8.317419
53.320 8.245317
53.325 8.342314
53.330 8.367527
53.335 8.16878
53.340 7.956968
53.345 8.149279
53.350 8.32166
53.355 8.127592
53.360 8.428462
53.365 8.426129
53.370 8.94924
53.375 9.284064
53.380 9.624394
53.385 10.295093
53.390 10.236082
53.395 9.89385
53.400 10.031569
53.405 9.723258
53.410 9.128344
53.415 8.765795
53.420 8.511006
53.425 8.422533
53.430 8.024405
53.435 7.731776
53.440 7.844117
53.445 8.031203
53.450 7.996295
53.455 8.06265
53.460 8.63323
53.465 8.700425
53.470 8.408056
53.475 8.302491
53.480 8.030077
53.485 7.783935
53.490 7.710877
53.495 7.787987
53.500 8.329148
53.505 8.709057
53.510 8.62711
53.515 8.669553
53.520 8.710988
53.525 8.693769
53.530 8.14361
53.535 7.979079
53.540 8.082578
53.545 8.537359
53.550 8.733168
53.555 8.410151
53.560 8.322942
53.565 8.379154
53.570 8.377716
53.575 8.417132
53.580 8.63618
53.585 8.753192
53.590 9.218883
53.595 9.239268
53.600 9.500818
53.605 9.010612
53.610 8.243109
53.615 8.076246
53.620 7.782484
53.625 7.461168
53.630 7.366448
53.635 7.544731
53.640 7.72387
53.645 8.006675
53.650 8.109613
53.655 8.374615
53.660 8.718455
53.665 8.855922
53.670 9.040742
53.675 9.480428
53.680 9.303646
53.685 9.409273
53.690 9.574727
53.695 9.49376
53.700 9.303081
53.705 9.36693
53.710 9.290223
53.715 9.584552
53.720 9.933668
53.725 9.980136
53.730 9.501453
53.735 8.890027
53.740 8.085901
53.745 7.729338
53.750 7.409775
53.755 7.066875
53.760 7.497552
53.765 7.995165
53.770 8.836021
53.775 9.547385
53.780 9.733661
53.785 10.110468
53.790 10.069057
53.795 9.778536
53.800 9.68586
53.805 9.222158
53.810 8.908433
53.815 9.105125
53.820 8.821456
53.825 8.471876
53.830 8.853601
53.835 8.976081
53.840 8.698264
53.845 8.248439
53.850 7.678118
53.855 7.608841
53.860 7.691738
53.865 7.753391
53.870 7.670689
53.875 8.501847
53.880 8.949395
53.885 8.714701
53.890 9.020658
53.895 9.044524
53.900 8.431252
53.905 8.18497
53.910 7.689284
53.915 7.704161
53.920 8.177468
53.925 8.291853
53.930 8.732097
53.935 9.270231
53.940 9.309937
53.945 9.639127
53.950 9.753728
53.955 9.621897
53.960 9.531995
53.965 9.335298
53.970 9.163242
53.975 9.501183
53.980 9.499193
53.985 9.039032
53.990 9.009262
53.995 8.801367
54.000 8.818525
54.005 9.721462
54.010 9.672917
54.015 9.970113
54.020 10.224809
54.025 9.917413
54.030 9.78451
54.035 9.39077
54.040 8.886579
54.045 8.753752
54.050 8.493437
54.055 8.573402
54.060 8.865525
54.065 9.150746
54.070 9.510646
54.075 9.113943
54.080 9.241907
54.085 9.265827
54.090 9.17832
54.095 8.98459
54.100 8.811338
54.105 8.942832
54.110 9.36381
54.115 9.211183
54.120 9.133372
54.125 9.447159
54.130 9.516222
54.135 9.879743
54.140 9.658737
54.145 9.408128
54.150 9.615929
54.155 10.185298
54.160 10.18932
54.165 10.464253
54.170 9.986248
54.175 9.74473
54.180 10.401744
54.185 10.26576
54.190 10.064216
54.195 9.911575
54.200 9.679912
54.205 9.874543
54.210 10.203107
54.215 9.94385
54.220 9.733005
54.225 9.473349
54.230 9.39681
54.235 9.870992
54.240 10.002073
54.245 9.727099
54.250 9.63834
54.255 9.756185
54.260 9.916608
54.265 9.479062
54.270 9.030467
54.275 9.064927
54.280 9.55069
54.285 10.075665
54.290 10.318289
54.295 10.167578
54.300 10.486541
54.305 10.546866
54.310 10.684504
54.315 10.034329
54.320 9.53838
54.325 9.498385
54.330 9.435377
54.335 9.475521
54.340 9.299306
54.345 8.768358
54.350 8.880968
54.355 9.242945
54.360 9.259433
54.365 9.330935
54.370 9.168534
54.375 9.604058
54.380 10.391085
54.385 10.391704
54.390 10.320624
54.395 10.415229
54.400 10.599222
54.405 10.941668
54.410 10.642954
54.415 10.229282
54.420 10.324678
54.425 10.272964
54.430 10.216583
54.435 10.243896
54.440 9.655535
54.445 9.724283
54.450 9.857142
54.455 9.936658
54.460 9.697098
54.465 9.40497
54.470 9.251952
54.475 9.490113
54.480 9.329683
54.485 8.888671
54.490 8.917445
54.495 9.274402
54.500 9.813118
54.505 10.189125
54.510 10.195031
54.515 10.576389
54.520 10.457149
54.525 10.334002
54.530 9.996322
54.535 9.646524
54.540 9.880376
54.545 9.764308
54.550 9.948112
54.555 10.26026
54.560 10.245997
54.565 10.399495
54.570 10.61062
54.575 10.681179
54.580 10.872751
54.585 10.543995
54.590 10.528178
54.595 10.919851
54.600 10.841303
54.605 10.658085
54.610 10.446229
54.615 10.367393
54.620 10.163765
54.625 10.017145
54.630 10.019311
54.635 9.975823
54.640 10.125059
54.645 10.188544
54.650 10.163302
54.655 10.631929
54.660 10.452017
54.665 9.932464
54.670 9.804411
54.675 9.918731
54.680 9.876646
54.685 10.003622
54.690 9.860045
54.695 10.128762
54.700 10.37167
54.705 10.354033
54.710 9.623565
54.715 9.834533
54.720 10.0785
54.725 10.073604
54.730 10.064688
54.735 10.182296
54.740 10.293976
54.745 10.36205
54.750 9.979077
54.755 9.691571
54.760 9.867715
54.765 9.982786
54.770 10.150341
54.775 10.481043
54.780 10.664915
54.785 10.410974
54.790 10.370278
54.795 10.186106
54.800 9.818032
54.805 9.978907
54.810 9.258104
54.815 8.703779
54.820 8.895906
54.825 9.064596
54.830 9.197499
54.835 9.519733
54.840 8.801105
54.845 9.183986
54.850 9.763748
54.855 9.964235
54.860 10.027287
54.865 9.921886
54.870 10.324486
54.875 11.114493
54.880 10.904672
54.885 10.624464
54.890 10.388535
54.895 10.49077
54.900 10.368171
54.905 10.188991
54.910 10.402514
54.915 10.945331
54.920 10.77091
54.925 10.719901
54.930 10.508657
54.935 10.363121
54.940 10.340577
54.945 10.159622
54.950 10.184213
54.955 10.333996
54.960 10.670209
54.965 10.682456
54.970 10.643216
54.975 10.59415
54.980 10.674847
54.985 10.657981
54.990 10.753781
54.995 10.22763
55.000 10.06793
55.005 9.904348
55.010 9.861813
55.015 9.687219
55.020 9.841886
55.025 10.249628
55.030 10.663537
55.035 11.267873
55.040 11.169022
55.045 11.428853
55.050 11.793985
55.055 11.562022
55.060 11.185685
55.065 10.694343
55.070 10.39852
55.075 10.140856
55.080 9.668488
55.085 9.713983
55.090 9.682869
55.095 10.373231
55.100 10.776793
55.105 10.90616
55.110 11.1317
55.115 10.883297
55.120 11.151795
55.125 10.988276
55.130 10.377842
55.135 10.47578
55.140 10.825613
55.145 11.072407
55.150 11.405869
55.155 10.870897
55.160 10.998799
55.165 11.198461
55.170 11.189474
55.175 10.907338
55.180 10.847176
55.185 10.618262
55.190 10.976367
55.195 10.984401
55.200 10.911012
55.205 10.859821
55.210 11.137144
55.215 11.279488
55.220 11.207021
55.225 10.808238
55.230 10.910257
55.235 11.249959
55.240 11.305925
55.245 11.293834
55.250 11.503122
55.255 12.385122
55.260 12.893353
55.265 12.867814
55.270 12.409163
55.275 12.218889
55.280 11.854386
55.285 11.410837
55.290 10.840302
55.295 10.919105
55.300 10.934356
55.305 10.784557
55.310 10.735745
55.315 10.982709
55.320 10.86902
55.325 10.640161
55.330 10.237652
55.335 10.028468
55.340 10.418253
55.345 10.567892
55.350 10.545382
55.355 11.025376
55.360 10.96784
55.365 10.982846
55.370 10.783253
55.375 10.661559
55.380 10.488702
55.385 10.44227
55.390 10.205456
55.395 10.486389
55.400 10.413595
55.405 10.266729
55.410 10.142477
55.415 10.471652
55.420 10.663511
55.425 10.765409
55.430 11.435441
55.435 11.546206
55.440 11.598671
55.445 11.700161
55.450 11.594248
55.455 11.690967
55.460 11.536354
55.465 11.197343
55.470 11.597474
55.475 11.900441
55.480 11.854004
55.485 12.035684
55.490 11.825176
55.495 12.087516
55.500 12.13325
55.505 12.0269
55.510 11.71245
55.515 11.317142
55.520 11.299181
55.525 11.096606
55.530 10.822417
55.535 10.981083
55.540 11.093615
55.545 11.403926
55.550 11.777224
55.555 12.008844
55.560 11.947732
55.565 11.788192
55.570 11.656106
55.575 11.54021
55.580 11.637658
55.585 11.300203
55.590 11.235897
55.595 11.288402
55.600 11.329551
55.605 11.429411
55.610 11.459177
55.615 11.191272
55.620 11.125036
55.625 11.362719
55.630 11.550282
55.635 11.798325
55.640 11.385443
55.645 11.018144
55.650 11.109472
55.655 11.182881
55.660 11.217402
55.665 11.458491
55.670 11.414017
55.675 11.457819
55.680 11.308594
55.685 12.021832
55.690 12.268683
55.695 11.797034
55.700 11.824369
55.705 11.91483
55.710 12.353293
55.715 12.581006
55.720 12.147634
55.725 12.12162
55.730 11.916918
55.735 10.983643
55.740 10.370976
55.745 10.389039
55.750 10.531598
55.755 9.937505
55.760 9.815598
55.765 10.495903
55.770 11.20759
55.775 11.756482
55.780 11.582834
55.785 11.533753
55.790 12.299305
55.795 12.211895
55.800 11.612371
55.805 10.674809
55.810 10.252777
55.815 10.326215
55.820 10.460715
55.825 10.397998
55.830 10.90918
55.835 11.61305
55.840 12.584755
55.845 12.823909
55.850 12.494701
55.855 12.278193
55.860 11.808386
55.865 11.530392
55.870 11.388118
55.875 11.121406
55.880 11.103477
55.885 11.266855
55.890 11.515341
55.895 11.84162
55.900 12.051148
55.905 11.576802
55.910 11.522863
55.915 12.036962
55.920 12.404332
55.925 12.784318
55.930 12.441069
55.935 12.333201
55.940 12.518269
55.945 12.478017
55.950 12.759945
55.955 12.435792
55.960 12.221571
55.965 12.451704
55.970 12.586516
55.975 13.112158
55.980 13.111131
55.985 12.458422
55.990 12.074589
55.995 12.120039
56.000 11.969439
56.005 11.560905
56.010 11.416365
56.015 11.60199
56.020 11.386081
56.025 11.165094
56.030 10.348025
56.035 10.122773
56.040 10.376433
56.045 10.182121
56.050 10.21629
56.055 10.671535
56.060 11.243132
56.065 11.957481
56.070 11.958561
56.075 11.904127
56.080 11.480868
56.085 11.343528
56.090 10.957688
56.095 10.642628
56.100 10.389111
56.105 10.187291
56.110 10.892839
56.115 11.532249
56.120 12.104239
56.125 12.410251
56.130 12.6043
56.135 12.90764
56.140 13.421627
56.145 13.059895
56.150 12.912643
56.155 12.716837
56.160 13.292968
56.165 13.453388
56.170 13.522684
56.175 13.32282
56.180 13.107702
56.185 12.868342
56.190 12.902452
56.195 12.36607
56.200 12.080273
56.205 12.196842
56.210 12.206612
56.215 12.531496
56.220 13.065673
56.225 13.224814
56.230 13.216219
56.235 13.283643
56.240 12.934561
56.245 13.025931
56.250 12.59343
56.255 12.291951
56.260 12.170735
56.265 12.186364
56.270 12.19066
56.275 11.815177
56.280 11.686726
56.285 12.050426
56.290 11.482274
56.295 11.342086
56.300 11.258964
56.305 11.652894
56.310 12.154319
56.315 12.416478
56.320 12.135155
56.325 12.251348
56.330 12.363914
56.335 12.971909
56.340 12.660603
56.345 12.642333
56.350 12.148381
56.355 12.746497
56.360 13.061993
56.365 12.664893
56.370 12.010416
56.375 11.833484
56.380 11.929364
56.385 11.950766
56.390 11.46087
56.395 11.65415
56.400 11.972354
56.405 12.438894
56.410 12.514139
56.415 12.59752
56.420 13.137221
56.425 12.960052
56.430 12.880084
56.435 12.855989
56.440 12.073715
56.445 12.258894
56.450 11.960424
56.455 11.538389
56.460 11.846977
56.465 11.759993
56.470 11.853707
56.475 12.476863
56.480 12.974429
56.485 12.987461
56.490 12.720638
56.495 12.328724
56.500 12.415816
56.505 12.471984
56.510 12.159758
56.515 11.468209
56.520 11.666599
56.525 12.365181
56.530 12.540721
56.535 12.15913
56.540 12.507842
56.545 12.723303
56.550 13.115817
56.555 13.553605
56.560 13.182746
56.565 13.087246
56.570 12.989225
56.575 12.921306
56.580 12.769221
56.585 12.956455
56.590 12.20733
56.595 11.935346
56.600 11.903604
56.605 12.066487
56.610 11.829121
56.615 11.662119
56.620 11.174769
56.625 11.686061
56.630 12.169128
56.635 12.752127
56.640 12.504114
56.645 12.401846
56.650 12.301342
56.655 12.29674
56.660 12.044894
56.665 11.826003
56.670 11.521511
56.675 11.517682
56.680 11.706443
56.685 11.859289
56.690 11.679725
56.695 11.321231
56.700 11.433936
56.705 11.541054
56.710 11.861879
56.715 11.716403
56.720 11.740001
56.725 12.268332
56.730 12.432761
56.735 12.27679
56.740 12.358258
56.745 11.979381
56.750 12.105029
56.755 12.264524
56.760 11.861333
56.765 12.155757
56.770 12.42277
56.775 12.242168
56.780 12.361628
56.785 12.353563
56.790 12.595495
56.795 13.244514
56.800 13.372791
56.805 13.661192
56.810 13.871168
56.815 14.427376
56.820 14.589641
56.825 14.518843
56.830 14.171279
56.835 14.288539
56.840 14.103581
56.845 13.908993
56.850 13.214844
56.855 13.144794
56.860 12.868237
56.865 12.969679
56.870 13.115534
56.875 13.047345
56.880 12.831398
56.885 13.087024
56.890 12.947865
56.895 12.755751
56.900 12.624297
56.905 12.115115
56.910 11.892365
56.915 12.11873
56.920 11.69876
56.925 11.670617
56.930 11.875389
56.935 12.241721
56.940 12.744413
56.945 13.477731
56.950 13.973651
56.955 14.090718
56.960 13.915001
56.965 13.545918
56.970 12.894022
56.975 12.691604
56.980 11.928046
56.985 11.251844
56.990 11.169385
56.995 11.434426
57.000 11.563251
57.005 11.476951
57.010 11.299549
57.015 11.450843
57.020 11.691038
57.025 12.144827
57.030 12.191139
57.035 12.414454
57.040 13.274011
57.045 13.59525
57.050 13.983756
57.055 14.129136
57.060 13.57438
57.065 13.561874
57.070 13.921278
57.075 13.434557
57.080 13.376737
57.085 12.793805
57.090 12.753379
57.095 13.4259
57.100 13.148532
57.105 12.830752
57.110 12.845799
57.115 12.61985
57.120 13.233083
57.125 12.820395
57.130 12.1978
57.135 12.418705
57.140 12.322417
57.145 12.096841
57.150 12.28015
57.155 12.032321
57.160 12.135318
57.165 12.397757
57.170 12.865057
57.175 13.333673
57.180 13.228803
57.185 13.353725
57.190 13.709674
57.195 14.033501
57.200 13.821301
57.205 12.874143
57.210 12.663644
57.215 12.668852
57.220 12.885872
57.225 12.519672
57.230 12.638427
57.235 12.661609
57.240 13.059835
57.245 13.370813
57.250 13.762263
57.255 13.63189
57.260 13.881419
57.265 13.961305
57.270 14.483736
57.275 14.530822
57.280 14.205615
57.285 13.769815
57.290 13.500724
57.295 13.249025
57.300 12.726652
57.305 12.589968
57.310 12.205476
57.315 12.074277
57.320 12.101243
57.325 11.983363
57.330 12.259143
57.335 12.682475
57.340 12.657834
57.345 12.941907
57.350 12.905228
57.355 12.769988
57.360 12.720576
57.365 12.758213
57.370 12.914176
57.375 13.352192
57.380 13.610411
57.385 13.867418
57.390 14.952049
57.395 15.821895
57.400 15.90633
57.405 16.057205
57.410 16.016211
57.415 15.947439
57.420 16.276094
57.425 15.435467
57.430 15.244051
57.435 14.951056
57.440 14.517554
57.445 14.081
57.450 13.833722
57.455 13.32056
57.460 13.520658
57.465 13.482136
57.470 13.446994
57.475 13.048952
57.480 12.984498
57.485 13.188583
57.490 13.398502
57.495 13.404058
57.500 13.065854
57.505 13.132748
57.510 13.482149
57.515 14.193463
57.520 14.262817
57.525 14.385425
57.530 14.111215
57.535 14.253586
57.540 14.344748
57.545 13.846045
57.550 13.11303
57.555 12.715912
57.560 12.745396
57.565 13.469802
57.570 13.768204
57.575 13.964779
57.580 14.003486
57.585 14.10184
57.590 14.415263
57.595 14.66638
57.600 14.208981
57.605 14.116282
57.610 14.092535
57.615 14.045561
57.620 14.12568
57.625 13.63614
57.630 13.351011
57.635 13.658517
57.640 13.285414
57.645 13.060734
57.650 13.858852
57.655 14.125196
57.660 14.342102
57.665 14.705269
57.670 14.415027
57.675 14.568781
57.680 14.485382
57.685 14.042006
57.690 14.203814
57.695 13.819296
57.700 13.343692
57.705 13.633892
57.710 13.824281
57.715 13.8719
57.720 14.040197
57.725 14.024249
57.730 14.16793
57.735 14.036456
57.740 14.110003
57.745 13.799242
57.750 13.76092
57.755 13.26377
57.760 13.017667
57.765 12.884975
57.770 12.648401
57.775 12.437346
57.780 12.830191
57.785 12.42449
57.790 12.39495
57.795 12.735223
57.800 12.801917
57.805 13.171624
57.810 13.295007
57.815 13.557925
57.820 13.937398
57.825 13.827658
57.830 14.016577
57.835 14.020752
57.840 13.798701
57.845 13.459062
57.850 13.341584
57.855 13.455997
57.860 13.697593
57.865 13.828501
57.870 13.736541
57.875 13.520838
57.880 13.366329
57.885 13.005363
57.890 12.920528
57.895 12.761294
57.900 12.751307
57.905 13.145019
57.910 13.909313
57.915 14.432117
57.920 14.827855
57.925 15.094335
57.930 15.147259
57.935 14.772676
57.940 14.371002
57.945 13.43423
57.950 13.028535
57.955 12.688717
57.960 12.439716
57.965 12.087534
57.970 11.828619
57.975 11.868838
57.980 12.355877
57.985 12.956249
57.990 12.99835
57.995 13.359721
58.000 13.693778
58.005 14.234151
58.010 14.764547
58.015 14.36318
58.020 13.947553
58.025 14.070163
58.030 14.207284
58.035 14.225833
58.040 13.853846
58.045 13.809621
58.050 13.90122
58.055 14.074523
58.060 14.230713
58.065 14.157
58.070 14.002164
58.075 14.147335
58.080 14.223862
58.085 14.154198
58.090 14.051775
58.095 13.737394
58.100 13.804818
58.105 13.546702
58.110 13.151055
58.115 12.791894
58.120 12.916121
58.125 12.792059
58.130 12.750132
58.135 12.962275
58.140 13.484095
58.145 14.090884
58.150 14.2739
58.155 14.426755
58.160 14.791355
58.165 14.481708
58.170 14.053061
58.175 13.97709
58.180 13.658638
58.185 13.61808
58.190 13.013593
58.195 12.833437
58.200 13.320041
58.205 13.482289
58.210 13.953343
58.215 14.158238
58.220 14.480452
58.225 14.95839
58.230 14.706448
58.235 14.549315
58.240 14.274679
58.245 13.759244
58.250 13.942945
58.255 13.938769
58.260 13.898676
58.265 13.796369
58.270 13.552752
58.275 13.570115
58.280 13.539948
58.285 13.702366
58.290 13.775628
58.295 13.759177
58.300 14.240371
58.305 14.488024
58.310 14.664285
58.315 14.196103
58.320 13.558824
58.325 13.372256
58.330 13.511165
58.335 13.936291
58.340 14.127031
58.345 14.700144
58.350 15.072695
58.355 15.527001
58.360 15.927436
58.365 15.545802
58.370 15.157352
58.375 15.121268
58.380 15.469755
58.385 15.742514
58.390 15.795423
58.395 15.852633
58.400 16.038
58.405 16.013958
58.410 15.540375
58.415 14.971458
58.420 14.784042
58.425 14.616774
58.430 14.207249
58.435 14.283874
58.440 14.118303
58.445 14.47884
58.450 14.496215
58.455 14.758972
58.460 14.706624
58.465 15.181537
58.470 15.204003
58.475 15.264866
58.480 15.077239
58.485 14.580214
58.490 13.959202
58.495 13.605079
58.500 13.956546
58.505 14.179462
58.510 13.920278
58.515 13.606151
58.520 13.46756
58.525 14.042715
