!@!!GADDS PLOTSO FILE: Chi integration type
!@!!Title/SampleName: map-10b
!@!!Comment: ?
!@!!User: Bruker Instrument Administrator
!@!!Site: University of Illinois Chicago
!@!!Frame: map-10b_01_000.gfrm
!@!!Wavelengths    1.54184   1.54056   1.54439
!@!!Frame angles: 2Theta: 63.000 Omega: 50.000 Phi: 0.000 Chi: 90.000
!@!!Integration range: 2Theta: 53.000 to 73.000  Gamma: -105.000 to -75.000
!@!!Integration method: bin normalized
!@!N
!@!SS
!@!M
!@!L 0.0 0.0 0.0 0.0
!@!XDegrees
!@!YCounts
53.000 7.892229
53.005 8.229919
53.010 8.634101
53.015 8.726912
53.020 9.004079
53.025 8.767626
53.030 9.218769
53.035 9.496162
53.040 9.418913
53.045 9.426122
53.050 9.697131
53.055 10.13499
53.060 10.073962
53.065 9.877378
53.070 9.911894
53.075 9.585393
53.080 8.886306
53.085 8.572544
53.090 8.659436
53.095 8.489952
53.100 8.190253
53.105 8.011786
53.110 8.234632
53.115 8.362982
53.120 8.036345
53.125 7.680529
53.130 7.915377
53.135 8.247649
53.140 8.514498
53.145 8.577938
53.150 8.67279
53.155 8.464478
53.160 8.347367
53.165 8.392502
53.170 8.099614
53.175 8.061128
53.180 7.711654
53.185 7.700752
53.190 8.33424
53.195 8.525688
53.200 8.18697
53.205 8.273315
53.210 8.077383
53.215 7.872763
53.220 7.850755
53.225 7.865063
53.230 7.988518
53.235 7.939174
53.240 8.14751
53.245 8.055899
53.250 8.811193
53.255 9.07002
53.260 8.888237
53.265 8.765918
53.270 8.983868
53.275 8.929214
53.280 9.216126
53.285 9.457541
53.290 9.509889
53.295 9.600441
53.300 9.858254
53.305 9.609712
53.310 9.521338
53.315 9.581124
53.320 9.089006
53.325 8.789758
53.330 8.965315
53.335 8.449637
53.340 8.697807
53.345 8.986034
53.350 9.127534
53.355 9.204339
53.360 8.945285
53.365 9.163193
53.370 9.828938
53.375 9.688421
53.380 9.505716
53.385 9.563498
53.390 9.643343
53.395 10.128278
53.400 9.738998
53.405 9.837292
53.410 10.162016
53.415 10.294504
53.420 10.450457
53.425 10.535006
53.430 10.696078
53.435 10.778371
53.440 10.479047
53.445 10.458705
53.450 10.382167
53.455 10.404442
53.460 10.304945
53.465 9.97514
53.470 10.021128
53.475 9.788361
53.480 9.521717
53.485 9.53605
53.490 9.356576
53.495 9.533595
53.500 9.878305
53.505 9.760228
53.510 9.67891
53.515 9.664805
53.520 9.197727
53.525 9.086693
53.530 9.09198
53.535 8.986438
53.540 9.191112
53.545 9.219428
53.550 9.25085
53.555 9.866784
53.560 9.81342
53.565 9.443146
53.570 9.380964
53.575 9.73385
53.580 9.864021
53.585 9.699395
53.590 9.20373
53.595 9.532062
53.600 9.987935
53.605 10.394032
53.610 10.6669
53.615 11.046552
53.620 11.229275
53.625 11.603663
53.630 11.447294
53.635 11.341379
53.640 11.192055
53.645 10.750317
53.650 10.817182
53.655 10.570354
53.660 10.46503
53.665 10.41893
53.670 10.193576
53.675 9.97909
53.680 9.939378
53.685 10.183109
53.690 10.408888
53.695 10.327156
53.700 9.812104
53.705 9.553061
53.710 9.292423
53.715 8.884986
53.720 8.171161
53.725 8.099313
53.730 8.29178
53.735 9.152258
53.740 9.517544
53.745 9.939445
53.750 10.35231
53.755 10.372051
53.760 10.303615
53.765 10.228663
53.770 9.975427
53.775 9.739626
53.780 9.789931
53.785 9.601603
53.790 9.778264
53.795 10.014771
53.800 10.028561
53.805 10.007668
53.810 10.212399
53.815 10.038932
53.820 10.188531
53.825 9.872928
53.830 9.875327
53.835 10.178818
53.840 10.093109
53.845 10.05111
53.850 9.893448
53.855 9.620891
53.860 9.618202
53.865 9.332347
53.870 9.039154
53.875 9.171371
53.880 9.240068
53.885 9.872231
53.890 10.230756
53.895 10.062512
53.900 10.078077
53.905 10.361242
53.910 10.417622
53.915 9.933418
53.920 10.055947
53.925 10.479733
53.930 10.784629
53.935 11.02663
53.940 10.597396
53.945 10.412108
53.950 10.582448
53.955 10.154949
53.960 9.863099
53.965 9.350957
53.970 8.917741
53.975 9.006514
53.980 8.898666
53.985 8.670547
53.990 8.791604
53.995 9.139485
54.000 9.723897
54.005 10.236401
54.010 10.654096
54.015 10.779123
54.020 10.727247
54.025 10.498709
54.030 9.939445
54.035 9.851425
54.040 9.718437
54.045 9.286457
54.050 9.504703
54.055 9.817575
54.060 10.114202
54.065 10.268238
54.070 10.08876
54.075 10.45411
54.080 10.605018
54.085 10.745109
54.090 10.338762
54.095 10.505137
54.100 11.120399
54.105 10.952212
54.110 10.70889
54.115 10.555352
54.120 10.38969
54.125 10.492862
54.130 10.14941
54.135 10.126278
54.140 10.786302
54.145 11.053724
54.150 10.963374
54.155 10.99804
54.160 10.962069
54.165 11.398945
54.170 10.961336
54.175 10.339705
54.180 10.223539
54.185 10.367764
54.190 10.413469
54.195 10.41557
54.200 9.80916
54.205 10.0584
54.210 10.47405
54.215 10.845461
54.220 10.891759
54.225 11.126261
54.230 11.61527
54.235 11.968302
54.240 11.773051
54.245 11.271871
54.250 11.130881
54.255 11.0939
54.260 10.912356
54.265 10.457222
54.270 10.019823
54.275 9.798704
54.280 9.830557
54.285 10.050391
54.290 10.125495
54.295 10.169053
54.300 10.368154
54.305 11.04119
54.310 10.727967
54.315 9.953679
54.320 9.41237
54.325 9.481882
54.330 9.823421
54.335 9.365328
54.340 9.007343
54.345 9.252892
54.350 10.009292
54.355 10.460565
54.360 10.087423
54.365 9.943331
54.370 9.880137
54.375 10.471797
54.380 10.957398
54.385 10.809795
54.390 10.34756
54.395 10.221589
54.400 10.193166
54.405 9.875336
54.410 9.712145
54.415 9.359505
54.420 9.647147
54.425 10.075311
54.430 10.199186
54.435 10.364004
54.440 10.246544
54.445 10.092122
54.450 10.031028
54.455 9.651804
54.460 9.673612
54.465 9.374203
54.470 8.984461
54.475 8.762546
54.480 8.831287
54.485 8.833755
54.490 8.54204
54.495 8.165977
54.500 8.191397
54.505 8.708589
54.510 9.024768
54.515 9.079734
54.520 9.139829
54.525 9.455901
54.530 9.892821
54.535 10.450688
54.540 10.841151
54.545 11.320741
54.550 11.662405
54.555 12.324529
54.560 12.557193
54.565 12.822166
54.570 12.776397
54.575 12.449982
54.580 11.912289
54.585 12.041642
54.590 12.054453
54.595 12.125822
54.600 12.067681
54.605 12.306469
54.610 12.486745
54.615 12.577288
54.620 12.342218
54.625 12.087862
54.630 11.78186
54.635 11.370965
54.640 10.841497
54.645 11.029365
54.650 11.246297
54.655 11.325057
54.660 11.569923
54.665 11.804066
54.670 12.114925
54.675 12.271187
54.680 11.969914
54.685 11.542825
54.690 11.087729
54.695 10.553447
54.700 10.043253
54.705 9.560523
54.710 9.099876
54.715 8.895729
54.720 9.273252
54.725 9.422062
54.730 9.835073
54.735 10.327692
54.740 10.537836
54.745 10.859103
54.750 10.759386
54.755 10.727543
54.760 11.130183
54.765 11.216927
54.770 11.088614
54.775 11.70804
54.780 11.979808
54.785 11.722205
54.790 11.398701
54.795 11.347673
54.800 11.382697
54.805 11.461867
54.810 11.492225
54.815 11.871696
54.820 11.987228
54.825 12.090063
54.830 11.613308
54.835 11.093322
54.840 10.710574
54.845 10.058815
54.850 10.298143
54.855 10.704443
54.860 10.725176
54.865 10.903687
54.870 11.549735
54.875 11.507837
54.880 12.0238
54.885 11.726974
54.890 11.826855
54.895 11.646182
54.900 11.620915
54.905 11.314947
54.910 10.985472
54.915 10.399636
54.920 9.666612
54.925 8.934894
54.930 9.197395
54.935 8.989711
54.940 9.461928
54.945 9.953397
54.950 10.474153
54.955 10.954709
54.960 11.384147
54.965 11.799582
54.970 12.388274
54.975 12.299268
54.980 12.146904
54.985 12.02943
54.990 12.251572
54.995 12.203811
55.000 12.080629
55.005 11.730278
55.010 12.120957
55.015 11.955822
55.020 11.781171
55.025 11.543463
55.030 11.357305
55.035 11.001125
55.040 10.873974
55.045 10.743615
55.050 10.73877
55.055 10.503194
55.060 11.098598
55.065 11.506148
55.070 11.95833
55.075 12.104701
55.080 11.931255
55.085 12.204161
55.090 12.338324
55.095 11.754224
55.100 11.460316
55.105 11.055284
55.110 11.399142
55.115 11.378928
55.120 11.495523
55.125 11.58467
55.130 11.201251
55.135 11.397117
55.140 11.605531
55.145 11.722658
55.150 11.749324
55.155 11.89077
55.160 12.182388
55.165 12.861454
55.170 12.855887
55.175 12.494003
55.180 11.913651
55.185 12.007224
55.190 11.625758
55.195 11.5535
55.200 10.813205
55.205 10.626515
55.210 10.545974
55.215 10.706185
55.220 10.446448
55.225 10.286393
55.230 10.49825
55.235 10.857699
55.240 10.795188
55.245 10.988684
55.250 11.090182
55.255 10.8864
55.260 10.823211
55.265 10.493619
55.270 10.512375
55.275 10.773269
55.280 10.81112
55.285 11.172106
55.290 11.940993
55.295 12.180873
55.300 12.3052
55.305 12.074422
55.310 11.930786
55.315 12.081429
55.320 11.896617
55.325 11.743225
55.330 11.892323
55.335 11.85098
55.340 11.440516
55.345 11.514682
55.350 11.373774
55.355 11.686487
55.360 11.48785
55.365 11.413988
55.370 11.923852
55.375 12.318583
55.380 12.337743
55.385 12.219438
55.390 12.256525
55.395 12.720944
55.400 12.357735
55.405 12.186794
55.410 12.22525
55.415 12.222754
55.420 12.21712
55.425 11.757122
55.430 11.64971
55.435 11.825665
55.440 11.489408
55.445 11.376638
55.450 11.28196
55.455 11.537565
55.460 11.100525
55.465 11.255761
55.470 11.650661
55.475 11.962479
55.480 12.149824
55.485 12.688614
55.490 12.840483
55.495 13.30794
55.500 13.236675
55.505 12.97481
55.510 13.024324
55.515 12.623899
55.520 12.276355
55.525 12.051771
55.530 11.852961
55.535 12.058414
55.540 12.023769
55.545 12.232833
55.550 12.556432
55.555 12.287108
55.560 12.390964
55.565 12.542895
55.570 12.10546
55.575 12.076973
55.580 11.981251
55.585 12.046046
55.590 12.202341
55.595 12.499204
55.600 12.148677
55.605 12.364015
55.610 12.411123
55.615 12.274187
55.620 12.365854
55.625 12.462768
55.630 11.80213
55.635 11.875682
55.640 11.517052
55.645 10.811849
55.650 10.586415
55.655 10.446342
55.660 10.230162
55.665 10.591853
55.670 10.612805
55.675 10.64961
55.680 10.684622
55.685 10.533661
55.690 10.226622
55.695 9.754553
55.700 10.128252
55.705 10.387843
55.710 10.711425
55.715 11.050914
55.720 11.627982
55.725 12.013892
55.730 12.277591
55.735 11.539701
55.740 11.587758
55.745 12.034965
55.750 12.382839
55.755 11.933774
55.760 11.843536
55.765 12.043768
55.770 12.671834
55.775 12.757872
55.780 12.390707
55.785 12.319373
55.790 12.844965
55.795 13.117393
55.800 12.905148
55.805 12.572304
55.810 12.325053
55.815 12.313851
55.820 11.920488
55.825 11.656671
55.830 11.761886
55.835 12.028057
55.840 12.283747
55.845 12.06926
55.850 12.036496
55.855 11.775905
55.860 11.63075
55.865 11.525808
55.870 11.431548
55.875 11.153036
55.880 11.461636
55.885 11.912011
55.890 12.148048
55.895 12.153979
55.900 11.949908
55.905 11.991001
55.910 12.475078
55.915 12.551507
55.920 12.609374
55.925 13.03621
55.930 13.374117
55.935 13.411646
55.940 13.069667
55.945 13.110222
55.950 13.096234
55.955 12.628922
55.960 12.363319
55.965 11.507458
55.970 11.497186
55.975 11.390321
55.980 11.016304
55.985 10.688705
55.990 10.611605
55.995 10.542067
56.000 11.094068
56.005 11.319099
56.010 11.568027
56.015 11.507389
56.020 12.196803
56.025 12.770699
56.030 12.599621
56.035 12.318814
56.040 12.097192
56.045 11.912434
56.050 12.005514
56.055 11.441283
56.060 11.384618
56.065 11.420008
56.070 11.754392
56.075 12.012073
56.080 12.254486
56.085 12.515562
56.090 12.562285
56.095 12.54437
56.100 12.414452
56.105 12.209435
56.110 11.964002
56.115 11.557814
56.120 10.982511
56.125 10.682201
56.130 10.89019
56.135 11.093586
56.140 11.630533
56.145 12.234876
56.150 12.470071
56.155 13.053393
56.160 13.646857
56.165 13.28128
56.170 13.112613
56.175 12.382049
56.180 12.507987
56.185 12.774351
56.190 12.331726
56.195 11.946284
56.200 12.76979
56.205 12.857572
56.210 12.863454
56.215 12.550203
56.220 12.243792
56.225 12.520891
56.230 12.880167
56.235 12.869306
56.240 13.149555
56.245 13.147429
56.250 13.084186
56.255 12.691241
56.260 12.538323
56.265 12.118444
56.270 11.39765
56.275 11.018918
56.280 10.880538
56.285 11.583849
56.290 12.611454
56.295 12.751373
56.300 13.069398
56.305 13.606179
56.310 13.98626
56.315 14.175444
56.320 13.948629
56.325 13.301904
56.330 13.433897
56.335 13.393476
56.340 13.480533
56.345 13.667948
56.350 13.652608
56.355 13.378491
56.360 13.357648
56.365 13.03256
56.370 12.975051
56.375 12.982362
56.380 12.80045
56.385 12.36059
56.390 12.36883
56.395 12.230028
56.400 11.966469
56.405 12.129668
56.410 11.979096
56.415 12.149062
56.420 12.595759
56.425 12.621823
56.430 12.637493
56.435 13.023969
56.440 12.564942
56.445 12.436242
56.450 12.396091
56.455 12.549274
56.460 12.52655
56.465 12.393968
56.470 12.405573
56.475 12.929899
56.480 13.105631
56.485 12.925023
56.490 12.80405
56.495 13.597529
56.500 13.721608
56.505 13.865212
56.510 14.187491
56.515 14.357678
56.520 14.876862
56.525 14.725001
56.530 14.249846
56.535 14.058477
56.540 13.896881
56.545 13.29515
56.550 13.143126
56.555 13.22826
56.560 13.330114
56.565 13.313711
56.570 13.509855
56.575 13.637741
56.580 13.364408
56.585 13.086932
56.590 12.792767
56.595 13.155928
56.600 13.063698
56.605 13.142725
56.610 13.725544
56.615 14.022802
56.620 14.385655
56.625 14.121527
56.630 13.403713
56.635 13.583141
56.640 13.283039
56.645 12.902883
56.650 12.763067
56.655 12.865307
56.660 12.466545
56.665 12.487175
56.670 12.708134
56.675 12.275553
56.680 12.205166
56.685 11.946116
56.690 12.386087
56.695 12.958404
56.700 13.36284
56.705 13.511522
56.710 14.148872
56.715 14.238028
56.720 14.273611
56.725 13.97364
56.730 13.998896
56.735 14.143769
56.740 13.850063
56.745 13.483923
56.750 13.584118
56.755 13.852396
56.760 13.829493
56.765 13.086991
56.770 12.67058
56.775 12.17893
56.780 12.414489
56.785 12.350162
56.790 12.183957
56.795 12.050431
56.800 12.623515
56.805 12.609974
56.810 12.732491
56.815 12.822209
56.820 12.670931
56.825 13.019726
56.830 13.32294
56.835 13.234682
56.840 13.506583
56.845 13.758499
56.850 13.421507
56.855 13.394804
56.860 13.206395
56.865 13.295471
56.870 13.534673
56.875 13.496402
56.880 13.735076
56.885 13.820681
56.890 13.871951
56.895 13.755058
56.900 13.365632
56.905 13.118567
56.910 12.756387
56.915 12.435669
56.920 12.354343
56.925 11.997035
56.930 11.982575
56.935 12.215465
56.940 12.602648
56.945 13.233431
56.950 13.42588
56.955 13.832544
56.960 14.26963
56.965 14.550164
56.970 14.906125
56.975 15.122623
56.980 15.169869
56.985 14.74045
56.990 14.505364
56.995 14.572893
57.000 14.179856
57.005 13.632484
57.010 13.337173
57.015 13.087361
57.020 13.464888
57.025 13.834793
57.030 13.863134
57.035 14.068492
57.040 13.873322
57.045 14.131428
57.050 14.300503
57.055 14.166098
57.060 13.862714
57.065 14.073409
57.070 13.941014
57.075 14.097998
57.080 14.179509
57.085 14.080842
57.090 14.40659
57.095 14.781898
57.100 14.92063
57.105 15.340939
57.110 15.325128
57.115 15.021277
57.120 14.908573
57.125 14.340408
57.130 13.819279
57.135 13.645002
57.140 13.667882
57.145 14.051319
57.150 14.638249
57.155 14.951153
57.160 14.833995
57.165 14.52319
57.170 14.137621
57.175 14.442696
57.180 14.222481
57.185 13.451133
57.190 13.452927
57.195 13.457659
57.200 13.823482
57.205 13.793564
57.210 13.538715
57.215 13.489266
57.220 13.633047
57.225 13.529186
57.230 13.597823
57.235 13.721076
57.240 14.572206
57.245 14.105238
57.250 13.878351
57.255 13.994301
57.260 14.23784
57.265 14.065693
57.270 13.678349
57.275 13.211317
57.280 13.403055
57.285 13.639917
57.290 13.454567
57.295 13.298703
57.300 13.841675
57.305 13.965549
57.310 13.824958
57.315 13.832014
57.320 13.704855
57.325 13.947592
57.330 14.30853
57.335 14.094954
57.340 14.022374
57.345 14.024623
57.350 14.004874
57.355 14.052594
57.360 13.680972
57.365 13.335773
57.370 13.77322
57.375 13.891828
57.380 14.347742
57.385 14.400416
57.390 14.578403
57.395 14.738054
57.400 14.62033
57.405 14.373281
57.410 14.42224
57.415 14.133163
57.420 13.927184
57.425 14.037018
57.430 14.749316
57.435 15.026825
57.440 14.843762
57.445 14.184042
57.450 14.055611
57.455 14.301885
57.460 14.351877
57.465 14.32796
57.470 14.62686
57.475 14.362904
57.480 14.921753
57.485 15.55127
57.490 15.28863
57.495 15.049394
57.500 14.390388
57.505 14.071439
57.510 14.185259
57.515 13.825067
57.520 13.037827
57.525 13.020347
57.530 12.62436
57.535 12.84871
57.540 13.315767
57.545 13.337117
57.550 13.4757
57.555 14.182211
57.560 14.760838
57.565 15.150031
57.570 14.781176
57.575 14.775205
57.580 14.701424
57.585 14.469022
57.590 13.880075
57.595 13.62492
57.600 13.674212
57.605 13.24604
57.610 13.413107
57.615 13.888094
57.620 14.330548
57.625 14.631871
57.630 14.294717
57.635 13.884726
57.640 14.096113
57.645 14.174977
57.650 14.101029
57.655 14.175995
57.660 14.851667
57.665 15.396641
57.670 15.134676
57.675 15.433551
57.680 14.980696
57.685 14.93661
57.690 14.715046
57.695 14.121098
57.700 13.811948
57.705 14.35621
57.710 14.039085
57.715 14.447839
57.720 14.549952
57.725 14.213481
57.730 14.646922
57.735 15.405024
57.740 15.314209
57.745 15.132807
57.750 14.591607
57.755 14.825921
57.760 15.425832
57.765 15.258582
57.770 14.554704
57.775 14.805348
57.780 14.910994
57.785 15.064967
57.790 14.634198
57.795 14.408283
57.800 13.798159
57.805 13.664433
57.810 13.520517
57.815 13.726364
57.820 13.472329
57.825 13.600002
57.830 13.480997
57.835 13.875005
57.840 14.674002
57.845 14.542691
57.850 14.742391
57.855 15.031524
57.860 15.28518
57.865 15.530541
57.870 15.754245
57.875 15.732405
57.880 15.763916
57.885 15.616486
57.890 15.239996
57.895 14.899181
57.900 15.021865
57.905 15.383793
57.910 15.237411
57.915 15.43082
57.920 15.882896
57.925 16.025078
57.930 16.266068
57.935 16.096544
57.940 15.942511
57.945 16.243027
57.950 16.044985
57.955 15.651509
57.960 15.802299
57.965 15.344311
57.970 15.09793
57.975 14.50441
57.980 13.749345
57.985 13.622258
57.990 13.42807
57.995 12.948788
58.000 13.272883
58.005 13.417849
58.010 14.024548
58.015 14.255926
58.020 14.462823
58.025 14.718981
58.030 15.058513
58.035 15.483871
58.040 15.566599
58.045 15.206369
58.050 15.549815
58.055 15.720357
58.060 15.84897
58.065 15.483761
58.070 15.058183
58.075 15.285169
58.080 14.881201
58.085 14.781733
58.090 14.427037
58.095 14.189371
58.100 14.282737
58.105 14.324767
58.110 14.560572
58.115 14.976106
58.120 14.947503
58.125 15.558984
58.130 15.820368
58.135 15.73448
58.140 15.321974
58.145 14.907583
58.150 14.828849
58.155 14.602224
58.160 14.105998
58.165 14.42605
58.170 14.799738
58.175 14.745059
58.180 14.359486
58.185 14.291353
58.190 14.679109
58.195 14.774878
58.200 14.348718
58.205 14.433527
58.210 14.595335
58.215 14.868234
58.220 14.894168
58.225 14.812977
58.230 14.801422
58.235 14.907323
58.240 14.703832
58.245 14.16238
58.250 13.772237
58.255 13.417471
58.260 13.175152
58.265 12.862928
58.270 12.900332
58.275 12.511208
58.280 12.842157
58.285 13.22836
58.290 13.510502
58.295 13.952221
58.300 14.263073
58.305 14.554853
58.310 14.947143
58.315 15.617595
58.320 15.839938
58.325 15.353689
58.330 14.844532
58.335 14.987899
58.340 14.853549
58.345 15.015635
58.350 14.410054
58.355 14.644683
58.360 15.001122
58.365 15.164026
58.370 15.120404
58.375 15.184633
58.380 14.994759
58.385 15.289155
58.390 15.180267
58.395 15.426583
58.400 15.736904
58.405 15.338395
58.410 15.291819
58.415 15.209205
58.420 15.110053
58.425 15.092834
58.430 14.732693
58.435 14.567986
58.440 14.601145
58.445 14.1111
58.450 14.080868
58.455 14.025553
58.460 13.926857
58.465 13.976912
58.470 13.461406
58.475 14.053125
58.480 15.083346
58.485 15.48616
58.490 15.351507
58.495 15.460477
