!@!!GADDS PLOTSO FILE: Chi integration type
!@!!Title/SampleName: map-3c
!@!!Comment: ?
!@!!User: Bruker Instrument Administrator
!@!!Site: University of Illinois Chicago
!@!!Frame: map-3c_01_000.gfrm
!@!!Wavelengths    1.54184   1.54056   1.54439
!@!!Frame angles: 2Theta: 63.000 Omega: 50.000 Phi: 0.000 Chi: 90.000
!@!!Integration range: 2Theta: 53.000 to 73.000  Gamma: -105.000 to -75.000
!@!!Integration method: bin normalized
!@!N
!@!SS
!@!M
!@!L 0.0 0.0 0.0 0.0
!@!XDegrees
!@!YCounts
53.000 6.694209
53.005 6.891792
53.010 6.686866
53.015 7.200519
53.020 7.123741
53.025 6.719773
53.030 6.551634
53.035 6.220745
53.040 6.031954
53.045 5.937862
53.050 5.688094
53.055 5.69722
53.060 5.752331
53.065 5.426371
53.070 5.383099
53.075 5.420451
53.080 5.367995
53.085 5.327661
53.090 5.815444
53.095 6.645086
53.100 7.123673
53.105 7.204848
53.110 7.448858
53.115 8.188815
53.120 7.988891
53.125 7.405131
53.130 6.997006
53.135 6.572856
53.140 6.763511
53.145 6.375811
53.150 6.018833
53.155 5.789347
53.160 5.695227
53.165 5.454241
53.170 5.4562
53.175 5.508662
53.180 5.790602
53.185 5.950455
53.190 6.457038
53.195 6.579308
53.200 7.048129
53.205 7.145236
53.210 7.048979
53.215 7.457445
53.220 7.540332
53.225 7.563377
53.230 7.516585
53.235 7.603593
53.240 7.739067
53.245 7.827158
53.250 7.073047
53.255 6.831081
53.260 6.973365
53.265 6.978863
53.270 6.795948
53.275 6.935532
53.280 6.791575
53.285 7.071767
53.290 7.286705
53.295 6.923087
53.300 6.742322
53.305 6.424034
53.310 5.991617
53.315 6.260606
53.320 6.028923
53.325 5.910134
53.330 6.082157
53.335 6.454236
53.340 6.780985
53.345 7.184959
53.350 7.493705
53.355 8.382735
53.360 8.557256
53.365 9.077869
53.370 9.166551
53.375 9.425307
53.380 9.141398
53.385 8.390031
53.390 7.899665
53.395 7.800911
53.400 7.329325
53.405 7.292322
53.410 7.510659
53.415 7.647485
53.420 7.489813
53.425 7.549662
53.430 7.36322
53.435 7.514751
53.440 7.112427
53.445 6.853083
53.450 6.98627
53.455 7.300458
53.460 7.703101
53.465 8.20368
53.470 8.291651
53.475 8.296839
53.480 8.404788
53.485 8.068624
53.490 7.860805
53.495 7.773383
53.500 7.297176
53.505 7.042121
53.510 7.013023
53.515 7.112175
53.520 7.570457
53.525 7.353477
53.530 6.787967
53.535 6.697346
53.540 6.672475
53.545 6.773883
53.550 6.849301
53.555 6.473693
53.560 6.884441
53.565 7.785857
53.570 8.350462
53.575 8.274722
53.580 7.976343
53.585 7.920546
53.590 8.13208
53.595 7.761663
53.600 7.110836
53.605 6.985651
53.610 7.245666
53.615 7.664048
53.620 7.67783
53.625 7.827976
53.630 8.065758
53.635 8.148866
53.640 8.085214
53.645 7.775462
53.650 7.761883
53.655 7.595363
53.660 7.755735
53.665 7.957531
53.670 7.951354
53.675 7.903681
53.680 7.816493
53.685 7.697346
53.690 7.788166
53.695 7.467305
53.700 7.512447
53.705 7.574361
53.710 7.299077
53.715 7.582398
53.720 7.444104
53.725 7.187077
53.730 7.094131
53.735 6.800126
53.740 6.834697
53.745 7.02749
53.750 7.039513
53.755 7.03962
53.760 7.263431
53.765 7.541974
53.770 8.069313
53.775 8.17513
53.780 8.074886
53.785 7.852698
53.790 7.989552
53.795 7.973182
53.800 7.921905
53.805 7.883144
53.810 7.950732
53.815 7.718135
53.820 7.866279
53.825 7.867606
53.830 7.831946
53.835 7.793794
53.840 7.581585
53.845 7.804452
53.850 7.994958
53.855 7.829999
53.860 8.090117
53.865 7.866847
53.870 7.648154
53.875 7.478843
53.880 7.269753
53.885 7.335717
53.890 7.183782
53.895 7.523226
53.900 7.810692
53.905 8.194563
53.910 8.491566
53.915 8.711303
53.920 9.160447
53.925 9.307969
53.930 9.157383
53.935 8.569399
53.940 8.338975
53.945 8.109407
53.950 7.743279
53.955 7.680855
53.960 7.316637
53.965 7.530297
53.970 7.626007
53.975 7.742807
53.980 7.870885
53.985 7.802533
53.990 7.802133
53.995 7.669589
54.000 7.571228
54.005 7.480052
54.010 7.205969
54.015 7.423959
54.020 7.45547
54.025 7.641122
54.030 8.040214
54.035 8.248817
54.040 8.58264
54.045 8.595895
54.050 8.594593
54.055 8.421704
54.060 8.199206
54.065 8.071686
54.070 8.0162
54.075 8.008996
54.080 8.129931
54.085 8.480662
54.090 8.634452
54.095 8.715349
54.100 8.62639
54.105 8.683635
54.110 8.22509
54.115 8.220467
54.120 8.129833
54.125 8.472909
54.130 8.418691
54.135 7.936885
54.140 8.132285
54.145 8.552989
54.150 8.32831
54.155 8.196841
54.160 7.697229
54.165 7.549167
54.170 8.087498
54.175 8.105879
54.180 7.985479
54.185 8.268317
54.190 8.422984
54.195 8.51748
54.200 9.04567
54.205 8.491604
54.210 8.396717
54.215 8.243966
54.220 7.74393
54.225 7.769704
54.230 8.074621
54.235 8.319341
54.240 8.237723
54.245 8.397795
54.250 8.651887
54.255 9.083165
54.260 8.825602
54.265 8.660169
54.270 8.679155
54.275 8.930213
54.280 8.808994
54.285 8.80261
54.290 8.936097
54.295 8.794524
54.300 8.422195
54.305 8.64615
54.310 8.828507
54.315 9.11789
54.320 9.160096
54.325 9.123258
54.330 9.166879
54.335 9.37284
54.340 9.028499
54.345 8.778773
54.350 8.492103
54.355 8.484553
54.360 8.553139
54.365 8.882095
54.370 9.228755
54.375 9.202765
54.380 9.342552
54.385 9.318274
54.390 9.0336
54.395 8.646879
54.400 8.378529
54.405 7.631711
54.410 7.977751
54.415 7.878204
54.420 7.823171
54.425 8.142119
54.430 8.195929
54.435 8.161828
54.440 8.355399
54.445 8.163527
54.450 8.159176
54.455 8.120331
54.460 8.015948
54.465 8.237287
54.470 8.241415
54.475 8.46804
54.480 8.669227
54.485 8.582711
54.490 8.516468
54.495 8.438549
54.500 8.312281
54.505 8.74472
54.510 8.830064
54.515 8.581224
54.520 8.67678
54.525 8.860522
54.530 8.823789
54.535 8.699803
54.540 8.264625
54.545 8.447535
54.550 8.602494
54.555 8.420381
54.560 8.38329
54.565 8.354778
54.570 8.177769
54.575 8.482528
54.580 8.456771
54.585 8.417878
54.590 8.356368
54.595 8.433188
54.600 8.40333
54.605 8.500975
54.610 8.315373
54.615 8.192292
54.620 8.059267
54.625 7.915859
54.630 7.894982
54.635 8.016381
54.640 8.035835
54.645 7.505666
54.650 7.75812
54.655 7.980522
54.660 8.115233
54.665 7.894538
54.670 7.816981
54.675 7.985158
54.680 8.035649
54.685 7.416452
54.690 7.448483
54.695 7.42175
54.700 7.6714
54.705 7.73521
54.710 7.28489
54.715 7.303568
54.720 7.611809
54.725 7.473269
54.730 7.56355
54.735 7.704389
54.740 8.005129
54.745 8.062304
54.750 8.33019
54.755 8.562467
54.760 8.588892
54.765 8.656718
54.770 8.586437
54.775 8.514002
54.780 8.888824
54.785 8.957201
54.790 9.079447
54.795 9.366742
54.800 9.176411
54.805 9.099546
54.810 9.129917
54.815 9.061152
54.820 8.674158
54.825 8.480178
54.830 8.3112
54.835 8.899392
54.840 9.137312
54.845 9.409506
54.850 9.432641
54.855 9.945657
54.860 10.246112
54.865 10.313583
54.870 9.694228
54.875 9.381042
54.880 8.764338
54.885 8.847621
54.890 8.781307
54.895 8.829322
54.900 8.568623
54.905 8.65354
54.910 9.1432
54.915 9.585316
54.920 9.530692
54.925 9.362573
54.930 9.424109
54.935 9.44988
54.940 9.491134
54.945 9.229629
54.950 9.025896
54.955 8.951538
54.960 8.828012
54.965 8.433678
54.970 8.518994
54.975 8.447827
54.980 7.951868
54.985 7.999251
54.990 7.726973
54.995 8.060022
55.000 8.664347
55.005 8.824183
55.010 8.846576
55.015 8.972795
55.020 9.349146
55.025 9.887012
55.030 9.306744
55.035 8.847189
55.040 8.54515
55.045 8.692132
55.050 9.379277
55.055 9.491561
55.060 9.203623
55.065 9.509459
55.070 9.887531
55.075 10.490355
55.080 10.513761
55.085 9.873507
55.090 9.685797
55.095 9.605976
55.100 9.757645
55.105 9.369016
55.110 9.235103
55.115 9.201279
55.120 9.173554
55.125 9.070051
55.130 10.019241
55.135 10.209329
55.140 10.279374
55.145 9.950838
55.150 9.667022
55.155 9.681755
55.160 9.632565
55.165 8.863562
55.170 8.748313
55.175 8.648573
55.180 8.710166
55.185 8.834889
55.190 8.712357
55.195 8.582562
55.200 8.227306
55.205 7.906897
55.210 8.025006
55.215 8.201883
55.220 9.334885
55.225 9.556262
55.230 9.825475
55.235 10.013984
55.240 10.219329
55.245 10.410254
55.250 9.78143
55.255 9.239614
55.260 9.563995
55.265 9.693597
55.270 9.896959
55.275 9.468516
55.280 9.430442
55.285 9.878875
55.290 9.510512
55.295 9.25347
55.300 8.930638
55.305 8.829137
55.310 9.248479
55.315 9.177883
55.320 9.139183
55.325 8.818772
55.330 8.523603
55.335 8.764972
55.340 8.651073
55.345 8.758202
55.350 8.787749
55.355 8.574348
55.360 9.121976
55.365 9.376972
55.370 9.585326
55.375 9.813303
55.380 9.897647
55.385 10.200503
55.390 10.567089
55.395 10.146621
55.400 9.973463
55.405 9.797087
55.410 9.552606
55.415 9.067334
55.420 8.536057
55.425 8.763332
55.430 8.802451
55.435 8.637316
55.440 9.133093
55.445 9.224212
55.450 9.406822
55.455 9.669769
55.460 9.209979
55.465 9.806554
55.470 9.76146
55.475 9.664124
55.480 9.634862
55.485 9.93191
55.490 10.070059
55.495 9.673551
55.500 9.682294
55.505 9.95643
55.510 10.139251
55.515 10.349325
55.520 10.091888
55.525 10.212127
55.530 10.397469
55.535 10.006538
55.540 9.769889
55.545 9.380539
55.550 9.459764
55.555 9.799125
55.560 9.284182
55.565 9.379032
55.570 9.359682
55.575 9.567814
55.580 9.778007
55.585 9.877688
55.590 9.815312
55.595 10.284553
55.600 10.249965
55.605 9.856175
55.610 9.525152
55.615 9.781832
55.620 9.963247
55.625 10.086688
55.630 9.7064
55.635 9.746333
55.640 10.422174
55.645 10.423728
55.650 10.217575
55.655 9.678086
55.660 9.690495
55.665 10.377926
55.670 10.479938
55.675 10.234505
55.680 10.254162
55.685 10.478299
55.690 11.163461
55.695 11.03574
55.700 10.185089
55.705 9.82768
55.710 9.7705
55.715 9.909362
55.720 9.474393
55.725 8.753877
55.730 8.777972
55.735 9.185926
55.740 9.483741
55.745 9.412549
55.750 9.018272
55.755 8.969753
55.760 9.260557
55.765 9.304983
55.770 9.111265
55.775 9.184197
55.780 9.304475
55.785 9.464272
55.790 9.118169
55.795 8.971566
55.800 8.908091
55.805 8.849848
55.810 9.166409
55.815 9.56971
55.820 9.985391
55.825 10.304673
55.830 10.382479
55.835 11.220537
55.840 11.386775
55.845 10.839899
55.850 10.213931
55.855 9.987121
55.860 10.045323
55.865 9.861696
55.870 9.216795
55.875 9.466371
55.880 9.511254
55.885 10.178359
55.890 10.338472
55.895 10.730356
55.900 10.998302
55.905 10.791232
55.910 10.497316
55.915 10.471498
55.920 10.46567
55.925 10.179974
55.930 9.401873
55.935 9.47968
55.940 9.711318
55.945 10.215062
55.950 10.768275
55.955 10.875381
55.960 11.221403
55.965 11.121216
55.970 10.514729
55.975 10.566219
55.980 10.225037
55.985 9.457459
55.990 9.137918
55.995 9.170352
56.000 9.909857
56.005 10.419182
56.010 9.943343
56.015 9.79098
56.020 9.774617
56.025 9.875726
56.030 9.907139
56.035 9.879993
56.040 9.825691
56.045 9.904869
56.050 10.315104
56.055 10.261963
56.060 10.142115
56.065 10.117571
56.070 10.292169
56.075 10.64141
56.080 10.647491
56.085 10.337646
56.090 10.261195
56.095 10.018854
56.100 10.01883
56.105 9.778693
56.110 9.649345
56.115 9.407569
56.120 9.751581
56.125 10.288833
56.130 10.536419
56.135 10.3596
56.140 10.219022
56.145 10.334834
56.150 10.95405
56.155 10.44543
56.160 10.280541
56.165 10.3729
56.170 10.848236
56.175 10.638568
56.180 10.297127
56.185 9.930948
56.190 10.040845
56.195 10.105572
56.200 9.538358
56.205 9.439689
56.210 9.921234
56.215 10.40868
56.220 10.576207
56.225 10.673553
56.230 11.35063
56.235 11.915465
56.240 11.789776
56.245 11.685773
56.250 11.226995
56.255 11.151685
56.260 11.240401
56.265 10.222749
56.270 9.738789
56.275 9.496244
56.280 9.201245
56.285 9.364854
56.290 9.615857
56.295 9.574489
56.300 9.971376
56.305 9.834028
56.310 10.071721
56.315 10.914012
56.320 11.053754
56.325 10.835387
56.330 10.961588
56.335 10.923297
56.340 11.149939
56.345 10.767791
56.350 10.965488
56.355 11.205406
56.360 11.193726
56.365 10.911472
56.370 10.958633
56.375 11.19624
56.380 11.382403
56.385 10.819566
56.390 10.774381
56.395 10.929214
56.400 10.91297
56.405 10.835237
56.410 11.061646
56.415 10.768996
56.420 10.829131
56.425 10.815426
56.430 11.041142
56.435 11.253625
56.440 11.369255
56.445 11.230777
56.450 11.72188
56.455 11.673513
56.460 11.420928
56.465 11.336786
56.470 11.271245
56.475 11.056376
56.480 11.402089
56.485 10.985188
56.490 10.534612
56.495 10.388356
56.500 9.93681
56.505 10.15324
56.510 10.075485
56.515 9.824161
56.520 10.112216
56.525 10.797718
56.530 11.045898
56.535 11.302563
56.540 11.068623
56.545 10.981025
56.550 11.640297
56.555 11.62191
56.560 11.711897
56.565 11.527364
56.570 11.342833
56.575 11.261876
56.580 11.300301
56.585 10.349579
56.590 10.251125
56.595 10.143826
56.600 10.84435
56.605 11.147609
56.610 11.065943
56.615 11.205095
56.620 11.208076
56.625 10.475198
56.630 10.052291
56.635 9.526042
56.640 9.568611
56.645 9.847477
56.650 9.529759
56.655 9.878749
56.660 10.56325
56.665 11.384985
56.670 11.584582
56.675 11.515052
56.680 11.388272
56.685 11.73609
56.690 11.87428
56.695 11.606836
56.700 10.905003
56.705 11.030996
56.710 11.026761
56.715 10.473253
56.720 10.333323
56.725 10.755287
56.730 10.759892
56.735 11.263281
56.740 11.467132
56.745 11.483934
56.750 12.505003
56.755 12.883534
56.760 12.674792
56.765 12.913944
56.770 12.436584
56.775 12.246847
56.780 12.374841
56.785 12.500705
56.790 12.616088
56.795 12.619437
56.800 12.508388
56.805 12.730094
56.810 12.392543
56.815 12.388058
56.820 11.628521
56.825 11.248976
56.830 11.424975
56.835 11.727654
56.840 11.391878
56.845 11.460964
56.850 11.768543
56.855 11.333122
56.860 11.280477
56.865 11.121819
56.870 10.967469
56.875 10.944605
56.880 10.96209
56.885 10.990239
56.890 11.835809
56.895 12.032972
56.900 11.519565
56.905 11.275286
56.910 11.564614
56.915 11.744143
56.920 11.831139
56.925 11.656956
56.930 11.908514
56.935 12.54579
56.940 12.859661
56.945 12.894104
56.950 12.471424
56.955 12.216899
56.960 12.192778
56.965 12.301478
56.970 11.886606
56.975 11.599421
56.980 11.630754
56.985 11.952278
56.990 12.284829
56.995 12.368457
57.000 12.490516
57.005 13.14703
57.010 13.774427
57.015 13.966822
57.020 14.167527
57.025 14.116857
57.030 13.953152
57.035 13.666068
57.040 13.715258
57.045 13.214874
57.050 12.996887
57.055 12.369421
57.060 12.16716
57.065 11.818402
57.070 11.644907
57.075 11.093402
57.080 10.959779
57.085 10.575989
57.090 10.490028
57.095 10.294949
57.100 10.599289
57.105 10.795549
57.110 11.381251
57.115 11.616961
57.120 11.549269
57.125 11.233695
57.130 11.12896
57.135 11.308555
57.140 11.276361
57.145 11.4253
57.150 11.204443
57.155 11.411075
57.160 12.01601
57.165 12.511812
57.170 12.200162
57.175 12.128
57.180 12.056354
57.185 12.87427
57.190 13.150885
57.195 12.840535
57.200 12.919927
57.205 13.18034
57.210 12.920137
57.215 12.310812
57.220 11.681529
57.225 11.67401
57.230 11.777138
57.235 11.214664
57.240 11.581264
57.245 11.898969
57.250 12.320681
57.255 12.792313
57.260 13.166781
57.265 12.836398
57.270 12.621716
57.275 12.512251
57.280 12.665594
57.285 12.426864
57.290 12.742221
57.295 12.36231
57.300 12.528307
57.305 12.864263
57.310 12.859033
57.315 13.182905
57.320 13.405216
57.325 12.849166
57.330 13.126927
57.335 12.808256
57.340 12.278868
57.345 11.70943
57.350 11.106926
57.355 10.76276
57.360 10.916737
57.365 11.149333
57.370 11.589509
57.375 11.93201
57.380 12.18324
57.385 12.057095
57.390 12.148564
57.395 12.457262
57.400 12.620034
57.405 12.50802
57.410 12.25414
57.415 12.573699
57.420 12.831221
57.425 12.552246
57.430 12.025195
57.435 11.775445
57.440 11.874557
57.445 12.060834
57.450 11.289683
57.455 11.214926
57.460 10.98681
57.465 11.137296
57.470 10.574006
57.475 10.717621
57.480 10.68499
57.485 10.532727
57.490 10.678081
57.495 11.098816
57.500 11.046554
57.505 11.411448
57.510 11.333062
57.515 11.736862
57.520 12.27274
57.525 12.652422
57.530 12.438573
57.535 12.696693
57.540 12.581124
57.545 12.523103
57.550 12.661208
57.555 12.259143
57.560 11.845391
57.565 12.078173
57.570 12.147667
57.575 11.781877
57.580 11.041427
57.585 10.685848
57.590 11.234981
57.595 11.64455
57.600 11.351417
57.605 11.133359
57.610 12.036639
57.615 12.645937
57.620 12.425731
57.625 11.99181
57.630 12.511803
57.635 12.624435
57.640 12.771486
57.645 12.397866
57.650 12.726586
57.655 12.93402
57.660 12.464823
57.665 11.79675
57.670 11.731893
57.675 11.839635
57.680 11.98586
57.685 11.790109
57.690 11.968351
57.695 12.043109
57.700 11.818317
57.705 11.63243
57.710 11.54669
57.715 11.175204
57.720 11.179787
57.725 11.628537
57.730 11.926379
57.735 12.440419
57.740 12.617464
57.745 12.596026
57.750 12.797389
57.755 12.611944
57.760 12.669915
57.765 12.784941
57.770 12.454181
57.775 12.459986
57.780 12.493988
57.785 12.673525
57.790 12.255502
57.795 12.283451
57.800 12.353992
57.805 12.748199
57.810 12.954851
57.815 13.311556
57.820 13.407678
57.825 13.985703
57.830 14.033292
57.835 14.112135
57.840 13.884317
57.845 14.123217
57.850 13.880529
57.855 13.759232
57.860 13.358162
57.865 13.151561
57.870 12.902151
57.875 12.963334
57.880 12.112297
57.885 11.938941
57.890 12.066733
57.895 12.442103
57.900 12.770018
57.905 13.101966
57.910 12.844496
57.915 13.026441
57.920 13.564182
57.925 13.222075
57.930 12.746847
57.935 12.468761
57.940 12.55073
57.945 12.272196
57.950 12.234401
57.955 11.569712
57.960 12.167851
57.965 12.351595
57.970 11.649465
57.975 11.622913
57.980 12.1732
57.985 12.411993
57.990 12.53337
57.995 11.875862
58.000 12.120997
58.005 12.487988
58.010 12.531775
58.015 12.423822
58.020 11.926402
58.025 12.181236
58.030 12.261893
58.035 12.152847
58.040 12.812709
58.045 12.779475
58.050 12.959397
58.055 13.082106
58.060 13.271451
58.065 13.636202
58.070 13.491156
58.075 13.064933
58.080 12.954452
58.085 13.112528
58.090 13.085135
58.095 12.944748
58.100 12.743093
58.105 12.723546
58.110 12.716828
58.115 12.658308
58.120 12.573627
58.125 12.586625
58.130 12.665788
58.135 12.951005
58.140 13.401074
58.145 13.231996
58.150 13.148742
58.155 13.36454
58.160 13.592537
58.165 13.751893
58.170 13.901649
58.175 13.184555
58.180 12.783673
58.185 13.136288
58.190 13.388699
58.195 13.584784
58.200 13.256942
58.205 13.357335
58.210 13.821134
58.215 14.330301
58.220 14.721846
58.225 14.303672
58.230 13.98258
58.235 13.893616
58.240 13.389642
58.245 13.47646
58.250 13.323712
58.255 12.85299
58.260 12.959284
58.265 12.85619
58.270 12.904151
58.275 13.459485
58.280 13.88848
58.285 13.561935
58.290 13.757656
58.295 13.730191
58.300 14.090202
58.305 14.660569
58.310 14.144806
58.315 13.25268
58.320 13.19074
58.325 12.803582
58.330 12.428262
58.335 12.296281
58.340 11.735295
58.345 11.951751
58.350 12.524734
58.355 12.961646
58.360 13.069633
58.365 13.318336
58.370 12.8658
58.375 13.186738
58.380 13.408186
58.385 12.979531
58.390 12.772105
58.395 12.792586
58.400 12.520557
58.405 12.491646
58.410 11.862016
58.415 12.092909
58.420 12.649912
58.425 12.361901
58.430 12.396084
58.435 12.701531
58.440 13.165822
58.445 13.480374
58.450 13.507989
58.455 13.619578
58.460 13.999152
58.465 14.24871
58.470 14.664862
58.475 14.718273
58.480 15.312713
58.485 14.991845
58.490 14.546531
58.495 14.813538
58.500 14.343458
58.505 13.895793
58.510 13.354321
58.515 12.976478
58.520 13.575383
58.525 13.962604
58.530 14.021298
58.535 14.099444
58.540 13.89732
58.545 13.754352
58.550 13.255226
58.555 12.535122
58.560 12.413341
58.565 12.009966
58.570 11.916586
58.575 12.237536
58.580 12.476744
58.585 12.414594
58.590 12.979294
58.595 12.72388
58.600 12.670395
