!@!!GADDS PLOTSO FILE: Chi integration type
!@!!Title/SampleName: map-e3
!@!!Comment: ?
!@!!User: Bruker Instrument Administrator
!@!!Site: University of Illinois Chicago
!@!!Frame: map-e3_01_000.gfrm
!@!!Wavelengths    1.54184   1.54056   1.54439
!@!!Frame angles: 2Theta: 63.000 Omega: 50.000 Phi: 0.000 Chi: 90.000
!@!!Integration range: 2Theta: 53.000 to 73.000  Gamma: -105.000 to -75.000
!@!!Integration method: bin normalized
!@!N
!@!SS
!@!M
!@!L 0.0 0.0 0.0 0.0
!@!XDegrees
!@!YCounts
53.000 6.024096
53.005 5.915291
53.010 5.905459
53.015 5.833825
53.020 5.706327
53.025 5.464136
53.030 5.485887
53.035 5.662863
53.040 5.717606
53.045 5.929629
53.050 6.495247
53.055 6.809395
53.060 7.3294
53.065 7.177675
53.070 6.989354
53.075 7.011608
53.080 6.77944
53.085 6.392281
53.090 6.373857
53.095 6.094118
53.100 6.147998
53.105 6.074864
53.110 6.382061
53.115 6.598652
53.120 6.195131
53.125 5.740154
53.130 5.629909
53.135 5.630369
53.140 5.314149
53.145 4.722908
53.150 4.754774
53.155 4.814598
53.160 4.851894
53.165 4.848581
53.170 4.940717
53.175 5.134685
53.180 4.985492
53.185 5.020263
53.190 5.341372
53.195 5.477141
53.200 5.609152
53.205 5.868474
53.210 6.01704
53.215 6.315365
53.220 6.240678
53.225 5.994822
53.230 5.949816
53.235 5.782475
53.240 5.380139
53.245 5.285705
53.250 5.091344
53.255 5.287838
53.260 5.798766
53.265 5.938808
53.270 6.059053
53.275 6.032572
53.280 5.781906
53.285 5.56246
53.290 5.194819
53.295 4.898605
53.300 4.730752
53.305 4.69903
53.310 4.909552
53.315 5.434886
53.320 6.001915
53.325 6.157012
53.330 6.221012
53.335 6.439923
53.340 6.554851
53.345 6.704244
53.350 6.465787
53.355 6.43906
53.360 6.535187
53.365 6.647099
53.370 6.578792
53.375 6.469337
53.380 6.348133
53.385 6.630255
53.390 6.66981
53.395 6.759952
53.400 6.566762
53.405 6.762317
53.410 6.906144
53.415 6.967373
53.420 6.795252
53.425 6.518763
53.430 6.569592
53.435 6.632678
53.440 6.099614
53.445 6.015094
53.450 5.956156
53.455 6.249655
53.460 6.284645
53.465 6.12703
53.470 6.394703
53.475 6.580306
53.480 6.920043
53.485 6.980455
53.490 7.119751
53.495 7.260143
53.500 7.517141
53.505 7.829836
53.510 7.781145
53.515 7.622077
53.520 7.141051
53.525 6.419574
53.530 6.212988
53.535 5.863925
53.540 5.834529
53.545 5.645187
53.550 5.636998
53.555 6.066561
53.560 6.720037
53.565 7.090871
53.570 7.389675
53.575 7.260805
53.580 7.585303
53.585 7.603236
53.590 7.589873
53.595 7.297362
53.600 7.003895
53.605 6.688835
53.610 6.670847
53.615 6.544624
53.620 6.740849
53.625 6.46619
53.630 6.374906
53.635 6.486467
53.640 6.516528
53.645 6.704548
53.650 6.630491
53.655 6.223668
53.660 6.38143
53.665 6.353798
53.670 6.563838
53.675 6.600705
53.680 6.658145
53.685 6.598002
53.690 6.835615
53.695 6.742154
53.700 6.741085
53.705 6.607079
53.710 6.668669
53.715 6.568199
53.720 7.012253
53.725 7.226043
53.730 7.365427
53.735 6.970682
53.740 7.252926
53.745 7.07011
53.750 7.167707
53.755 6.819896
53.760 6.624347
53.765 6.621989
53.770 7.294361
53.775 7.414809
53.780 7.563804
53.785 7.501492
53.790 8.107653
53.795 8.572423
53.800 8.55484
53.805 8.105236
53.810 7.682205
53.815 7.341907
53.820 6.885756
53.825 6.402795
53.830 6.017483
53.835 5.891011
53.840 6.024342
53.845 6.474029
53.850 6.655736
53.855 6.759309
53.860 6.494925
53.865 6.298844
53.870 6.145944
53.875 5.869645
53.880 6.080088
53.885 6.263429
53.890 6.357956
53.895 6.865524
53.900 7.068822
53.905 7.661097
53.910 7.720033
53.915 7.401713
53.920 7.388299
53.925 7.326057
53.930 7.396134
53.935 7.159475
53.940 6.926882
53.945 6.868524
53.950 7.018817
53.955 7.251529
53.960 7.18283
53.965 6.940082
53.970 7.07152
53.975 6.891924
53.980 6.794702
53.985 6.606941
53.990 6.471448
53.995 6.985301
54.000 6.952144
54.005 7.470688
54.010 7.665235
54.015 7.901644
54.020 8.028819
54.025 7.948459
54.030 7.668391
54.035 7.685196
54.040 7.147574
54.045 7.009357
54.050 6.999223
54.055 6.939051
54.060 6.701285
54.065 6.596858
54.070 6.264031
54.075 6.363423
54.080 6.467413
54.085 6.586334
54.090 6.838454
54.095 7.14311
54.100 7.626219
54.105 8.170348
54.110 8.348827
54.115 8.129858
54.120 8.143786
54.125 8.215062
54.130 8.021449
54.135 7.629793
54.140 7.347894
54.145 7.321024
54.150 7.523349
54.155 7.130737
54.160 6.888138
54.165 7.010853
54.170 7.111586
54.175 7.311118
54.180 6.97236
54.185 6.684869
54.190 6.978503
54.195 7.166385
54.200 6.879785
54.205 6.874518
54.210 7.00974
54.215 7.434607
54.220 7.63477
54.225 7.895969
54.230 8.142123
54.235 8.747036
54.240 8.770121
54.245 8.450249
54.250 8.290298
54.255 8.157704
54.260 7.825176
54.265 8.088487
54.270 7.909982
54.275 7.536101
54.280 7.944132
54.285 7.793494
54.290 8.207417
54.295 8.470962
54.300 8.542371
54.305 9.009801
54.310 9.251107
54.315 9.320437
54.320 9.101252
54.325 8.614082
54.330 8.488923
54.335 7.900484
54.340 7.739914
54.345 7.623916
54.350 7.468574
54.355 7.71136
54.360 8.035855
54.365 8.443168
54.370 8.638008
54.375 8.743926
54.380 8.894254
54.385 8.777491
54.390 8.45558
54.395 7.686152
54.400 7.039838
54.405 6.691733
54.410 6.459692
54.415 6.132129
54.420 5.972907
54.425 6.105615
54.430 6.387948
54.435 6.722065
54.440 6.608584
54.445 6.744143
54.450 7.220296
54.455 7.544979
54.460 7.958966
54.465 8.0548
54.470 8.130563
54.475 7.936281
54.480 7.774797
54.485 7.323738
54.490 7.511233
54.495 7.568058
54.500 7.726506
54.505 8.046314
54.510 8.935267
54.515 9.350134
54.520 9.4034
54.525 8.889578
54.530 8.814802
54.535 8.983563
54.540 8.962291
54.545 8.688485
54.550 8.774023
54.555 9.298478
54.560 9.634182
54.565 9.439988
54.570 9.223955
54.575 8.899232
54.580 8.682444
54.585 8.303407
54.590 8.051512
54.595 7.809727
54.600 7.570806
54.605 7.623597
54.610 7.724168
54.615 8.15609
54.620 8.660948
54.625 8.912207
54.630 8.931298
54.635 8.851233
54.640 8.664791
54.645 8.543806
54.650 8.910306
54.655 8.439001
54.660 7.995227
54.665 8.400354
54.670 8.424896
54.675 8.263786
54.680 7.902462
54.685 7.929805
54.690 8.446034
54.695 8.72911
54.700 8.195292
54.705 8.340939
54.710 8.75736
54.715 8.673325
54.720 8.362073
54.725 8.250011
54.730 8.152581
54.735 8.259663
54.740 8.430373
54.745 8.213429
54.750 8.259203
54.755 8.006987
54.760 7.831596
54.765 8.099741
54.770 8.090697
54.775 8.33573
54.780 8.538722
54.785 8.531473
54.790 8.624843
54.795 8.765279
54.800 8.813799
54.805 8.477674
54.810 8.197977
54.815 8.260574
54.820 8.534514
54.825 8.271317
54.830 8.311149
54.835 8.169412
54.840 8.183539
54.845 8.089016
54.850 8.00133
54.855 7.916321
54.860 8.228916
54.865 7.796183
54.870 7.90291
54.875 7.944279
54.880 8.11417
54.885 8.031939
54.890 8.129575
54.895 7.902134
54.900 8.233503
54.905 8.552743
54.910 8.860638
54.915 9.399981
54.920 9.688518
54.925 9.624629
54.930 9.894447
54.935 10.169093
54.940 9.383173
54.945 9.098716
54.950 8.680941
54.955 8.386383
54.960 8.556417
54.965 8.64466
54.970 8.536065
54.975 9.021151
54.980 9.080941
54.985 9.208792
54.990 9.589899
54.995 9.568487
55.000 9.259736
55.005 9.446397
55.010 9.511016
55.015 9.432496
55.020 9.092822
55.025 8.98274
55.030 9.16717
55.035 9.385179
55.040 8.968803
55.045 9.042603
55.050 9.346963
55.055 9.825946
55.060 9.626489
55.065 9.257036
55.070 9.000933
55.075 9.024715
55.080 8.950964
55.085 8.527712
55.090 8.752372
55.095 8.65344
55.100 8.631527
55.105 8.83235
55.110 9.214756
55.115 9.020242
55.120 8.840859
55.125 8.64341
55.130 9.31778
55.135 9.814786
55.140 9.907175
55.145 9.874135
55.150 9.719643
55.155 9.728264
55.160 9.438089
55.165 8.745467
55.170 8.443419
55.175 8.453933
55.180 8.550098
55.185 8.901602
55.190 8.734855
55.195 8.821445
55.200 9.029053
55.205 8.959836
55.210 8.585779
55.215 8.852378
55.220 9.185864
55.225 9.246797
55.230 9.330624
55.235 8.899297
55.240 8.779752
55.245 9.08089
55.250 8.653422
55.255 8.425356
55.260 8.306444
55.265 8.860827
55.270 9.553267
55.275 9.726449
55.280 9.664842
55.285 9.754093
55.290 9.821726
55.295 9.734615
55.300 9.033214
55.305 8.768568
55.310 8.746051
55.315 8.292026
55.320 8.426986
55.325 8.606736
55.330 8.920281
55.335 8.828665
55.340 8.322046
55.345 7.975689
55.350 8.016341
55.355 7.8918
55.360 8.104321
55.365 7.943789
55.370 8.785294
55.375 9.551367
55.380 10.140275
55.385 10.14382
55.390 9.869886
55.395 9.820181
55.400 10.020415
55.405 9.272545
55.410 9.029778
55.415 8.69212
55.420 8.373448
55.425 8.151739
55.430 7.805959
55.435 7.735
55.440 8.051486
55.445 8.16422
55.450 8.417954
55.455 8.880151
55.460 9.432423
55.465 9.680693
55.470 9.512379
55.475 9.363461
55.480 9.33076
55.485 9.324456
55.490 9.467418
55.495 9.379881
55.500 9.661167
55.505 9.61153
55.510 9.92291
55.515 9.857858
55.520 9.686618
55.525 9.228393
55.530 9.016106
55.535 8.599019
55.540 8.425166
55.545 8.40032
55.550 8.144785
55.555 8.493572
55.560 8.663414
55.565 9.065223
55.570 9.10756
55.575 9.225621
55.580 9.391423
55.585 9.489932
55.590 9.507557
55.595 9.615073
55.600 9.027226
55.605 9.184873
55.610 9.366516
55.615 9.344839
55.620 9.370561
55.625 9.078593
55.630 9.129848
55.635 9.541698
55.640 9.781799
55.645 9.862423
55.650 9.743475
55.655 9.768747
55.660 9.971034
55.665 10.421685
55.670 10.24068
55.675 10.181417
55.680 10.145211
55.685 10.426949
55.690 10.501308
55.695 10.411942
55.700 10.380958
55.705 10.327598
55.710 9.675117
55.715 9.302583
55.720 9.166243
55.725 9.236483
55.730 8.826236
55.735 9.063436
55.740 9.889434
55.745 10.456854
55.750 10.844921
55.755 10.976232
55.760 11.136668
55.765 11.228667
55.770 11.163912
55.775 10.676178
55.780 10.172076
55.785 9.855793
55.790 9.645707
55.795 9.776406
55.800 9.461829
55.805 8.927518
55.810 9.299553
55.815 9.658259
55.820 9.725693
55.825 9.260374
55.830 9.236242
55.835 9.633286
55.840 9.834664
55.845 9.9071
55.850 9.961904
55.855 9.960947
55.860 10.365706
55.865 10.311012
55.870 10.045956
55.875 10.126988
55.880 9.874162
55.885 10.060618
55.890 10.664097
55.895 10.880659
55.900 11.57635
55.905 11.829632
55.910 11.987285
55.915 12.588215
55.920 12.341682
55.925 11.887165
55.930 11.819997
55.935 11.1231
55.940 11.330438
55.945 11.458499
55.950 11.135832
55.955 11.261935
55.960 11.051675
55.965 10.415154
55.970 10.546659
55.975 10.693065
55.980 10.352969
55.985 9.816948
55.990 9.572332
55.995 9.900345
56.000 10.085493
56.005 10.082668
56.010 9.439607
56.015 9.466839
56.020 9.426593
56.025 9.258668
56.030 9.20876
56.035 9.010218
56.040 8.750098
56.045 8.552488
56.050 8.780631
56.055 9.481904
56.060 9.746006
56.065 9.797485
56.070 10.084254
56.075 10.315242
56.080 10.398589
56.085 10.623433
56.090 10.447965
56.095 10.574966
56.100 10.415373
56.105 10.201491
56.110 10.478335
56.115 10.346441
56.120 9.969293
56.125 9.557569
56.130 9.362045
56.135 9.596395
56.140 9.776368
56.145 9.262675
56.150 9.180964
56.155 9.344894
56.160 10.045592
56.165 10.222113
56.170 10.422824
56.175 10.532178
56.180 10.597189
56.185 10.376019
56.190 9.970018
56.195 9.391351
56.200 9.449132
56.205 9.826996
56.210 10.143869
56.215 10.504059
56.220 10.592093
56.225 10.616782
56.230 11.16733
56.235 11.451489
56.240 11.593777
56.245 11.363158
56.250 10.900625
56.255 10.990591
56.260 11.293514
56.265 10.888966
56.270 10.111393
56.275 9.500398
56.280 9.323653
56.285 9.890891
56.290 10.58048
56.295 10.60671
56.300 10.799108
56.305 11.086262
56.310 10.9571
56.315 11.342849
56.320 11.086969
56.325 10.728911
56.330 10.937376
56.335 11.22434
56.340 11.591329
56.345 11.708982
56.350 11.485079
56.355 11.107561
56.360 10.61674
56.365 10.265293
56.370 9.836645
56.375 9.300505
56.380 9.114274
56.385 9.523585
56.390 9.886662
56.395 10.500896
56.400 10.450784
56.405 10.853578
56.410 11.636382
56.415 11.631325
56.420 11.168741
56.425 10.69074
56.430 10.408776
56.435 10.422195
56.440 10.316168
56.445 9.950303
56.450 10.199484
56.455 10.399753
56.460 10.664283
56.465 10.546592
56.470 11.1687
56.475 11.354292
56.480 11.195414
56.485 10.979351
56.490 11.18136
56.495 11.473763
56.500 11.301681
56.505 10.575951
56.510 10.566965
56.515 10.7668
56.520 10.632569
56.525 10.904194
56.530 11.226689
56.535 11.771331
56.540 12.089059
56.545 11.840324
56.550 11.727174
56.555 11.832112
56.560 10.900061
56.565 10.735263
56.570 10.487236
56.575 10.171226
56.580 10.324947
56.585 10.224051
56.590 10.365916
56.595 10.660541
56.600 10.339161
56.605 10.448598
56.610 10.587202
56.615 11.089602
56.620 11.310411
56.625 11.545786
56.630 11.834013
56.635 11.588465
56.640 11.973186
56.645 11.709295
56.650 11.723113
56.655 11.62248
56.660 12.034657
56.665 11.993389
56.670 11.929773
56.675 12.004395
56.680 12.328362
56.685 12.018497
56.690 12.162865
56.695 11.457307
56.700 11.39665
56.705 10.947553
56.710 10.766183
56.715 10.883384
56.720 11.040467
56.725 11.021365
56.730 11.085546
56.735 11.628721
56.740 12.617941
56.745 12.627766
56.750 12.305169
56.755 12.064007
56.760 12.333632
56.765 12.585447
56.770 12.454717
56.775 11.668013
56.780 11.592658
56.785 11.85806
56.790 11.827269
56.795 11.419994
56.800 11.151131
56.805 10.848675
56.810 10.811557
56.815 10.647646
56.820 10.689153
56.825 10.934711
56.830 10.979939
56.835 10.995399
56.840 11.43317
56.845 11.250242
56.850 11.37287
56.855 11.332295
56.860 11.241903
56.865 11.265616
56.870 11.672186
56.875 12.276884
56.880 12.686761
56.885 12.32445
56.890 12.290706
56.895 12.305408
56.900 11.736104
56.905 11.318871
56.910 11.06003
56.915 11.06021
56.920 10.790859
56.925 10.575377
56.930 10.586885
56.935 11.241083
56.940 11.132272
56.945 10.785554
56.950 11.023531
56.955 11.37182
56.960 11.269377
56.965 11.247089
56.970 11.219836
56.975 11.283262
56.980 11.862651
56.985 12.229837
56.990 12.725335
56.995 12.940082
57.000 12.966337
57.005 13.105882
57.010 13.408496
57.015 12.981987
57.020 12.69704
57.025 12.970407
57.030 12.951597
57.035 12.747821
57.040 12.419967
57.045 12.368708
57.050 12.337489
57.055 12.065601
57.060 11.455274
57.065 11.438218
57.070 11.748204
57.075 11.592174
57.080 11.192558
57.085 11.661457
57.090 11.964756
57.095 12.320273
57.100 12.789586
57.105 12.912623
57.110 13.287976
57.115 13.493969
57.120 12.810372
57.125 12.320835
57.130 11.903219
57.135 11.533072
57.140 11.581339
57.145 11.032896
57.150 11.245283
57.155 11.549216
57.160 11.977557
57.165 12.222491
57.170 12.048609
57.175 11.945947
57.180 12.16587
57.185 11.729606
57.190 11.827999
57.195 11.58654
57.200 11.680199
57.205 12.254557
57.210 11.971145
57.215 11.774827
57.220 12.077794
57.225 11.995826
57.230 12.275245
57.235 12.31717
57.240 12.015979
57.245 12.179025
57.250 12.870127
57.255 13.117226
57.260 13.1467
57.265 12.845073
57.270 12.552354
57.275 12.427728
57.280 12.71547
57.285 12.161278
57.290 12.028085
57.295 12.398794
57.300 12.334415
57.305 12.043444
57.310 11.960658
57.315 11.622624
57.320 11.749651
57.325 11.750265
57.330 11.467198
57.335 11.447361
57.340 11.989103
57.345 12.134522
57.350 11.858115
57.355 11.552655
57.360 11.159002
57.365 11.256747
57.370 11.715971
57.375 11.921102
57.380 12.13168
57.385 12.429915
57.390 13.228716
57.395 13.683458
57.400 13.935949
57.405 13.376712
57.410 13.110804
57.415 13.274698
57.420 13.686723
57.425 12.761131
57.430 12.722095
57.435 12.42128
57.440 12.785849
57.445 12.436037
57.450 11.848502
57.455 11.297467
57.460 11.471337
57.465 11.448512
57.470 11.932247
57.475 11.857857
57.480 12.015397
57.485 12.48885
57.490 12.789555
57.495 13.02869
57.500 12.923124
57.505 12.365047
57.510 12.073821
57.515 12.35152
57.520 11.912115
57.525 11.684778
57.530 11.626965
57.535 11.669616
57.540 11.876197
57.545 12.179553
57.550 12.121052
57.555 13.004376
57.560 13.303728
57.565 13.724473
57.570 13.356264
57.575 13.40482
57.580 13.417914
57.585 13.605597
57.590 12.815297
57.595 12.729511
57.600 12.183797
57.605 12.556815
57.610 12.772032
57.615 12.546821
57.620 12.558384
57.625 13.172373
57.630 12.995096
57.635 13.372444
57.640 13.391928
57.645 13.770993
57.650 14.210619
57.655 14.173699
57.660 14.10494
57.665 13.865491
57.670 13.952332
57.675 13.645116
57.680 13.622447
57.685 13.406703
57.690 13.415162
57.695 13.250396
57.700 13.60716
57.705 13.380224
57.710 13.535392
57.715 13.442688
57.720 13.247316
57.725 13.25966
57.730 13.618708
57.735 13.746614
57.740 13.617693
57.745 13.707376
57.750 13.971598
57.755 14.319704
57.760 14.008558
57.765 13.965734
57.770 13.79301
57.775 13.906417
57.780 13.711409
57.785 13.371974
57.790 13.556807
57.795 14.053595
57.800 14.319342
57.805 14.588466
57.810 14.548532
57.815 14.575242
57.820 14.619429
57.825 14.354964
57.830 14.535959
57.835 13.967864
57.840 13.955179
57.845 13.969774
57.850 14.061165
57.855 13.958721
57.860 13.580761
57.865 13.043056
57.870 13.339547
57.875 13.3999
57.880 13.158291
57.885 12.881931
57.890 12.944304
57.895 13.222351
57.900 13.085456
57.905 12.510606
57.910 12.141195
57.915 12.614006
57.920 12.889887
57.925 13.165703
57.930 13.084466
57.935 13.411122
57.940 13.534609
57.945 14.044923
57.950 13.961558
57.955 13.636482
57.960 13.638857
57.965 13.803895
57.970 13.95773
57.975 14.199644
57.980 13.741696
57.985 13.748109
57.990 13.945514
57.995 14.254266
58.000 14.383514
58.005 14.22358
58.010 14.363853
58.015 14.572406
58.020 14.701256
58.025 14.929862
58.030 14.515452
58.035 14.095181
58.040 14.075899
58.045 14.169779
58.050 14.468458
58.055 14.284698
58.060 14.335024
58.065 14.473829
58.070 14.688406
58.075 15.216475
58.080 15.042546
58.085 14.738723
58.090 14.807317
58.095 14.983596
58.100 15.234686
58.105 15.595601
58.110 15.403221
58.115 15.530373
58.120 16.284821
58.125 16.536232
58.130 16.459492
58.135 16.322145
58.140 16.393087
58.145 16.60648
58.150 17.220251
58.155 16.740007
58.160 16.412008
58.165 16.408533
58.170 16.752235
58.175 16.073231
58.180 15.872598
58.185 15.643593
58.190 15.838617
58.195 15.989252
58.200 16.157696
58.205 16.351269
58.210 17.076342
58.215 17.48628
58.220 17.414398
58.225 17.873167
58.230 17.791842
58.235 17.364428
58.240 17.150867
58.245 16.874657
58.250 17.221704
58.255 17.649584
58.260 17.43026
58.265 17.63751
58.270 17.786905
58.275 17.603228
58.280 17.571356
58.285 17.841896
58.290 17.911219
58.295 18.461716
58.300 18.772123
58.305 19.075815
58.310 20.109344
58.315 20.704136
58.320 20.384333
58.325 20.758081
58.330 20.967596
58.335 21.550579
58.340 21.813011
58.345 21.562719
58.350 20.99614
58.355 20.771568
58.360 20.411612
58.365 20.591106
58.370 20.509874
58.375 20.514637
58.380 20.469648
58.385 20.906624
58.390 21.389914
58.395 21.471945
58.400 21.552692
58.405 21.422831
58.410 21.382093
58.415 21.886877
58.420 22.379353
58.425 22.80512
58.430 23.22048
58.435 23.565605
58.440 23.74197
58.445 23.982855
58.450 23.487585
58.455 22.578947
58.460 22.158318
58.465 21.653208
58.470 21.038189
58.475 21.653265
58.480 22.031639
58.485 22.620543
58.490 24.282503
58.495 24.870066
58.500 25.207947
58.505 25.402624
58.510 25.191113
58.515 25.227779
58.520 25.376638
58.525 25.023823
58.530 25.223921
58.535 25.129936
58.540 25.627796
58.545 25.963188
58.550 26.256735
58.555 26.246277
58.560 26.037001
58.565 26.231339
58.570 26.824934
58.575 27.208681
58.580 26.462261
58.585 25.956537
58.590 25.965471
58.595 25.649748
58.600 25.262655
