!@!!GADDS PLOTSO FILE: Chi integration type
!@!!Title/SampleName: map-fb
!@!!Comment: ?
!@!!User: Bruker Instrument Administrator
!@!!Site: University of Illinois Chicago
!@!!Frame: map-fb_01_000.gfrm
!@!!Wavelengths    1.54184   1.54056   1.54439
!@!!Frame angles: 2Theta: 63.000 Omega: 50.000 Phi: 0.000 Chi: 90.000
!@!!Integration range: 2Theta: 53.000 to 73.000  Gamma: -105.000 to -75.000
!@!!Integration method: bin normalized
!@!N
!@!SS
!@!M
!@!L 0.0 0.0 0.0 0.0
!@!XDegrees
!@!YCounts
53.000 4.931275
53.005 4.756324
53.010 4.722157
53.015 4.96281
53.020 5.416564
53.025 5.655785
53.030 5.616532
53.035 5.410596
53.040 5.1449
53.045 4.92298
53.050 4.750828
53.055 4.355258
53.060 3.99839
53.065 3.68452
53.070 3.592786
53.075 3.500915
53.080 3.532588
53.085 3.700396
53.090 3.896883
53.095 4.325976
53.100 4.549583
53.105 4.665389
53.110 4.820278
53.115 4.696939
53.120 4.373671
53.125 4.271914
53.130 4.097338
53.135 4.2478
53.140 4.316225
53.145 4.229092
53.150 4.355145
53.155 4.815295
53.160 5.193858
53.165 5.339549
53.170 5.384696
53.175 5.352814
53.180 5.464462
53.185 5.32808
53.190 5.010643
53.195 4.899948
53.200 5.138126
53.205 5.223463
53.210 5.355798
53.215 5.52194
53.220 5.335473
53.225 5.405056
53.230 5.138103
53.235 5.035367
53.240 4.893259
53.245 4.718401
53.250 4.51426
53.255 4.775455
53.260 4.783563
53.265 5.258752
53.270 5.464482
53.275 5.648448
53.280 5.998886
53.285 6.022382
53.290 6.030802
53.295 5.873859
53.300 5.327718
53.305 5.298312
53.310 5.221459
53.315 5.121304
53.320 5.186368
53.325 5.285459
53.330 5.660789
53.335 5.476563
53.340 5.506691
53.345 5.697328
53.350 5.711649
53.355 5.897694
53.360 5.670815
53.365 5.312429
53.370 5.571108
53.375 5.434637
53.380 5.13609
53.385 5.158313
53.390 4.944953
53.395 5.135552
53.400 5.442505
53.405 5.424344
53.410 5.512474
53.415 5.601861
53.420 5.615744
53.425 5.42929
53.430 5.126808
53.435 4.86986
53.440 4.599187
53.445 4.533151
53.450 4.392208
53.455 4.382335
53.460 4.749462
53.465 5.295345
53.470 5.513276
53.475 5.640563
53.480 5.682837
53.485 5.623535
53.490 5.553247
53.495 5.048535
53.500 4.562686
53.505 4.251722
53.510 4.148976
53.515 4.321729
53.520 4.487304
53.525 4.229147
53.530 4.499529
53.535 5.161375
53.540 5.686161
53.545 6.018347
53.550 6.191522
53.555 6.570013
53.560 6.973003
53.565 6.751247
53.570 5.88704
53.575 5.550318
53.580 5.148068
53.585 5.014806
53.590 4.8394
53.595 4.718405
53.600 4.777461
53.605 5.072998
53.610 5.144562
53.615 5.200997
53.620 4.991331
53.625 5.030817
53.630 5.274521
53.635 5.173854
53.640 4.942931
53.645 4.845829
53.650 4.756497
53.655 4.641394
53.660 4.42031
53.665 4.339245
53.670 4.432236
53.675 4.562247
53.680 4.850776
53.685 5.134822
53.690 4.87736
53.695 4.94852
53.700 5.015574
53.705 5.157187
53.710 5.337872
53.715 4.958966
53.720 4.927372
53.725 5.25437
53.730 5.357368
53.735 5.56987
53.740 5.419221
53.745 5.05024
53.750 5.213546
53.755 5.314865
53.760 5.661856
53.765 5.692117
53.770 5.638529
53.775 5.578249
53.780 5.541447
53.785 5.234101
53.790 5.104843
53.795 4.773633
53.800 4.859469
53.805 4.77724
53.810 4.772155
53.815 5.03124
53.820 5.379324
53.825 5.508946
53.830 5.245006
53.835 4.888365
53.840 4.733641
53.845 4.800582
53.850 4.828358
53.855 4.791071
53.860 4.504718
53.865 4.834237
53.870 4.831467
53.875 4.952899
53.880 4.99351
53.885 4.790867
53.890 4.766209
53.895 5.209457
53.900 5.331514
53.905 5.434244
53.910 5.535767
53.915 5.476723
53.920 5.45596
53.925 5.365218
53.930 4.921471
53.935 4.832395
53.940 5.038355
53.945 5.021105
53.950 4.975522
53.955 5.1953
53.960 5.209245
53.965 5.166322
53.970 4.907312
53.975 4.903534
53.980 5.059049
53.985 5.260716
53.990 5.23228
53.995 5.340772
54.000 5.480809
54.005 5.879121
54.010 5.684936
54.015 5.619387
54.020 5.501308
54.025 5.515526
54.030 5.837511
54.035 5.835464
54.040 5.628668
54.045 5.55117
54.050 5.600914
54.055 5.917623
54.060 5.935049
54.065 5.790297
54.070 5.991498
54.075 6.076884
54.080 6.104838
54.085 6.047104
54.090 5.620045
54.095 5.553843
54.100 5.793403
54.105 5.641334
54.110 5.946718
54.115 6.134364
54.120 6.281596
54.125 6.630955
54.130 6.522685
54.135 6.195993
54.140 6.199485
54.145 6.244863
54.150 5.966983
54.155 5.674125
54.160 5.554969
54.165 5.114134
54.170 5.053952
54.175 4.974219
54.180 4.854616
54.185 4.950453
54.190 5.298023
54.195 5.633297
54.200 6.005522
54.205 5.862957
54.210 5.582429
54.215 5.368722
54.220 5.490992
54.225 5.393506
54.230 5.6451
54.235 5.988823
54.240 6.467936
54.245 6.944423
54.250 7.152735
54.255 7.138202
54.260 6.977074
54.265 6.432422
54.270 6.766277
54.275 6.758698
54.280 6.658646
54.285 6.270467
54.290 6.151156
54.295 6.255961
54.300 6.625261
54.305 6.067942
54.310 5.561329
54.315 5.371886
54.320 5.364354
54.325 5.495779
54.330 5.632118
54.335 5.559494
54.340 5.893297
54.345 6.046532
54.350 6.235529
54.355 6.230074
54.360 6.052893
54.365 5.808697
54.370 5.296435
54.375 5.3603
54.380 5.544702
54.385 5.263608
54.390 5.104789
54.395 4.982461
54.400 5.387579
54.405 5.8866
54.410 5.972925
54.415 6.138231
54.420 6.406178
54.425 6.569199
54.430 6.500075
54.435 6.252002
54.440 5.846543
54.445 5.692776
54.450 5.549204
54.455 5.571291
54.460 5.940695
54.465 6.084532
54.470 6.214443
54.475 6.391341
54.480 6.241144
54.485 6.014861
54.490 5.979513
54.495 5.581628
54.500 5.735849
54.505 5.7888
54.510 5.911339
54.515 6.071075
54.520 6.595103
54.525 6.633228
54.530 6.587049
54.535 6.371011
54.540 6.045751
54.545 5.817639
54.550 5.981462
54.555 5.883615
54.560 5.853678
54.565 6.072683
54.570 6.24052
54.575 6.599481
54.580 6.768517
54.585 6.818194
54.590 6.769211
54.595 6.941018
54.600 6.706869
54.605 6.384373
54.610 6.35645
54.615 6.278584
54.620 6.164778
54.625 6.28076
54.630 6.469697
54.635 6.498535
54.640 6.437053
54.645 6.22364
54.650 5.861318
54.655 5.986725
54.660 5.778102
54.665 5.448894
54.670 5.541171
54.675 5.604
54.680 5.794333
54.685 6.335461
54.690 6.239498
54.695 6.114278
54.700 6.272762
54.705 6.252396
54.710 6.452405
54.715 6.155272
54.720 5.805909
54.725 5.802238
54.730 5.829692
54.735 5.574503
54.740 5.615557
54.745 5.345337
54.750 5.395806
54.755 5.596242
54.760 5.724893
54.765 5.896727
54.770 6.018693
54.775 6.244802
54.780 6.331383
54.785 6.087627
54.790 6.046316
54.795 6.005944
54.800 6.167536
54.805 6.460754
54.810 6.464687
54.815 6.902904
54.820 7.116252
54.825 7.011252
54.830 7.038255
54.835 6.772527
54.840 6.342373
54.845 6.16001
54.850 6.321116
54.855 6.133428
54.860 6.082306
54.865 6.237305
54.870 6.266754
54.875 6.470983
54.880 6.749115
54.885 6.644491
54.890 6.769669
54.895 6.961127
54.900 7.01458
54.905 7.235979
54.910 7.27423
54.915 6.953152
54.920 6.895998
54.925 7.054738
54.930 7.13506
54.935 6.937125
54.940 6.812435
54.945 6.997097
54.950 7.28202
54.955 7.636233
54.960 7.294306
54.965 7.080855
54.970 7.06338
54.975 7.321991
54.980 6.809027
54.985 6.252811
54.990 6.036869
54.995 6.252111
55.000 6.603635
55.005 6.574078
55.010 6.414316
55.015 6.510656
55.020 6.468175
55.025 6.435527
55.030 6.120934
55.035 6.147915
55.040 6.122284
55.045 6.190966
55.050 6.597325
55.055 6.995389
55.060 7.039662
55.065 7.26649
55.070 6.994952
55.075 6.882638
55.080 7.151186
55.085 6.68877
55.090 6.640392
55.095 6.680432
55.100 6.89975
55.105 7.07527
55.110 7.279837
55.115 7.574028
55.120 8.247746
55.125 8.284992
55.130 8.190106
55.135 8.036016
55.140 8.064524
55.145 7.928121
55.150 7.37702
55.155 7.306792
55.160 7.612561
55.165 7.478024
55.170 7.184543
55.175 7.153902
55.180 6.925489
55.185 7.250946
55.190 7.066563
55.195 6.835242
55.200 6.645997
55.205 6.788161
55.210 6.87294
55.215 6.999737
55.220 6.994597
55.225 7.149235
55.230 7.530227
55.235 7.699804
55.240 7.771354
55.245 7.712964
55.250 7.689299
55.255 7.728095
55.260 7.23199
55.265 7.261855
55.270 7.247951
55.275 7.301501
55.280 7.091313
55.285 7.329144
55.290 6.975417
55.295 7.163955
55.300 6.894683
55.305 7.077632
55.310 7.058758
55.315 7.582012
55.320 7.467166
55.325 7.482571
55.330 7.296432
55.335 7.220889
55.340 7.315293
55.345 7.563957
55.350 7.088698
55.355 7.110986
55.360 7.324503
55.365 7.223454
55.370 7.512187
55.375 7.502409
55.380 7.339209
55.385 7.463297
55.390 7.510438
55.395 7.322563
55.400 7.507246
55.405 7.372193
55.410 7.068305
55.415 7.06518
55.420 7.027603
55.425 7.274057
55.430 7.944005
55.435 7.996735
55.440 8.140923
55.445 8.179094
55.450 8.129734
55.455 7.912595
55.460 7.922575
55.465 7.902
55.470 8.203449
55.475 8.022601
55.480 7.932656
55.485 7.97557
55.490 8.318543
55.495 8.096383
55.500 7.734582
55.505 7.845704
55.510 7.97001
55.515 8.030725
55.520 8.138745
55.525 8.03365
55.530 8.327826
55.535 8.031238
55.540 7.400584
55.545 7.044713
55.550 7.129155
55.555 7.038666
55.560 6.579626
55.565 6.379352
55.570 6.684622
55.575 7.430541
55.580 7.798545
55.585 8.073638
55.590 7.646401
55.595 7.705628
55.600 7.831139
55.605 7.673662
55.610 7.819165
55.615 7.381666
55.620 7.315577
55.625 7.455723
55.630 7.330519
55.635 7.110166
55.640 6.771374
55.645 6.218421
55.650 6.416386
55.655 6.900652
55.660 7.206216
55.665 7.620699
55.670 8.440017
55.675 8.827627
55.680 9.079769
55.685 9.402052
55.690 9.107583
55.695 8.822543
55.700 8.134115
55.705 7.821937
55.710 7.824129
55.715 7.508849
55.720 6.989235
55.725 7.109922
55.730 7.514912
55.735 7.972385
55.740 7.459695
55.745 7.235559
55.750 7.310536
55.755 7.244823
55.760 6.99217
55.765 6.753926
55.770 6.212201
55.775 6.417285
55.780 6.599734
55.785 6.61247
55.790 6.94346
55.795 7.057534
55.800 7.127213
55.805 7.447972
55.810 7.356246
55.815 7.634475
55.820 7.654431
55.825 7.498845
55.830 7.510885
55.835 7.310068
55.840 7.293606
55.845 7.28587
55.850 7.163018
55.855 7.238198
55.860 7.049302
55.865 7.067891
55.870 7.637121
55.875 7.758978
55.880 7.808801
55.885 8.037409
55.890 7.997974
55.895 8.088464
55.900 8.015006
55.905 7.520651
55.910 7.667699
55.915 7.600853
55.920 7.443404
55.925 7.342523
55.930 7.477291
55.935 7.735291
55.940 7.83855
55.945 7.989443
55.950 7.998882
55.955 8.115048
55.960 8.317356
55.965 8.169674
55.970 8.155308
55.975 7.899921
55.980 7.831447
55.985 7.927336
55.990 7.394693
55.995 7.09721
56.000 7.365046
56.005 7.404121
56.010 7.5509
56.015 7.521156
56.020 7.801453
56.025 8.023039
56.030 8.046879
56.035 8.252188
56.040 8.19768
56.045 8.151178
56.050 7.961829
56.055 7.836118
56.060 7.871387
56.065 8.229278
56.070 7.635549
56.075 7.673113
56.080 7.700654
56.085 7.819155
56.090 8.152731
56.095 8.467101
56.100 8.653582
56.105 8.576465
56.110 8.818729
56.115 8.683006
56.120 8.116706
56.125 7.647572
56.130 7.355184
56.135 7.306456
56.140 7.386856
56.145 7.308844
56.150 7.472636
56.155 7.832817
56.160 7.814601
56.165 7.764477
56.170 7.816732
56.175 7.885913
56.180 7.772831
56.185 7.455561
56.190 7.294036
56.195 7.639045
56.200 7.656474
56.205 8.136009
56.210 8.165595
56.215 8.557583
56.220 9.234886
56.225 9.955617
56.230 10.184074
56.235 10.179825
56.240 10.058388
56.245 10.129979
56.250 9.894778
56.255 9.676365
56.260 8.892234
56.265 8.479383
56.270 8.132597
56.275 8.146927
56.280 8.167912
56.285 8.40385
56.290 8.613701
56.295 8.962568
56.300 9.145797
56.305 8.896346
56.310 8.704917
56.315 8.695149
56.320 8.510445
56.325 8.627448
56.330 8.576967
56.335 8.622754
56.340 8.628304
56.345 8.814824
56.350 8.808841
56.355 8.310002
56.360 7.845202
56.365 7.837298
56.370 7.502306
56.375 7.535435
56.380 7.636118
56.385 7.618669
56.390 7.883816
56.395 7.839395
56.400 7.641225
56.405 7.822599
56.410 7.842676
56.415 7.662766
56.420 7.637115
56.425 7.703725
56.430 7.685599
56.435 8.051252
56.440 8.198811
56.445 8.134724
56.450 8.285358
56.455 8.713135
56.460 9.123035
56.465 9.027474
56.470 8.79928
56.475 9.236751
56.480 9.294007
56.485 9.598861
56.490 9.660312
56.495 9.577696
56.500 9.548482
56.505 9.411532
56.510 9.446619
56.515 9.443789
56.520 9.245695
56.525 8.997798
56.530 9.014232
56.535 9.393937
56.540 9.236204
56.545 8.798506
56.550 8.823283
56.555 8.814708
56.560 8.380995
56.565 8.300498
56.570 8.085812
56.575 8.304809
56.580 8.202094
56.585 7.914349
56.590 7.813263
56.595 8.146397
56.600 8.45811
56.605 8.668694
56.610 8.755278
56.615 8.992935
56.620 9.297497
56.625 8.87406
56.630 8.956624
56.635 8.984649
56.640 9.026275
56.645 8.802735
56.650 8.544344
56.655 8.453539
56.660 8.729158
56.665 8.318622
56.670 7.68841
56.675 7.409082
56.680 7.728308
56.685 7.932926
56.690 8.129416
56.695 8.423622
56.700 8.95824
56.705 9.091519
56.710 9.159302
56.715 9.465483
56.720 9.340936
56.725 9.11477
56.730 8.78411
56.735 8.632785
56.740 8.951246
56.745 9.104271
56.750 9.066255
56.755 9.231766
56.760 9.333093
56.765 9.39739
56.770 9.213063
56.775 9.102301
56.780 9.02248
56.785 8.69937
56.790 8.788592
56.795 8.827002
56.800 9.399942
56.805 9.717397
56.810 9.904597
56.815 9.845152
56.820 9.826831
56.825 9.957608
56.830 10.015261
56.835 9.809956
56.840 9.909173
56.845 9.798142
56.850 9.496547
56.855 9.512161
56.860 8.993166
56.865 8.543139
56.870 8.199091
56.875 7.948603
56.880 7.925293
56.885 8.052712
56.890 8.040918
56.895 8.204695
56.900 8.315388
56.905 8.2204
56.910 8.255569
56.915 8.248532
56.920 8.606954
56.925 8.6117
56.930 8.881224
56.935 9.165891
56.940 9.291266
56.945 9.700478
56.950 9.641367
56.955 9.346326
56.960 9.671151
56.965 9.360501
56.970 9.212045
56.975 9.347659
56.980 9.07268
56.985 9.154032
56.990 9.504997
56.995 9.446022
57.000 10.028291
57.005 10.045624
57.010 9.673038
57.015 9.974092
57.020 9.927645
57.025 9.757316
57.030 9.449857
57.035 9.057928
57.040 9.029179
57.045 9.426092
57.050 9.383541
57.055 9.308187
57.060 9.377186
57.065 9.651306
57.070 9.558614
57.075 9.790824
57.080 9.455337
57.085 9.512792
57.090 9.604102
57.095 9.551252
57.100 9.31889
57.105 9.399814
57.110 9.182181
57.115 9.111298
57.120 8.853875
57.125 9.077107
57.130 9.149077
57.135 9.149682
57.140 9.300527
57.145 9.423875
57.150 9.630539
57.155 9.902604
57.160 10.16615
57.165 10.023376
57.170 10.095072
57.175 9.90799
57.180 9.478271
57.185 9.215981
57.190 8.819255
57.195 8.58487
57.200 8.665964
57.205 8.459176
57.210 8.785514
57.215 9.747292
57.220 9.763032
57.225 9.532054
57.230 9.257074
57.235 9.244673
57.240 9.158725
57.245 8.751992
57.250 8.402467
57.255 8.373571
57.260 8.688564
57.265 8.819262
57.270 9.082263
57.275 9.35795
57.280 9.72568
57.285 9.746008
57.290 9.924875
57.295 9.976295
57.300 10.040176
57.305 9.830215
57.310 9.660052
57.315 9.359765
57.320 9.158867
57.325 9.186625
57.330 8.951562
57.335 9.120292
57.340 9.09972
57.345 9.001799
57.350 9.121335
57.355 9.389099
57.360 9.269729
57.365 9.447266
57.370 9.506671
57.375 9.99439
57.380 10.504826
57.385 10.50852
57.390 10.725842
57.395 11.031339
57.400 10.884844
57.405 10.482434
57.410 9.721988
57.415 9.324297
57.420 9.537914
57.425 8.901276
57.430 8.484616
57.435 8.484972
57.440 8.692466
57.445 9.004534
57.450 8.895777
57.455 8.66163
57.460 9.165618
57.465 9.328797
57.470 9.716963
57.475 9.601635
57.480 9.683208
57.485 9.495753
57.490 9.514492
57.495 9.63854
57.500 9.74478
57.505 9.330994
57.510 9.529636
57.515 9.724404
57.520 10.387145
57.525 10.679302
57.530 10.2759
57.535 10.241787
57.540 10.220885
57.545 9.793514
57.550 9.23166
57.555 8.627181
57.560 8.760622
57.565 8.984617
57.570 9.137266
57.575 9.61638
57.580 10.098731
57.585 10.685056
57.590 11.030076
57.595 11.007091
57.600 11.097598
57.605 11.027189
57.610 10.828079
57.615 11.064575
57.620 10.976264
57.625 11.0178
57.630 10.57727
57.635 10.586704
57.640 10.583446
57.645 10.378966
57.650 10.323374
57.655 10.129271
57.660 9.828017
57.665 10.10439
57.670 9.912037
57.675 9.626118
57.680 9.481922
57.685 9.636168
57.690 9.856291
57.695 9.814854
57.700 9.650343
57.705 9.739281
57.710 10.260814
57.715 10.404695
57.720 10.354716
57.725 10.54039
57.730 11.17278
57.735 11.463095
57.740 11.267073
57.745 11.387483
57.750 11.432556
57.755 11.327852
57.760 11.125277
57.765 10.381377
57.770 9.877706
57.775 10.081719
57.780 9.822257
57.785 9.584141
57.790 9.283748
57.795 9.190894
57.800 9.387278
57.805 9.626904
57.810 9.736449
57.815 9.66108
57.820 9.708015
57.825 9.723572
57.830 9.709983
57.835 10.101271
57.840 10.186779
57.845 10.108147
57.850 10.223546
57.855 10.332454
57.860 10.373985
57.865 10.53722
57.870 10.080186
57.875 10.174911
57.880 10.171062
57.885 10.846495
57.890 10.977307
57.895 11.182526
57.900 11.309955
57.905 11.549294
57.910 11.643199
57.915 11.96884
57.920 12.134371
57.925 12.027161
57.930 12.00918
57.935 12.188357
57.940 12.135212
57.945 12.380573
57.950 11.910076
57.955 11.749954
57.960 11.682237
57.965 11.449324
57.970 11.836631
57.975 11.555363
57.980 11.467307
57.985 11.324815
57.990 11.246886
57.995 11.355268
58.000 11.376768
58.005 10.781247
58.010 11.091455
58.015 11.411136
58.020 11.307544
58.025 10.978373
58.030 11.08749
58.035 11.384165
58.040 11.900285
58.045 12.069197
58.050 11.917678
58.055 12.14265
58.060 12.572989
58.065 12.602687
58.070 12.900054
58.075 13.22732
58.080 12.994127
58.085 12.376952
58.090 12.050817
58.095 12.069134
58.100 11.735295
58.105 11.343135
58.110 10.817936
58.115 10.743217
58.120 11.978166
58.125 12.098926
58.130 12.080345
58.135 12.880309
58.140 12.699229
58.145 12.737423
58.150 12.715355
58.155 12.25532
58.160 12.150786
58.165 12.144819
58.170 12.063022
58.175 12.595037
58.180 12.534711
58.185 12.451001
58.190 12.372939
58.195 12.640486
58.200 12.788866
58.205 12.629079
58.210 12.03766
58.215 12.093968
58.220 12.439692
58.225 12.584003
58.230 12.433082
58.235 12.606479
58.240 12.651299
58.245 12.751856
58.250 13.289644
58.255 13.171796
58.260 13.038218
58.265 13.244862
58.270 12.547414
58.275 12.798339
58.280 13.157863
58.285 12.812733
58.290 12.752183
58.295 12.614222
58.300 12.406737
58.305 13.080939
58.310 13.004026
58.315 13.07682
58.320 13.023933
58.325 13.376056
58.330 13.52449
58.335 13.950927
58.340 14.042449
58.345 14.026492
58.350 13.629972
58.355 13.702318
58.360 13.991865
58.365 14.448473
58.370 14.0453
58.375 13.715518
58.380 13.824842
58.385 13.98434
58.390 13.71596
58.395 13.885483
58.400 14.009061
58.405 14.251981
58.410 14.58319
58.415 15.257535
58.420 15.942351
58.425 16.604023
58.430 16.423632
58.435 16.208736
58.440 16.526119
58.445 16.614313
58.450 16.616974
58.455 16.974091
58.460 16.698484
58.465 16.814419
58.470 16.989811
58.475 17.044744
58.480 16.82485
58.485 16.88867
58.490 17.056114
58.495 17.629009
58.500 18.501369
58.505 19.074917
58.510 19.441599
58.515 19.589422
58.520 20.21566
58.525 20.81485
58.530 20.77416
58.535 21.008831
58.540 21.268011
58.545 21.690142
58.550 22.110069
58.555 21.938267
58.560 22.191963
58.565 22.648634
58.570 22.421558
58.575 21.785049
58.580 21.451393
58.585 21.545269
58.590 21.885141
58.595 22.880278
58.600 23.312553
58.605 23.828207
58.610 24.85018
58.615 25.608316
58.620 25.915365
58.625 25.972637
58.630 25.128355
58.635 24.431149
58.640 24.304659
58.645 24.186005
58.650 24.16674
58.655 24.408251
58.660 24.87472
58.665 25.032824
58.670 25.763718
58.675 25.686857
58.680 26.323772
58.685 26.263363
58.690 25.875338
58.695 26.153851
58.700 26.309256
