!@!!GADDS PLOTSO FILE: Chi integration type
!@!!Title/SampleName: map-b1
!@!!Comment: ?
!@!!User: Bruker Instrument Administrator
!@!!Site: University of Illinois Chicago
!@!!Frame: map-b1_01_000.gfrm
!@!!Wavelengths    1.54184   1.54056   1.54439
!@!!Frame angles: 2Theta: 63.000 Omega: 50.000 Phi: 0.000 Chi: 90.000
!@!!Integration range: 2Theta: 53.000 to 73.000  Gamma: -105.000 to -75.000
!@!!Integration method: bin normalized
!@!N
!@!SS
!@!M
!@!L 0.0 0.0 0.0 0.0
!@!XDegrees
!@!YCounts
53.000 5.73429
53.005 5.508669
53.010 5.611972
53.015 5.689269
53.020 5.632722
53.025 5.645113
53.030 5.976679
53.035 5.790023
53.040 5.915466
53.045 5.820458
53.050 5.906048
53.055 5.771699
53.060 5.595154
53.065 5.360974
53.070 5.54409
53.075 5.456502
53.080 5.356595
53.085 5.429566
53.090 5.446493
53.095 5.501501
53.100 5.679501
53.105 5.790689
53.110 5.95563
53.115 5.937615
53.120 5.867413
53.125 6.075827
53.130 6.126859
53.135 6.195372
53.140 6.005555
53.145 5.763547
53.150 5.777105
53.155 6.094725
53.160 6.301647
53.165 6.370494
53.170 6.282862
53.175 6.472898
53.180 6.391743
53.185 6.731372
53.190 6.829209
53.195 6.817567
53.200 6.835046
53.205 6.911292
53.210 6.95228
53.215 6.798492
53.220 6.508875
53.225 6.461227
53.230 6.621781
53.235 6.657122
53.240 6.97698
53.245 7.557875
53.250 8.039134
53.255 8.52098
53.260 8.368301
53.265 8.192752
53.270 8.020556
53.275 7.680591
53.280 7.518219
53.285 7.317709
53.290 7.119269
53.295 7.058849
53.300 7.176664
53.305 7.201873
53.310 7.314074
53.315 7.380005
53.320 7.399368
53.325 7.287114
53.330 7.260015
53.335 7.264023
53.340 7.257833
53.345 7.261129
53.350 7.312526
53.355 7.332019
53.360 7.213088
53.365 7.036311
53.370 6.979401
53.375 6.714667
53.380 6.755306
53.385 6.693524
53.390 6.773402
53.395 7.066265
53.400 6.967877
53.405 6.842871
53.410 6.91667
53.415 6.602905
53.420 6.495708
53.425 6.474127
53.430 6.728849
53.435 7.067644
53.440 7.271268
53.445 7.138538
53.450 6.84555
53.455 6.804295
53.460 7.15122
53.465 6.841807
53.470 6.703243
53.475 6.866154
53.480 7.163444
53.485 7.210191
53.490 6.61058
53.495 5.939995
53.500 5.938606
53.505 5.75218
53.510 5.553216
53.515 5.70626
53.520 6.225018
53.525 6.746487
53.530 7.331264
53.535 7.792202
53.540 8.121436
53.545 8.264644
53.550 7.992539
53.555 7.774929
53.560 7.414271
53.565 7.7277
53.570 7.570752
53.575 7.472586
53.580 7.543314
53.585 7.389284
53.590 7.536554
53.595 7.59217
53.600 6.908366
53.605 7.063146
53.610 6.92703
53.615 6.861443
53.620 6.986371
53.625 7.305722
53.630 7.546278
53.635 8.084412
53.640 8.086808
53.645 8.307899
53.650 8.450842
53.655 8.488714
53.660 8.343929
53.665 8.466973
53.670 8.457653
53.675 8.481154
53.680 8.521061
53.685 8.510277
53.690 8.780936
53.695 8.992861
53.700 8.593796
53.705 8.046753
53.710 7.879582
53.715 7.67759
53.720 7.727203
53.725 7.48278
53.730 7.553602
53.735 7.700893
53.740 7.559741
53.745 7.503845
53.750 7.479357
53.755 7.308474
53.760 6.923785
53.765 6.725891
53.770 6.464599
53.775 6.777435
53.780 6.993519
53.785 7.158388
53.790 7.578429
53.795 7.958395
53.800 8.279221
53.805 8.417248
53.810 8.503283
53.815 8.315302
53.820 8.841505
53.825 8.885365
53.830 8.414313
53.835 8.022007
53.840 8.159884
53.845 8.09526
53.850 8.106308
53.855 7.283597
53.860 7.428237
53.865 7.986503
53.870 8.42023
53.875 8.496181
53.880 8.358484
53.885 8.407516
53.890 8.394915
53.895 8.037868
53.900 7.994577
53.905 7.593597
53.910 7.46044
53.915 7.516785
53.920 8.005935
53.925 8.496674
53.930 8.762744
53.935 8.590775
53.940 8.69222
53.945 8.588046
53.950 8.418952
53.955 8.099857
53.960 8.110643
53.965 7.687536
53.970 7.693002
53.975 8.036721
53.980 8.224004
53.985 8.5741
53.990 8.7372
53.995 8.590996
54.000 8.506177
54.005 8.614332
54.010 8.547624
54.015 8.643549
54.020 8.597669
54.025 8.155616
54.030 8.436193
54.035 8.882863
54.040 9.041482
54.045 9.018374
54.050 8.778324
54.055 8.666331
54.060 8.223219
54.065 7.943418
54.070 7.278563
54.075 7.170682
54.080 7.399677
54.085 7.264458
54.090 7.419721
54.095 7.868314
54.100 8.090332
54.105 8.278054
54.110 8.175097
54.115 7.851444
54.120 7.936396
54.125 7.856131
54.130 7.961594
54.135 7.957793
54.140 8.130811
54.145 8.345136
54.150 8.603894
54.155 8.490365
54.160 8.513403
54.165 9.009872
54.170 9.054694
54.175 8.889142
54.180 8.418377
54.185 8.138771
54.190 8.224033
54.195 8.451918
54.200 8.434105
54.205 8.569805
54.210 8.407294
54.215 8.596454
54.220 8.632809
54.225 8.590573
54.230 7.999078
54.235 7.867103
54.240 7.732673
54.245 8.08952
54.250 8.395829
54.255 8.419477
54.260 8.438725
54.265 8.383627
54.270 8.329968
54.275 8.433286
54.280 8.578783
54.285 8.476395
54.290 8.520392
54.295 8.721728
54.300 8.819366
54.305 8.498507
54.310 8.603625
54.315 8.429595
54.320 8.373108
54.325 8.17982
54.330 7.818273
54.335 8.100527
54.340 8.4722
54.345 8.568973
54.350 8.960272
54.355 9.371573
54.360 9.495741
54.365 9.511024
54.370 9.282706
54.375 9.250415
54.380 9.174347
54.385 8.685981
54.390 8.732903
54.395 9.115385
54.400 9.069895
54.405 8.685454
54.410 8.250345
54.415 8.132215
54.420 8.072279
54.425 7.613863
54.430 7.084074
54.435 7.319553
54.440 7.487534
54.445 8.018176
54.450 8.335853
54.455 8.572387
54.460 8.730545
54.465 8.677508
54.470 8.451001
54.475 8.603667
54.480 8.546494
54.485 8.207585
54.490 7.992506
54.495 8.332309
54.500 8.49501
54.505 8.514375
54.510 8.417423
54.515 8.320152
54.520 8.283215
54.525 8.413815
54.530 8.336233
54.535 8.085254
54.540 8.459987
54.545 8.258709
54.550 7.896772
54.555 8.291773
54.560 8.139054
54.565 7.978513
54.570 8.350176
54.575 8.313417
54.580 8.547819
54.585 8.804431
54.590 8.936803
54.595 9.326416
54.600 9.670162
54.605 9.501703
54.610 9.355678
54.615 9.112968
54.620 8.711914
54.625 8.180645
54.630 7.553257
54.635 7.30639
54.640 7.032333
54.645 6.91421
54.650 7.262119
54.655 7.654177
54.660 7.669312
54.665 7.829998
54.670 7.840886
54.675 7.877738
54.680 7.781103
54.685 7.172473
54.690 7.188828
54.695 7.41626
54.700 7.633629
54.705 7.520572
54.710 7.680124
54.715 7.751204
54.720 7.806371
54.725 7.922321
54.730 7.776395
54.735 7.749872
54.740 7.520642
54.745 7.520304
54.750 7.92294
54.755 8.225999
54.760 8.219615
54.765 8.100643
54.770 8.533606
54.775 9.268614
54.780 9.340919
54.785 9.887297
54.790 9.766332
54.795 9.972118
54.800 9.992404
54.805 9.541742
54.810 9.133134
54.815 8.850054
54.820 8.447802
54.825 8.796726
54.830 8.75597
54.835 9.128692
54.840 9.395722
54.845 9.554584
54.850 10.018748
54.855 10.18987
54.860 9.757671
54.865 9.82683
54.870 9.715939
54.875 10.061803
54.880 10.431916
54.885 10.039124
54.890 9.612498
54.895 10.042364
54.900 10.16085
54.905 9.855062
54.910 9.316483
54.915 8.872532
54.920 8.764437
54.925 8.605902
54.930 8.032135
54.935 7.598025
54.940 7.903645
54.945 7.963881
54.950 8.399982
54.955 9.024173
54.960 9.52808
54.965 10.081017
54.970 10.607138
54.975 10.283811
54.980 10.765938
54.985 10.523439
54.990 10.355361
54.995 9.835601
55.000 9.183353
55.005 9.188894
55.010 9.291147
55.015 8.667133
55.020 8.634243
55.025 8.762295
55.030 9.209298
55.035 9.441192
55.040 9.382174
55.045 9.958691
55.050 10.314484
55.055 10.203951
55.060 10.370601
55.065 10.29115
55.070 10.16167
55.075 9.865273
55.080 9.167871
55.085 9.413638
55.090 9.683936
55.095 9.667935
55.100 9.619088
55.105 9.829005
55.110 9.906001
55.115 10.30635
55.120 10.365801
55.125 9.826786
55.130 9.531493
55.135 10.118689
55.140 10.113704
55.145 10.146728
55.150 9.761128
55.155 9.393636
55.160 9.912563
55.165 10.044608
55.170 9.628499
55.175 9.630486
55.180 9.729124
55.185 9.313839
55.190 9.036416
55.195 9.226651
55.200 8.827395
55.205 9.081832
55.210 9.025609
55.215 9.43518
55.220 10.233427
55.225 10.536758
55.230 10.088015
55.235 9.777063
55.240 9.526734
55.245 9.721115
55.250 9.575315
55.255 9.111773
55.260 9.064322
55.265 9.674539
55.270 10.300219
55.275 10.460016
55.280 9.961875
55.285 9.741877
55.290 9.358877
55.295 8.743754
55.300 8.425884
55.305 8.246332
55.310 8.392365
55.315 8.319461
55.320 8.519217
55.325 8.949969
55.330 9.062389
55.335 9.059541
55.340 9.259644
55.345 9.374505
55.350 9.069461
55.355 9.351369
55.360 9.578643
55.365 9.77098
55.370 9.587464
55.375 9.165794
55.380 9.189994
55.385 9.140518
55.390 8.619299
55.395 9.026361
55.400 9.35855
55.405 9.521731
55.410 9.707211
55.415 9.716082
55.420 9.832704
55.425 9.804277
55.430 9.770769
55.435 9.386945
55.440 9.490726
55.445 9.542119
55.450 9.932887
55.455 10.433575
55.460 10.982952
55.465 10.622375
55.470 11.022982
55.475 10.897496
55.480 10.735621
55.485 10.676579
55.490 10.511271
55.495 10.683393
55.500 10.833298
55.505 11.121961
55.510 11.159415
55.515 11.026361
55.520 11.003422
55.525 11.032805
55.530 10.828104
55.535 10.672957
55.540 10.09002
55.545 9.85204
55.550 10.022221
55.555 9.791631
55.560 9.494727
55.565 9.455606
55.570 9.435596
55.575 9.450554
55.580 9.093037
55.585 9.176199
55.590 9.296522
55.595 9.185972
55.600 9.224187
55.605 9.775431
55.610 10.493022
55.615 11.168959
55.620 11.307848
55.625 11.191663
55.630 11.116875
55.635 11.331987
55.640 11.009497
55.645 10.774219
55.650 10.512284
55.655 10.328123
55.660 10.375633
55.665 10.524394
55.670 10.304018
55.675 10.508898
55.680 10.713872
55.685 10.586131
55.690 10.517692
55.695 10.484061
55.700 10.438888
55.705 10.023119
55.710 9.294725
55.715 9.335954
55.720 9.602873
55.725 10.091174
55.730 9.963812
55.735 9.833508
55.740 10.0351
55.745 10.255903
55.750 10.299919
55.755 9.829557
55.760 9.154861
55.765 9.566175
55.770 9.743756
55.775 9.950476
55.780 9.88493
55.785 9.709703
55.790 10.226977
55.795 10.716835
55.800 10.81694
55.805 10.657429
55.810 10.761105
55.815 10.911767
55.820 10.958104
55.825 10.81294
55.830 10.885703
55.835 10.960033
55.840 11.038423
55.845 10.843861
55.850 10.425879
55.855 10.117748
55.860 9.616302
55.865 9.018097
55.870 8.625108
55.875 8.608629
55.880 8.848387
55.885 9.269465
55.890 9.775506
55.895 10.033089
55.900 10.091662
55.905 10.38207
55.910 10.626165
55.915 10.38291
55.920 10.143848
55.925 9.74832
55.930 9.534356
55.935 9.756899
55.940 9.220377
55.945 8.934759
55.950 9.247134
55.955 9.333654
55.960 9.493424
55.965 9.980404
55.970 10.409428
55.975 10.579034
55.980 10.292378
55.985 9.773813
55.990 9.75464
55.995 9.730841
56.000 9.199146
56.005 9.052358
56.010 9.516887
56.015 9.764954
56.020 9.807385
56.025 9.863326
56.030 10.220298
56.035 10.195059
56.040 9.927645
56.045 9.496406
56.050 9.388547
56.055 9.684041
56.060 9.67455
56.065 9.555195
56.070 9.607037
56.075 9.733145
56.080 10.099661
56.085 10.424467
56.090 10.2482
56.095 9.988142
56.100 9.93141
56.105 9.750125
56.110 9.923251
56.115 9.721695
56.120 9.679056
56.125 9.964663
56.130 10.564621
56.135 10.981768
56.140 11.281459
56.145 11.681742
56.150 11.746973
56.155 11.51298
56.160 11.03612
56.165 10.485552
56.170 10.370287
56.175 10.077679
56.180 9.54445
56.185 9.696792
56.190 10.118696
56.195 10.243741
56.200 10.300877
56.205 9.991604
56.210 10.446063
56.215 10.460595
56.220 10.151202
56.225 9.913363
56.230 10.378695
56.235 10.56009
56.240 10.782165
56.245 10.497267
56.250 10.462184
56.255 10.403889
56.260 10.493547
56.265 10.225151
56.270 9.835725
56.275 9.941384
56.280 9.882866
56.285 9.878211
56.290 9.960885
56.295 10.167927
56.300 9.998571
56.305 9.968719
56.310 10.188527
56.315 10.760715
56.320 11.205038
56.325 11.366994
56.330 11.584688
56.335 12.032418
56.340 12.640654
56.345 12.320983
56.350 11.780785
56.355 11.672728
56.360 11.552642
56.365 11.594193
56.370 11.7357
56.375 11.81533
56.380 12.099049
56.385 12.215867
56.390 12.35108
56.395 12.046992
56.400 11.584621
56.405 10.933728
56.410 10.379143
56.415 10.275473
56.420 10.233659
56.425 10.299571
56.430 10.726822
56.435 10.935475
56.440 11.077229
56.445 11.208913
56.450 11.025051
56.455 10.819323
56.460 10.368214
56.465 9.943698
56.470 10.137958
56.475 10.37304
56.480 10.437622
56.485 10.772459
56.490 11.248788
56.495 11.590825
56.500 12.282067
56.505 12.477931
56.510 12.452609
56.515 12.683552
56.520 12.76376
56.525 12.510541
56.530 12.163123
56.535 11.593772
56.540 11.398144
56.545 11.799471
56.550 11.657098
56.555 11.337136
56.560 11.347752
56.565 11.86366
56.570 12.049374
56.575 11.847808
56.580 11.612479
56.585 11.064975
56.590 10.875843
56.595 10.997283
56.600 10.478326
56.605 10.903631
56.610 10.956728
56.615 11.453981
56.620 11.940022
56.625 11.977947
56.630 11.762526
56.635 11.836187
56.640 11.433025
56.645 11.142063
56.650 10.656384
56.655 10.727871
56.660 10.790903
56.665 10.593903
56.670 10.739335
56.675 10.866984
56.680 11.043136
56.685 11.117892
56.690 11.512564
56.695 11.601902
56.700 11.762318
56.705 11.674712
56.710 11.85075
56.715 12.110305
56.720 12.174685
56.725 12.17571
56.730 12.83693
56.735 13.192465
56.740 13.390726
56.745 13.06343
56.750 12.767434
56.755 12.734568
56.760 12.284267
56.765 12.000849
56.770 11.420096
56.775 10.961482
56.780 10.93842
56.785 10.887097
56.790 10.724657
56.795 11.055498
56.800 11.025331
56.805 11.308941
56.810 11.641028
56.815 12.199002
56.820 12.207934
56.825 12.191625
56.830 11.788596
56.835 12.024519
56.840 12.042813
56.845 11.687537
56.850 11.628325
56.855 11.778752
56.860 11.365887
56.865 11.557047
56.870 11.182906
56.875 10.906301
56.880 11.227798
56.885 11.308121
56.890 11.684493
56.895 11.545033
56.900 11.144255
56.905 10.710751
56.910 10.49991
56.915 10.358571
56.920 9.932106
56.925 9.68146
56.930 10.250824
56.935 10.688414
56.940 11.395207
56.945 11.90935
56.950 11.642759
56.955 11.436224
56.960 11.005041
56.965 10.622784
56.970 10.514315
56.975 10.491994
56.980 10.559174
56.985 10.792501
56.990 10.885365
56.995 11.171193
57.000 11.121008
57.005 11.025855
57.010 11.189477
57.015 11.02142
57.020 11.209347
57.025 11.467519
57.030 11.600087
57.035 11.540008
57.040 11.216848
57.045 10.783826
57.050 10.59685
57.055 10.599152
57.060 10.374161
57.065 10.619846
57.070 11.429136
57.075 12.017112
57.080 12.429219
57.085 12.461337
57.090 12.323772
57.095 12.506026
57.100 12.343543
57.105 11.909994
57.110 11.77614
57.115 11.808164
57.120 11.902246
57.125 12.438783
57.130 12.655783
57.135 12.619477
57.140 13.058427
57.145 12.888038
57.150 12.557591
57.155 12.582794
57.160 11.983935
57.165 11.993473
57.170 11.745598
57.175 10.892809
57.180 10.794833
57.185 11.362704
57.190 11.375389
57.195 11.787643
57.200 11.630177
57.205 11.874399
57.210 12.967775
57.215 12.744635
57.220 12.024994
57.225 11.603469
57.230 11.299201
57.235 11.640934
57.240 11.509274
57.245 10.896116
57.250 10.914021
57.255 11.554689
57.260 11.677445
57.265 11.368448
57.270 11.185273
57.275 11.37702
57.280 12.238852
57.285 12.801021
57.290 12.844659
57.295 12.820164
57.300 13.327184
57.305 13.32327
57.310 13.210973
57.315 13.200785
57.320 13.605966
57.325 14.062495
57.330 14.683241
57.335 14.418796
57.340 14.503675
57.345 14.718331
57.350 13.915695
57.355 12.978835
57.360 12.174519
57.365 12.256931
57.370 11.86613
57.375 11.61734
57.380 11.914392
57.385 12.647695
57.390 12.953452
57.395 12.86917
57.400 13.024993
57.405 13.674162
57.410 13.711884
57.415 13.070406
57.420 12.587332
57.425 13.057153
57.430 12.845965
57.435 12.479598
57.440 12.226208
57.445 11.903016
57.450 11.925876
57.455 11.8474
57.460 11.317271
57.465 11.188648
57.470 11.217472
57.475 11.337079
57.480 11.99885
57.485 11.833825
57.490 11.633249
57.495 12.172561
57.500 12.887404
57.505 13.122927
57.510 12.666363
57.515 12.589791
57.520 13.31295
57.525 13.788012
57.530 13.169875
57.535 12.585553
57.540 12.501738
57.545 12.751125
57.550 12.549024
57.555 12.054266
57.560 11.757262
57.565 12.175054
57.570 12.39988
57.575 12.42369
57.580 12.964148
57.585 13.261764
57.590 13.767839
57.595 14.257291
57.600 14.464071
57.605 14.794497
57.610 14.681638
57.615 14.157655
57.620 14.3116
57.625 14.066265
57.630 13.863919
57.635 13.619967
57.640 13.8469
57.645 13.805313
57.650 13.366186
57.655 12.777992
57.660 13.004301
57.665 12.683821
57.670 12.380258
57.675 12.038263
57.680 12.631322
57.685 13.156525
57.690 14.025089
57.695 14.083638
57.700 14.153626
57.705 14.150601
57.710 14.439726
57.715 14.204005
57.720 14.284982
57.725 13.749218
57.730 13.629342
57.735 13.884195
57.740 13.727595
57.745 13.106064
57.750 13.299705
57.755 12.891479
57.760 12.483717
57.765 12.632967
57.770 13.236693
57.775 13.608679
57.780 13.678226
57.785 13.519009
57.790 13.553455
57.795 13.853333
57.800 13.541123
57.805 13.016521
57.810 13.361291
57.815 13.88548
57.820 14.26073
57.825 14.37423
57.830 14.696016
57.835 14.934329
57.840 15.2154
57.845 14.722443
57.850 14.218109
57.855 13.951989
57.860 13.981806
57.865 13.359928
57.870 13.286616
57.875 13.528104
57.880 13.970151
57.885 14.473859
57.890 14.637602
57.895 14.545001
57.900 14.861326
57.905 15.109797
57.910 15.112679
57.915 14.987614
57.920 15.175306
57.925 14.827564
57.930 14.904747
57.935 14.512018
57.940 13.776414
57.945 13.208539
57.950 13.355782
57.955 13.008698
57.960 13.003808
57.965 13.129225
57.970 13.445252
57.975 13.955105
57.980 14.55534
57.985 15.001406
57.990 15.285626
57.995 15.130569
58.000 14.932159
58.005 14.985505
58.010 14.928476
58.015 14.739798
58.020 13.764456
58.025 13.423131
58.030 13.555852
58.035 13.858972
58.040 13.877776
58.045 13.566366
58.050 13.271091
58.055 13.189307
58.060 13.235564
58.065 12.898799
58.070 12.850591
58.075 12.967528
58.080 13.596308
58.085 13.859895
58.090 14.128022
58.095 14.261332
58.100 14.931601
58.105 15.142408
58.110 15.311266
58.115 15.117217
58.120 15.436234
58.125 15.81097
58.130 16.134981
58.135 15.834168
58.140 15.696465
58.145 15.659768
58.150 15.563125
58.155 15.283295
58.160 15.374331
58.165 15.471036
58.170 15.595111
58.175 15.543923
58.180 15.425322
58.185 15.812242
58.190 16.269567
58.195 16.325428
58.200 16.009857
58.205 15.856883
58.210 15.547507
58.215 15.727859
58.220 15.411016
58.225 15.117845
58.230 14.744795
58.235 14.721848
58.240 15.435627
58.245 15.525569
58.250 15.28504
58.255 15.70662
58.260 16.033258
58.265 17.015976
58.270 16.895466
58.275 16.466133
58.280 17.336592
58.285 17.662743
58.290 18.046778
58.295 17.763662
58.300 17.415461
58.305 18.256659
58.310 18.620676
58.315 18.167465
58.320 17.867952
58.325 17.409576
58.330 17.723211
58.335 18.467306
58.340 19.104351
58.345 20.224314
58.350 21.047943
58.355 21.468225
58.360 22.104849
58.365 22.545795
58.370 21.73032
58.375 21.173515
58.380 20.133715
58.385 19.986908
58.390 20.111496
58.395 20.03134
58.400 20.387438
58.405 20.928236
58.410 20.96677
58.415 21.124809
58.420 21.483166
58.425 22.335865
58.430 22.466402
58.435 21.897171
58.440 21.957951
58.445 21.99324
58.450 22.404591
58.455 22.628347
58.460 22.354889
58.465 23.080219
58.470 23.982355
58.475 23.856028
58.480 23.960831
58.485 23.758575
58.490 24.032949
58.495 24.088398
58.500 23.755259
58.505 23.718325
58.510 24.03977
58.515 24.145622
58.520 24.812305
58.525 25.325232
58.530 25.979498
58.535 25.701159
58.540 25.422228
58.545 26.028099
58.550 26.303753
58.555 26.209471
58.560 26.28167
58.565 25.715271
58.570 26.489584
58.575 26.447838
58.580 25.458574
58.585 24.895872
58.590 24.817825
