!@!!GADDS PLOTSO FILE: Chi integration type
!@!!Title/SampleName: map-31
!@!!Comment: ?
!@!!User: Bruker Instrument Administrator
!@!!Site: University of Illinois Chicago
!@!!Frame: map-31_01_000.gfrm
!@!!Wavelengths    1.54184   1.54056   1.54439
!@!!Frame angles: 2Theta: 63.000 Omega: 50.000 Phi: 0.000 Chi: 90.000
!@!!Integration range: 2Theta: 53.000 to 73.000  Gamma: -105.000 to -75.000
!@!!Integration method: bin normalized
!@!N
!@!SS
!@!M
!@!L 0.0 0.0 0.0 0.0
!@!XDegrees
!@!YCounts
53.000 9.629857
53.005 9.416368
53.010 9.226492
53.015 9.62949
53.020 10.084201
53.025 10.50157
53.030 10.38233
53.035 10.620424
53.040 10.5105
53.045 11.311662
53.050 11.615433
53.055 12.324882
53.060 12.831728
53.065 12.968191
53.070 12.960302
53.075 13.084053
53.080 12.290238
53.085 11.860991
53.090 11.227498
53.095 11.167126
53.100 11.532701
53.105 11.746185
53.110 11.77561
53.115 11.864059
53.120 11.406403
53.125 11.134622
53.130 10.791312
53.135 10.345668
53.140 10.321417
53.145 10.129309
53.150 10.276443
53.155 10.479204
53.160 10.840962
53.165 11.017022
53.170 10.923305
53.175 11.132075
53.180 11.068312
53.185 11.19015
53.190 11.41968
53.195 10.862176
53.200 11.170115
53.205 11.147372
53.210 10.932073
53.215 10.775081
53.220 10.434583
53.225 10.176436
53.230 10.552473
53.235 10.736682
53.240 11.09545
53.245 11.194393
53.250 11.346434
53.255 11.804339
53.260 11.65039
53.265 11.10428
53.270 11.050832
53.275 11.215008
53.280 11.408531
53.285 10.925935
53.290 10.522411
53.295 10.958283
53.300 10.876312
53.305 10.714079
53.310 10.595204
53.315 10.880442
53.320 11.217274
53.325 11.274137
53.330 11.249915
53.335 11.515502
53.340 11.290545
53.345 11.242983
53.350 11.211261
53.355 10.663507
53.360 10.521844
53.365 10.628313
53.370 10.578654
53.375 11.000648
53.380 10.692965
53.385 10.947855
53.390 11.80995
53.395 11.659348
53.400 11.900517
53.405 11.827575
53.410 11.826479
53.415 11.830669
53.420 11.227879
53.425 10.918508
53.430 10.973391
53.435 10.868832
53.440 10.872783
53.445 11.132412
53.450 11.25493
53.455 11.505891
53.460 11.213678
53.465 11.123013
53.470 11.467569
53.475 11.386722
53.480 11.051995
53.485 10.577763
53.490 10.472213
53.495 10.891404
53.500 10.819029
53.505 10.435385
53.510 10.469923
53.515 10.674005
53.520 11.019542
53.525 10.855726
53.530 10.835302
53.535 10.835961
53.540 11.000208
53.545 11.138106
53.550 10.862453
53.555 11.015194
53.560 11.216399
53.565 11.273908
53.570 11.311228
53.575 11.178411
53.580 11.191042
53.585 11.364623
53.590 11.520448
53.595 12.127911
53.600 12.226928
53.605 11.768722
53.610 11.81698
53.615 11.694948
53.620 11.482237
53.625 11.422423
53.630 10.599886
53.635 10.640906
53.640 11.189063
53.645 11.056076
53.650 11.125399
53.655 11.088151
53.660 11.18027
53.665 11.282237
53.670 11.318667
53.675 11.153704
53.680 11.231566
53.685 11.49767
53.690 11.464057
53.695 11.056071
53.700 11.009897
53.705 10.772295
53.710 10.402775
53.715 10.210283
53.720 10.252779
53.725 10.430158
53.730 10.526317
53.735 10.694955
53.740 10.955911
53.745 11.410902
53.750 11.517995
53.755 11.158108
53.760 11.208153
53.765 11.111681
53.770 10.58004
53.775 10.601574
53.780 10.653448
53.785 10.729844
53.790 10.676647
53.795 10.26595
53.800 10.530643
53.805 10.955832
53.810 10.662716
53.815 10.503395
53.820 10.610406
53.825 11.024602
53.830 11.579862
53.835 11.754849
53.840 11.687476
53.845 11.602154
53.850 11.641361
53.855 11.822046
53.860 11.876622
53.865 11.503318
53.870 10.860838
53.875 10.698634
53.880 10.922154
53.885 11.381122
53.890 11.148739
53.895 10.764721
53.900 10.714525
53.905 10.914674
53.910 10.753731
53.915 10.72648
53.920 10.498363
53.925 10.040714
53.930 10.165246
53.935 10.077632
53.940 10.545891
53.945 10.563885
53.950 10.087625
53.955 10.085409
53.960 10.764556
53.965 11.396086
53.970 11.421892
53.975 11.214588
53.980 11.359079
53.985 11.264876
53.990 11.253476
53.995 10.971145
54.000 10.634295
54.005 10.476258
54.010 10.470387
54.015 10.401949
54.020 10.316295
54.025 10.441886
54.030 10.3873
54.035 10.637403
54.040 11.2706
54.045 11.21708
54.050 11.567954
54.055 12.294496
54.060 12.354797
54.065 12.346221
54.070 12.878591
54.075 12.622721
54.080 13.047623
54.085 13.29477
54.090 12.972399
54.095 12.655954
54.100 12.407094
54.105 11.614006
54.110 11.336936
54.115 11.242437
54.120 10.996388
54.125 11.458921
54.130 11.92677
54.135 12.172933
54.140 12.650304
54.145 13.250517
54.150 13.14779
54.155 12.886003
54.160 12.26258
54.165 12.138137
54.170 12.040209
54.175 11.790705
54.180 11.507164
54.185 11.387345
54.190 11.467714
54.195 11.139463
54.200 10.812377
54.205 10.726214
54.210 10.755903
54.215 10.746419
54.220 10.737138
54.225 10.998746
54.230 11.24528
54.235 11.491483
54.240 12.008285
54.245 12.243303
54.250 12.111011
54.255 12.216294
54.260 12.547
54.265 12.547288
54.270 12.060535
54.275 11.603475
54.280 11.45283
54.285 12.254474
54.290 12.203191
54.295 11.472209
54.300 11.189206
54.305 11.886227
54.310 12.157192
54.315 11.854862
54.320 11.411661
54.325 11.802187
54.330 12.494706
54.335 13.048499
54.340 12.675394
54.345 12.450544
54.350 12.710827
54.355 12.557965
54.360 12.727063
54.365 12.99482
54.370 13.359711
54.375 13.581573
54.380 13.435949
54.385 13.258188
54.390 12.833489
54.395 12.627131
54.400 12.176528
54.405 11.487915
54.410 11.400106
54.415 11.74638
54.420 11.496164
54.425 11.523862
54.430 11.535625
54.435 11.28619
54.440 11.636173
54.445 11.851387
54.450 11.469738
54.455 11.532146
54.460 11.474947
54.465 11.851229
54.470 12.047068
54.475 11.91041
54.480 11.973386
54.485 12.388703
54.490 12.667089
54.495 12.808182
54.500 12.82412
54.505 13.117418
54.510 13.288075
54.515 13.293645
54.520 13.873239
54.525 14.605274
54.530 14.647587
54.535 14.230954
54.540 13.945594
54.545 14.062743
54.550 14.128601
54.555 13.313787
54.560 12.90903
54.565 12.704652
54.570 12.726149
54.575 12.395891
54.580 12.247148
54.585 12.312935
54.590 12.195951
54.595 12.440192
54.600 12.62347
54.605 12.890205
54.610 13.621777
54.615 13.555737
54.620 12.968908
54.625 13.161288
54.630 13.0445
54.635 12.816051
54.640 12.512717
54.645 11.937693
54.650 11.357821
54.655 11.40487
54.660 11.586428
54.665 11.520051
54.670 12.260829
54.675 12.647455
54.680 13.214595
54.685 13.943727
54.690 14.093957
54.695 13.409818
54.700 12.910239
54.705 12.190007
54.710 11.864797
54.715 11.840659
54.720 11.509614
54.725 11.360355
54.730 12.228186
54.735 12.410949
54.740 12.002224
54.745 11.547987
54.750 11.574609
54.755 11.661506
54.760 11.194437
54.765 11.089693
54.770 11.602397
54.775 12.245647
54.780 12.399113
54.785 12.187244
54.790 12.574811
54.795 12.885089
54.800 12.670785
54.805 12.754375
54.810 12.720223
54.815 12.30973
54.820 12.253407
54.825 12.025156
54.830 12.053188
54.835 12.223443
54.840 12.176307
54.845 12.395815
54.850 13.142127
54.855 13.075187
54.860 12.536813
54.865 12.350485
54.870 12.191315
54.875 11.874348
54.880 12.354791
54.885 12.365951
54.890 12.649772
54.895 13.391056
54.900 13.342595
54.905 13.217834
54.910 13.226871
54.915 12.862233
54.920 13.04232
54.925 12.941879
54.930 13.065975
54.935 13.128801
54.940 13.288536
54.945 13.527947
54.950 13.485949
54.955 13.435432
54.960 13.191267
54.965 12.771099
54.970 12.801044
54.975 12.786699
54.980 12.847408
54.985 12.946613
54.990 12.557673
54.995 12.638155
55.000 12.480786
55.005 12.323863
55.010 11.870335
55.015 10.659925
55.020 10.374681
55.025 10.57559
55.030 10.880752
55.035 11.082961
55.040 11.142241
55.045 11.8689
55.050 13.228047
55.055 13.551657
55.060 13.437433
55.065 13.276678
55.070 13.736759
55.075 13.520688
55.080 13.452106
55.085 12.803353
55.090 12.698238
55.095 13.03011
55.100 13.00659
55.105 12.907286
55.110 13.207841
55.115 13.425457
55.120 14.100803
55.125 14.144248
55.130 14.092247
55.135 14.008102
55.140 13.69175
55.145 13.365997
55.150 12.848419
55.155 12.560062
55.160 12.300942
55.165 12.374307
55.170 12.65643
55.175 12.931026
55.180 13.395711
55.185 13.275907
55.190 13.246217
55.195 13.814795
55.200 13.44475
55.205 13.615787
55.210 13.968942
55.215 13.464609
55.220 13.714668
55.225 13.65208
55.230 13.210219
55.235 13.309742
55.240 13.083688
55.245 12.681199
55.250 12.880666
55.255 13.056283
55.260 13.338602
55.265 13.571578
55.270 13.562089
55.275 13.597142
55.280 13.646843
55.285 13.783398
55.290 13.390197
55.295 13.021985
55.300 12.884794
55.305 13.098145
55.310 13.441579
55.315 13.125194
55.320 12.805745
55.325 12.550762
55.330 12.5904
55.335 12.79995
55.340 12.846338
55.345 12.681242
55.350 13.130353
55.355 13.813201
55.360 14.091344
55.365 13.927187
55.370 13.652099
55.375 13.084942
55.380 12.812545
55.385 12.249708
55.390 12.316504
55.395 12.182277
55.400 12.100839
55.405 12.226552
55.410 12.203116
55.415 12.463621
55.420 12.572918
55.425 11.98441
55.430 11.872493
55.435 11.856496
55.440 11.862775
55.445 12.41852
55.450 13.11503
55.455 13.319242
55.460 13.619608
55.465 14.124375
55.470 14.305357
55.475 14.505763
55.480 14.213646
55.485 13.945269
55.490 13.7468
55.495 13.960731
55.500 14.359409
55.505 14.222892
55.510 13.764552
55.515 13.594606
55.520 13.504518
55.525 13.863445
55.530 13.362405
55.535 12.787959
55.540 12.864813
55.545 13.212528
55.550 13.123528
55.555 13.104627
55.560 13.061265
55.565 13.669765
55.570 14.011576
55.575 14.252306
55.580 14.158881
55.585 14.288916
55.590 13.915089
55.595 14.174601
55.600 13.738997
55.605 13.527273
55.610 13.239416
55.615 13.157538
55.620 12.879111
55.625 13.171681
55.630 13.45105
55.635 13.735492
55.640 13.924416
55.645 14.279694
55.650 14.224995
55.655 14.90294
55.660 14.59054
55.665 13.864832
55.670 13.169246
55.675 12.479517
55.680 12.278387
55.685 12.674345
55.690 12.424367
55.695 12.292733
55.700 12.500004
55.705 12.947004
55.710 13.783167
55.715 13.835775
55.720 13.613276
55.725 13.702266
55.730 13.594971
55.735 13.472339
55.740 13.212834
55.745 13.328218
55.750 13.528521
55.755 13.244829
55.760 13.215325
55.765 13.404935
55.770 13.887583
55.775 14.198884
55.780 14.146588
55.785 14.254346
55.790 14.393992
55.795 14.979318
55.800 14.783269
55.805 14.566101
55.810 14.381229
55.815 14.304821
55.820 14.311197
55.825 14.084595
55.830 14.312851
55.835 14.898493
55.840 14.904819
55.845 14.960591
55.850 14.773381
55.855 14.092218
55.860 13.537749
55.865 13.088426
55.870 12.645247
55.875 12.848902
55.880 12.787089
55.885 12.955488
55.890 13.776707
55.895 14.179358
55.900 14.169322
55.905 14.014962
55.910 13.840425
55.915 13.824945
55.920 13.862241
55.925 14.125595
55.930 14.299254
55.935 14.520771
55.940 14.620435
55.945 14.61737
55.950 14.391976
55.955 14.036551
55.960 13.815391
55.965 13.256855
55.970 12.986173
55.975 12.97516
55.980 13.08948
55.985 13.209298
55.990 13.07239
55.995 12.565216
56.000 12.615122
56.005 12.86349
56.010 12.450658
56.015 11.696801
56.020 11.963789
56.025 12.34232
56.030 12.897114
56.035 12.985758
56.040 12.751227
56.045 13.18509
56.050 13.587859
56.055 13.249695
56.060 12.930716
56.065 12.508416
56.070 12.549701
56.075 12.382524
56.080 12.109065
56.085 11.520952
56.090 11.115005
56.095 10.848006
56.100 10.833457
56.105 10.777902
56.110 11.253247
56.115 11.951215
56.120 12.849477
56.125 13.399599
56.130 14.273565
56.135 14.498405
56.140 14.639594
56.145 14.710137
56.150 13.923551
56.155 14.194559
56.160 14.281901
56.165 14.066666
56.170 14.447319
56.175 14.30147
56.180 14.672777
56.185 14.767608
56.190 14.602522
56.195 14.040154
56.200 13.855329
56.205 13.168635
56.210 13.369514
56.215 12.975214
56.220 12.774848
56.225 12.740118
56.230 13.323479
56.235 13.753563
56.240 14.165148
56.245 14.477903
56.250 14.772153
56.255 15.000658
56.260 15.027055
56.265 15.021852
56.270 15.152726
56.275 15.518488
56.280 14.927409
56.285 15.038036
56.290 15.585012
56.295 15.852164
56.300 15.842795
56.305 15.704889
56.310 15.213277
56.315 15.537855
56.320 15.537013
56.325 15.3964
56.330 14.880711
56.335 14.724372
56.340 14.78376
56.345 15.432034
56.350 15.350922
56.355 15.170807
56.360 14.95432
56.365 14.505245
56.370 14.014846
56.375 13.546901
56.380 12.683117
56.385 13.015678
56.390 13.146151
56.395 13.757463
56.400 14.502877
56.405 14.509094
56.410 14.477563
56.415 15.041756
56.420 14.715753
56.425 14.073293
56.430 13.808577
56.435 13.580783
56.440 13.616872
56.445 13.250951
56.450 13.004122
56.455 13.117698
56.460 13.404206
56.465 13.854862
56.470 13.714838
56.475 14.082355
56.480 14.610261
56.485 14.832295
56.490 14.668957
56.495 14.056168
56.500 12.997725
56.505 12.972738
56.510 12.933035
56.515 12.374458
56.520 12.536398
56.525 13.020832
56.530 13.764796
56.535 14.406052
56.540 14.560108
56.545 14.605961
56.550 14.786941
56.555 14.818465
56.560 14.670151
56.565 13.931805
56.570 14.530451
56.575 14.419953
56.580 14.55831
56.585 14.687024
56.590 14.451044
56.595 14.671015
56.600 15.136399
56.605 14.539413
56.610 14.803143
56.615 14.799282
56.620 14.587715
56.625 14.9423
56.630 14.669136
56.635 14.321293
56.640 14.262769
56.645 14.181457
56.650 13.838728
56.655 13.892406
56.660 14.030103
56.665 13.755268
56.670 14.153488
56.675 14.166381
56.680 14.317868
56.685 14.737051
56.690 15.160423
56.695 15.660278
56.700 16.627216
56.705 17.21344
56.710 17.416777
56.715 17.470478
56.720 17.676384
56.725 17.460426
56.730 16.382437
56.735 16.089607
56.740 15.257598
56.745 15.02619
56.750 15.028877
56.755 14.422185
56.760 14.499667
56.765 14.727036
56.770 15.071967
56.775 15.536264
56.780 15.824165
56.785 15.495758
56.790 15.655773
56.795 15.967772
56.800 16.292448
56.805 15.972321
56.810 15.952802
56.815 15.690635
56.820 15.847461
56.825 15.858278
56.830 15.704265
56.835 15.323026
56.840 15.735269
56.845 15.796408
56.850 15.507966
56.855 15.37432
56.860 15.037634
56.865 15.091861
56.870 15.007329
56.875 14.348099
56.880 14.119243
56.885 14.113148
56.890 13.901268
56.895 14.654151
56.900 14.663123
56.905 14.693435
56.910 14.600189
56.915 14.594529
56.920 15.035597
56.925 15.186073
56.930 14.624578
56.935 14.36127
56.940 14.471375
56.945 14.448727
56.950 14.383674
56.955 14.486832
56.960 14.723013
56.965 14.806055
56.970 14.60622
56.975 14.680381
56.980 14.898521
56.985 15.18123
56.990 15.343493
56.995 14.97279
57.000 14.726474
57.005 15.134254
57.010 15.052038
57.015 15.225422
57.020 14.872906
57.025 14.627606
57.030 14.633487
57.035 14.234069
57.040 13.894149
57.045 13.832527
57.050 13.704302
57.055 13.907614
57.060 13.554346
57.065 13.96401
57.070 13.80624
57.075 13.875191
57.080 14.089855
57.085 14.219028
57.090 14.441036
57.095 14.677902
57.100 14.605504
57.105 15.074892
57.110 15.262316
57.115 15.057426
57.120 15.190899
57.125 15.159069
57.130 14.765265
57.135 14.619143
57.140 14.95545
57.145 15.456135
57.150 15.316818
57.155 14.976234
57.160 15.417584
57.165 15.52894
57.170 15.644782
57.175 15.163235
57.180 14.899771
57.185 14.618162
57.190 14.691868
57.195 14.244166
57.200 14.454456
57.205 14.231676
57.210 14.376078
57.215 14.287739
57.220 14.763744
57.225 14.652591
57.230 14.824675
57.235 14.928578
57.240 15.148271
57.245 14.915571
57.250 14.937618
57.255 14.643659
57.260 14.563826
57.265 14.564438
57.270 14.977736
57.275 15.090049
57.280 15.224079
57.285 15.116285
57.290 15.239223
57.295 15.348033
57.300 15.490243
57.305 15.187458
57.310 15.348771
57.315 15.364425
57.320 15.852707
57.325 16.078222
57.330 15.978803
57.335 15.472975
57.340 15.29942
57.345 15.229728
57.350 15.157785
57.355 14.761148
57.360 14.704322
57.365 15.382089
57.370 15.509882
57.375 15.872315
57.380 16.554192
57.385 17.015137
57.390 16.97308
57.395 17.003788
57.400 16.919029
57.405 16.737062
57.410 16.112494
57.415 15.083651
57.420 14.606446
57.425 15.154716
57.430 15.333803
57.435 14.897364
57.440 14.853031
57.445 14.861103
57.450 15.206565
57.455 15.083632
57.460 14.823589
57.465 14.701895
57.470 15.243726
57.475 15.834452
57.480 16.478991
57.485 16.940332
57.490 17.092752
57.495 17.073236
57.500 16.80361
57.505 16.878977
57.510 16.359406
57.515 15.870317
57.520 15.930714
57.525 15.933026
57.530 16.104239
57.535 16.187132
57.540 16.395403
57.545 16.625309
57.550 16.968767
57.555 16.712555
57.560 16.896257
57.565 17.124025
57.570 17.172934
57.575 16.618479
57.580 16.103212
57.585 15.62128
57.590 15.944448
57.595 15.785306
57.600 15.56364
57.605 15.632435
57.610 16.368923
57.615 16.849829
57.620 16.441553
57.625 16.581614
57.630 16.636766
57.635 16.614361
57.640 17.102636
57.645 16.948498
57.650 17.068382
57.655 17.369564
57.660 16.982143
57.665 17.226786
57.670 16.739157
57.675 16.316561
57.680 16.270926
57.685 16.306255
57.690 16.483135
57.695 16.464954
57.700 16.084093
57.705 16.461708
57.710 16.529694
57.715 16.793762
57.720 17.098383
57.725 17.423655
57.730 17.38273
57.735 17.417248
57.740 16.983534
57.745 16.747532
57.750 16.665905
57.755 16.041739
57.760 15.703336
57.765 15.52208
57.770 15.680778
57.775 15.929924
57.780 16.034622
57.785 16.017433
57.790 15.946447
57.795 15.697159
57.800 15.841777
57.805 15.340178
57.810 14.991993
57.815 14.672881
57.820 14.303876
57.825 14.51889
57.830 14.655073
57.835 14.63463
57.840 15.103452
57.845 15.372339
57.850 15.766486
57.855 15.810506
57.860 15.566476
57.865 16.342934
57.870 16.945236
57.875 17.107162
57.880 17.357136
57.885 17.576805
57.890 18.456078
57.895 18.51355
57.900 18.545809
57.905 18.004717
57.910 18.251066
57.915 18.368013
57.920 17.710594
57.925 17.390327
57.930 17.227266
57.935 17.147957
57.940 17.029753
57.945 16.637028
57.950 16.426039
57.955 16.519035
57.960 16.73881
57.965 17.167131
57.970 17.576542
57.975 18.345901
57.980 19.054874
57.985 19.744034
57.990 19.741447
57.995 20.203394
58.000 20.016726
58.005 19.317865
58.010 18.91024
58.015 18.155523
58.020 17.836443
58.025 18.178831
58.030 17.796442
58.035 17.642673
58.040 17.7208
58.045 17.55267
58.050 17.946775
58.055 18.081488
58.060 17.655283
58.065 17.748676
58.070 18.35219
58.075 18.499809
58.080 18.079678
58.085 17.798717
58.090 17.701384
58.095 18.206915
58.100 18.190937
58.105 18.088202
58.110 18.469776
58.115 18.432724
58.120 18.712278
58.125 19.164164
58.130 18.993187
58.135 18.994123
58.140 19.059132
58.145 19.040398
58.150 19.109356
58.155 18.790903
58.160 18.349039
58.165 18.346682
58.170 18.113335
58.175 17.005058
58.180 16.848743
58.185 16.702005
58.190 16.866449
58.195 16.879557
58.200 17.209982
58.205 17.754892
58.210 18.897156
58.215 19.877949
58.220 19.861883
58.225 19.283113
58.230 18.996143
58.235 18.898924
58.240 19.010153
58.245 18.972113
58.250 18.47069
58.255 19.477839
58.260 20.062256
58.265 20.399714
58.270 20.402643
58.275 20.508488
58.280 19.722557
58.285 19.354319
58.290 19.327892
58.295 19.671888
58.300 20.302893
58.305 21.14233
58.310 20.850067
58.315 21.405479
58.320 22.246563
58.325 21.812641
58.330 21.426306
58.335 21.295771
58.340 20.6213
58.345 21.063572
58.350 20.538374
58.355 20.408096
58.360 20.645096
58.365 21.345036
58.370 22.148293
58.375 22.577795
58.380 23.502647
58.385 25.314238
58.390 26.049011
58.395 26.952902
58.400 27.05607
58.405 26.691418
58.410 26.369629
58.415 25.755323
58.420 25.314951
58.425 24.957264
58.430 24.983788
58.435 24.682367
58.440 24.952269
