!@!!GADDS PLOTSO FILE: Chi integration type
!@!!Title/SampleName: map-167
!@!!Comment: ?
!@!!User: Bruker Instrument Administrator
!@!!Site: University of Illinois Chicago
!@!!Frame: map-167_01_000.gfrm
!@!!Wavelengths    1.54184   1.54056   1.54439
!@!!Frame angles: 2Theta: 63.000 Omega: 50.000 Phi: 0.000 Chi: 90.000
!@!!Integration range: 2Theta: 53.000 to 73.000  Gamma: -105.000 to -75.000
!@!!Integration method: bin normalized
!@!N
!@!SS
!@!M
!@!L 0.0 0.0 0.0 0.0
!@!XDegrees
!@!YCounts
53.000 3.7152
53.005 3.791445
53.010 3.938611
53.015 4.230282
53.020 4.301006
53.025 4.184513
53.030 4.059649
53.035 4.054673
53.040 3.829396
53.045 3.62843
53.050 3.495656
53.055 3.606014
53.060 3.611667
53.065 3.558058
53.070 3.636099
53.075 3.816
53.080 4.044588
53.085 3.888852
53.090 3.776474
53.095 3.993697
53.100 4.085119
53.105 4.189147
53.110 3.991125
53.115 3.700837
53.120 3.806266
53.125 3.831294
53.130 3.758085
53.135 3.848479
53.140 3.679134
53.145 3.935666
53.150 4.07102
53.155 3.954968
53.160 3.855053
53.165 3.879332
53.170 3.966954
53.175 3.994621
53.180 4.109344
53.185 3.928984
53.190 4.030613
53.195 4.030451
53.200 3.844947
53.205 3.925728
53.210 3.771592
53.215 3.605542
53.220 3.799014
53.225 3.668861
53.230 3.682365
53.235 3.462859
53.240 3.492243
53.245 3.681248
53.250 3.500049
53.255 3.385712
53.260 3.575363
53.265 3.587562
53.270 3.494944
53.275 3.329336
53.280 3.317483
53.285 3.411729
53.290 3.301867
53.295 3.256986
53.300 3.343443
53.305 3.321779
53.310 3.292634
53.315 3.315579
53.320 3.468182
53.325 3.45751
53.330 3.670634
53.335 3.920413
53.340 3.978418
53.345 4.151974
53.350 4.084376
53.355 4.25361
53.360 4.673916
53.365 4.730096
53.370 4.94568
53.375 4.991372
53.380 4.679139
53.385 4.666585
53.390 4.822601
53.395 4.525396
53.400 4.144051
53.405 4.008708
53.410 4.149456
53.415 4.250159
53.420 3.969818
53.425 3.723471
53.430 3.592338
53.435 3.732671
53.440 3.760034
53.445 3.711896
53.450 3.95627
53.455 4.014917
53.460 3.865417
53.465 3.973913
53.470 3.637631
53.475 3.571621
53.480 3.476317
53.485 3.221473
53.490 3.369991
53.495 3.310713
53.500 3.244344
53.505 3.329961
53.510 3.45235
53.515 3.23478
53.520 3.406748
53.525 3.442161
53.530 3.493589
53.535 3.448281
53.540 3.392368
53.545 3.283011
53.550 3.505017
53.555 3.36347
53.560 3.295044
53.565 3.429512
53.570 3.59037
53.575 3.766204
53.580 3.916671
53.585 3.970106
53.590 3.906295
53.595 3.678513
53.600 3.630619
53.605 3.468446
53.610 3.260503
53.615 3.348439
53.620 3.421974
53.625 3.613513
53.630 3.914872
53.635 4.015518
53.640 3.977623
53.645 3.98811
53.650 3.931906
53.655 3.965667
53.660 4.149259
53.665 4.24261
53.670 4.198848
53.675 4.337844
53.680 4.6376
53.685 4.636816
53.690 4.506414
53.695 4.195616
53.700 4.335574
53.705 4.388196
53.710 4.178536
53.715 3.767099
53.720 3.576361
53.725 3.420274
53.730 3.39399
53.735 3.114234
53.740 3.140394
53.745 3.361162
53.750 3.420257
53.755 3.554673
53.760 3.570886
53.765 3.648024
53.770 3.718228
53.775 3.631111
53.780 3.658619
53.785 3.582082
53.790 3.570465
53.795 3.325836
53.800 3.346405
53.805 3.426534
53.810 3.363732
53.815 3.261482
53.820 3.524371
53.825 3.629929
53.830 3.546076
53.835 3.452965
53.840 3.320734
53.845 3.266138
53.850 3.394976
53.855 3.444108
53.860 3.702689
53.865 3.813845
53.870 3.787899
53.875 3.723648
53.880 3.655628
53.885 3.315061
53.890 3.150723
53.895 3.001829
53.900 3.306392
53.905 3.558555
53.910 3.557509
53.915 3.72643
53.920 3.849279
53.925 4.032625
53.930 4.005538
53.935 3.748479
53.940 3.667664
53.945 3.882928
53.950 3.95249
53.955 4.019157
53.960 4.010258
53.965 4.086661
53.970 3.824174
53.975 3.64181
53.980 3.614808
53.985 3.652642
53.990 3.530946
53.995 3.260289
54.000 3.371822
54.005 3.65908
54.010 3.754741
54.015 3.791836
54.020 3.81911
54.025 4.133323
54.030 4.193586
54.035 4.268199
54.040 4.3047
54.045 4.312243
54.050 4.266198
54.055 4.141231
54.060 3.856456
54.065 3.656546
54.070 3.563532
54.075 3.642921
54.080 3.668879
54.085 3.761057
54.090 3.830568
54.095 4.409906
54.100 4.474666
54.105 4.286685
54.110 4.013396
54.115 4.177566
54.120 4.284545
54.125 4.185666
54.130 3.810155
54.135 4.012414
54.140 4.276606
54.145 4.351771
54.150 4.011827
54.155 3.841961
54.160 4.084746
54.165 4.224113
54.170 4.270902
54.175 4.208734
54.180 4.303574
54.185 4.418728
54.190 4.387508
54.195 4.261821
54.200 3.987374
54.205 3.689196
54.210 3.633469
54.215 3.430241
54.220 3.187319
54.225 3.092467
54.230 2.981562
54.235 3.184065
54.240 3.501833
54.245 3.725937
54.250 3.940464
54.255 4.254519
54.260 4.559458
54.265 4.6136
54.270 4.849045
54.275 4.879764
54.280 4.895687
54.285 4.472064
54.290 4.369685
54.295 4.13276
54.300 4.186983
54.305 3.894288
54.310 3.528531
54.315 3.512284
54.320 3.74938
54.325 3.632222
54.330 3.732253
54.335 3.548441
54.340 3.789444
54.345 4.109529
54.350 3.950353
54.355 4.174156
54.360 4.211537
54.365 4.312563
54.370 4.357533
54.375 4.172255
54.380 4.03826
54.385 4.103659
54.390 3.808223
54.395 3.891796
54.400 3.999576
54.405 3.920504
54.410 3.895181
54.415 3.840376
54.420 3.885761
54.425 3.884202
54.430 3.701388
54.435 3.696509
54.440 4.047399
54.445 4.128798
54.450 3.9521
54.455 4.006517
54.460 4.044619
54.465 4.159605
54.470 4.071759
54.475 3.854451
54.480 3.903158
54.485 3.956943
54.490 4.060406
54.495 4.169159
54.500 4.079828
54.505 4.002494
54.510 4.249279
54.515 4.29516
54.520 4.30597
54.525 4.063911
54.530 4.091521
54.535 4.082192
54.540 4.094219
54.545 3.991112
54.550 4.007633
54.555 4.154686
54.560 4.26802
54.565 4.280146
54.570 4.147078
54.575 4.032869
54.580 4.000794
54.585 3.951972
54.590 3.737055
54.595 3.420239
54.600 3.479679
54.605 3.447418
54.610 3.656188
54.615 3.895845
54.620 4.017677
54.625 4.239916
54.630 4.322139
54.635 4.379246
54.640 4.367527
54.645 4.044077
54.650 3.731272
54.655 3.761628
54.660 4.043533
54.665 4.071595
54.670 3.863741
54.675 3.636954
54.680 3.733469
54.685 3.943494
54.690 3.922229
54.695 3.789996
54.700 4.021792
54.705 4.322794
54.710 4.543044
54.715 4.438921
54.720 4.356158
54.725 3.996806
54.730 3.921824
54.735 3.587662
54.740 3.326284
54.745 3.234143
54.750 3.40933
54.755 3.490581
54.760 3.575112
54.765 3.364548
54.770 3.279666
54.775 3.377995
54.780 3.067838
54.785 2.522088
54.790 2.212316
54.795 2.293412
54.800 2.422866
54.805 2.626019
54.810 2.810468
54.815 3.096996
54.820 3.398057
54.825 3.666751
54.830 3.844449
54.835 4.088759
54.840 4.205223
54.845 4.184028
54.850 4.395445
54.855 4.353585
54.860 4.319175
54.865 4.009451
54.870 3.588785
54.875 3.494023
54.880 3.149381
54.885 3.146086
54.890 3.333595
54.895 3.224023
54.900 3.249229
54.905 3.576159
54.910 3.597244
54.915 3.84007
54.920 3.908039
54.925 3.654261
54.930 3.738065
54.935 3.674903
54.940 3.768374
54.945 3.963421
54.950 4.039402
54.955 3.984303
54.960 4.008086
54.965 4.028362
54.970 4.159014
54.975 3.87827
54.980 3.761426
54.985 3.868829
54.990 4.000976
54.995 4.006937
55.000 3.941535
55.005 3.915865
55.010 4.056706
55.015 3.93002
55.020 3.761654
55.025 3.851302
55.030 3.715078
55.035 3.678644
55.040 3.655776
55.045 3.720508
55.050 3.687734
55.055 3.666557
55.060 4.068638
55.065 4.371678
55.070 4.444355
55.075 4.382461
55.080 4.254308
55.085 4.311443
55.090 3.85398
55.095 3.550851
55.100 3.474603
55.105 3.215688
55.110 3.392318
55.115 3.680071
55.120 3.874585
55.125 4.085932
55.130 4.125394
55.135 4.227224
55.140 4.334594
55.145 4.003589
55.150 3.681998
55.155 3.334446
55.160 3.269013
55.165 3.242023
55.170 3.203111
55.175 3.269206
55.180 3.451776
55.185 3.783031
55.190 4.015361
55.195 3.989601
55.200 3.791266
55.205 3.748074
55.210 3.75351
55.215 3.616576
55.220 3.596057
55.225 3.793226
55.230 3.832388
55.235 3.969086
55.240 3.885087
55.245 3.874856
55.250 3.860729
55.255 3.590409
55.260 3.41818
55.265 3.741202
55.270 4.069465
55.275 4.126759
55.280 4.104307
55.285 4.322007
55.290 4.595563
55.295 4.664665
55.300 4.297239
55.305 4.094625
55.310 3.901154
55.315 3.961073
55.320 3.676101
55.325 3.499442
55.330 3.430449
55.335 3.427097
55.340 3.202128
55.345 3.314355
55.350 3.129801
55.355 3.457739
55.360 3.759367
55.365 3.977685
55.370 4.08173
55.375 4.295657
55.380 4.294655
55.385 4.572947
55.390 4.576729
55.395 4.106615
55.400 3.720139
55.405 3.69954
55.410 3.736526
55.415 3.819584
55.420 3.695009
55.425 3.88105
55.430 4.155445
55.435 4.184899
55.440 4.153296
55.445 4.149221
55.450 4.293596
55.455 3.865746
55.460 3.741364
55.465 3.963536
55.470 4.338177
55.475 4.614239
55.480 4.556008
55.485 4.690822
55.490 4.833726
55.495 4.624822
55.500 4.504506
55.505 4.273758
55.510 4.067424
55.515 4.036977
55.520 3.949088
55.525 3.941145
55.530 3.657368
55.535 3.686876
55.540 3.813987
55.545 3.813227
55.550 3.625352
55.555 3.457181
55.560 3.24778
55.565 3.558696
55.570 3.730165
55.575 3.427759
55.580 3.513351
55.585 3.657734
55.590 3.739443
55.595 4.038053
55.600 3.96022
55.605 3.944403
55.610 4.143327
55.615 4.371119
55.620 4.581841
55.625 4.565816
55.630 4.556589
55.635 4.340144
55.640 4.024246
55.645 4.032413
55.650 4.007606
55.655 4.107207
55.660 4.269853
55.665 4.14459
55.670 4.045942
55.675 4.133054
55.680 3.841882
55.685 3.819969
55.690 3.870387
55.695 3.908427
55.700 3.863957
55.705 4.169347
55.710 4.243731
55.715 4.312956
55.720 3.996698
55.725 3.830906
55.730 3.928049
55.735 3.620138
55.740 3.341732
55.745 3.306734
55.750 3.360974
55.755 3.625299
55.760 3.793751
55.765 3.898018
55.770 4.329922
55.775 4.391302
55.780 4.431647
55.785 4.397391
55.790 4.072404
55.795 3.62231
55.800 3.318055
55.805 3.640774
55.810 3.990478
55.815 4.009881
55.820 4.187942
55.825 4.297986
55.830 4.375154
55.835 4.524553
55.840 4.385021
55.845 4.539208
55.850 4.731846
55.855 4.560521
55.860 4.659535
55.865 5.13349
55.870 5.194309
55.875 4.895369
55.880 4.743702
55.885 4.866898
55.890 5.027764
55.895 4.699895
55.900 4.185304
55.905 3.767222
55.910 3.694241
55.915 3.701769
55.920 3.423636
55.925 3.326407
55.930 3.58394
55.935 4.096761
55.940 4.623682
55.945 4.986509
55.950 4.728384
55.955 4.850985
55.960 4.859299
55.965 4.682757
55.970 4.352111
55.975 4.140517
55.980 3.860406
55.985 3.940231
55.990 3.862674
55.995 3.881992
56.000 3.893745
56.005 3.737842
56.010 3.608892
56.015 3.969569
56.020 4.139555
56.025 4.310191
56.030 4.402288
56.035 4.457291
56.040 4.66719
56.045 4.804067
56.050 4.332714
56.055 4.216159
56.060 4.019368
56.065 3.88082
56.070 3.838961
56.075 3.557253
56.080 3.408388
56.085 3.078477
56.090 2.842516
56.095 2.869359
56.100 2.648165
56.105 2.746083
56.110 2.97919
56.115 3.136033
56.120 3.373921
56.125 3.678088
56.130 3.777874
56.135 4.153028
56.140 4.322828
56.145 4.327354
56.150 4.437091
56.155 4.452589
56.160 4.518062
56.165 4.717402
56.170 4.458003
56.175 4.331754
56.180 4.82771
56.185 4.979433
56.190 5.144006
56.195 5.202883
56.200 5.118388
56.205 5.319762
56.210 5.351257
56.215 4.922485
56.220 4.713081
56.225 4.294486
56.230 4.182001
56.235 4.32408
56.240 4.233947
56.245 4.230974
56.250 4.096689
56.255 4.226151
56.260 4.256601
56.265 4.295125
56.270 4.231259
56.275 4.264686
56.280 4.029841
56.285 4.297283
56.290 4.438912
56.295 4.616537
56.300 4.840952
56.305 4.782491
56.310 4.709732
56.315 4.972689
56.320 5.213041
56.325 5.150949
56.330 5.07302
56.335 4.748616
56.340 4.681715
56.345 4.742138
56.350 4.606325
56.355 4.385609
56.360 4.39036
56.365 4.161352
56.370 4.342303
56.375 4.545833
56.380 4.674879
56.385 4.386075
56.390 4.153003
56.395 4.262394
56.400 4.344503
56.405 4.359827
56.410 4.685996
56.415 4.679562
56.420 5.001452
56.425 5.03494
56.430 4.946482
56.435 4.887942
56.440 4.793056
56.445 4.466582
56.450 4.250666
56.455 4.120564
56.460 4.482402
56.465 4.581571
56.470 4.62186
56.475 4.57388
56.480 4.704948
56.485 5.149317
56.490 5.505984
56.495 5.455644
56.500 5.721537
56.505 6.034657
56.510 6.10575
56.515 5.945539
56.520 5.490841
56.525 4.822603
56.530 4.645523
56.535 4.681291
56.540 4.636958
56.545 4.316122
56.550 4.355983
56.555 4.527545
56.560 4.814329
56.565 4.807399
56.570 4.312222
56.575 4.102196
56.580 4.13784
56.585 4.123502
56.590 3.944896
56.595 3.836517
56.600 3.811618
56.605 3.98264
56.610 4.051609
56.615 4.030244
56.620 3.879659
56.625 4.104803
56.630 4.50519
56.635 4.521157
56.640 4.499879
56.645 4.634446
56.650 4.84454
56.655 5.038964
56.660 4.963537
56.665 4.680293
56.670 4.686424
56.675 4.37942
56.680 4.311653
56.685 4.106998
56.690 3.992873
56.695 3.861537
56.700 3.885937
56.705 3.917964
56.710 3.992933
56.715 4.020357
56.720 4.433298
56.725 4.610299
56.730 4.920709
56.735 4.781091
56.740 5.016743
56.745 5.090993
56.750 5.279887
56.755 5.27686
56.760 5.363472
56.765 5.188934
56.770 5.245647
56.775 4.974517
56.780 4.850311
56.785 4.813685
56.790 4.539869
56.795 4.355156
56.800 4.348307
56.805 4.312931
56.810 4.470428
56.815 4.044742
56.820 3.916426
56.825 4.083331
56.830 4.280756
56.835 4.324607
56.840 4.312516
56.845 4.695173
56.850 4.936466
56.855 4.817188
56.860 4.849743
56.865 4.617692
56.870 4.812092
56.875 5.000526
56.880 4.724846
56.885 4.817058
56.890 4.888406
56.895 4.787566
56.900 4.83474
56.905 4.690873
56.910 4.444087
56.915 4.374154
56.920 4.194682
56.925 4.057594
56.930 4.227187
56.935 4.268863
56.940 4.352693
56.945 4.562352
56.950 4.919839
56.955 5.232496
56.960 4.96131
56.965 4.798929
56.970 4.781632
56.975 4.79225
56.980 4.635742
56.985 4.333779
56.990 4.266673
56.995 4.672168
57.000 4.683228
57.005 4.502967
57.010 4.458091
57.015 4.54636
57.020 4.762726
57.025 4.494591
57.030 4.440105
57.035 4.612607
57.040 4.723404
57.045 4.686532
57.050 4.562809
57.055 4.41787
57.060 4.781614
57.065 4.663967
57.070 4.336278
57.075 4.532453
57.080 4.39043
57.085 4.50322
57.090 4.675185
57.095 4.592045
57.100 4.70013
57.105 4.737939
57.110 4.495703
57.115 4.719006
57.120 4.952636
57.125 4.996655
57.130 4.746808
57.135 4.646721
57.140 4.941267
57.145 4.881077
57.150 5.083683
57.155 4.706587
57.160 4.435074
57.165 4.624534
57.170 4.846661
57.175 4.707421
57.180 5.055991
57.185 5.467568
57.190 5.649556
57.195 5.827172
57.200 5.637501
57.205 5.288086
57.210 5.066827
57.215 4.533556
57.220 3.581282
57.225 3.520466
57.230 3.550837
57.235 3.77425
57.240 3.973803
57.245 3.984896
57.250 4.115962
57.255 3.959655
57.260 3.596236
57.265 3.420165
57.270 3.269117
57.275 3.139107
57.280 3.204393
57.285 3.284706
57.290 3.704891
57.295 4.060237
57.300 4.439602
57.305 4.465784
57.310 4.607847
57.315 4.886304
57.320 4.867723
57.325 4.770678
57.330 4.671537
57.335 4.726957
57.340 5.128653
57.345 4.870569
57.350 4.471777
57.355 4.490338
57.360 4.555341
57.365 4.763444
57.370 5.000196
57.375 5.020572
57.380 5.40186
57.385 5.790971
57.390 6.09308
57.395 5.848382
57.400 5.678621
57.405 5.377435
57.410 5.256907
57.415 4.935409
57.420 4.454176
57.425 4.608288
57.430 5.058338
57.435 5.066206
57.440 5.154424
57.445 5.029732
57.450 5.496474
57.455 6.080511
57.460 5.779116
57.465 5.586172
57.470 5.292531
57.475 5.15121
57.480 5.203918
57.485 4.716486
57.490 4.131295
57.495 4.132906
57.500 3.990309
57.505 4.038677
57.510 4.101725
57.515 3.891938
57.520 3.91351
57.525 3.956568
57.530 3.902859
57.535 3.754541
57.540 3.770704
57.545 3.742419
57.550 3.822118
57.555 3.664319
57.560 3.540582
57.565 3.75284
57.570 3.884071
57.575 3.653456
57.580 3.797025
57.585 3.996824
57.590 4.260501
57.595 4.46324
57.600 4.559152
57.605 4.680561
57.610 5.016731
57.615 5.095512
57.620 5.181168
57.625 4.893681
57.630 4.658504
57.635 4.634244
57.640 4.793119
57.645 4.526952
57.650 4.262058
57.655 4.07854
57.660 4.184397
57.665 4.07194
57.670 4.143567
57.675 3.991676
57.680 4.060575
57.685 4.409905
57.690 4.290985
57.695 4.626895
57.700 4.887525
57.705 4.729658
57.710 4.464941
57.715 4.265667
57.720 4.160268
57.725 4.455992
57.730 4.714212
57.735 4.806319
57.740 4.664264
57.745 4.926482
57.750 4.942945
57.755 4.754558
57.760 4.612726
57.765 4.375119
57.770 4.3274
57.775 4.610246
57.780 4.681236
57.785 4.723598
57.790 4.85316
57.795 4.95959
57.800 4.764962
57.805 4.755409
57.810 4.538626
57.815 4.518005
57.820 4.549703
57.825 4.336063
57.830 4.121748
57.835 4.118373
57.840 4.065499
57.845 4.082092
57.850 4.143408
57.855 4.486755
57.860 4.875734
57.865 4.792823
57.870 4.715436
57.875 4.409122
57.880 4.373945
57.885 4.261694
57.890 3.926912
57.895 3.867663
57.900 4.152231
57.905 4.636005
57.910 5.118828
57.915 5.455486
57.920 5.596434
57.925 5.817691
57.930 5.818545
57.935 6.082251
57.940 5.404347
57.945 5.294279
57.950 5.034867
57.955 4.870108
57.960 4.61634
57.965 4.766796
57.970 4.589103
57.975 4.808932
57.980 4.671542
57.985 4.944759
57.990 5.463838
57.995 5.456186
58.000 4.975938
58.005 5.023321
58.010 5.15407
58.015 5.491778
58.020 5.312096
58.025 5.033298
58.030 5.517268
58.035 5.693798
58.040 5.77925
58.045 5.555974
58.050 5.401038
58.055 5.29531
58.060 5.131501
58.065 4.61687
58.070 4.952929
58.075 4.996521
58.080 5.009813
58.085 4.713661
58.090 4.754382
58.095 4.620402
58.100 4.629886
58.105 4.268536
58.110 4.24922
58.115 4.356615
58.120 4.681039
58.125 4.60149
58.130 4.77273
58.135 5.005285
58.140 4.974021
58.145 4.864676
58.150 4.816752
58.155 4.856616
58.160 4.947834
58.165 4.96154
58.170 4.789526
58.175 4.916443
58.180 5.120692
58.185 5.41397
58.190 5.201762
58.195 5.166921
58.200 5.068603
58.205 5.007983
58.210 4.80254
58.215 4.666828
58.220 4.036096
58.225 3.924434
58.230 4.071002
58.235 4.339142
58.240 4.545025
58.245 4.341187
58.250 4.365307
58.255 4.729815
58.260 4.978039
58.265 4.867443
58.270 4.880332
58.275 4.724001
58.280 4.599708
58.285 4.3422
58.290 4.358408
58.295 4.253463
58.300 4.242775
58.305 4.082526
58.310 4.183486
58.315 4.587716
58.320 4.921324
58.325 5.041255
58.330 4.835898
58.335 4.904489
58.340 4.939446
58.345 4.805612
58.350 4.739301
58.355 4.538161
58.360 4.448622
58.365 4.665037
58.370 4.619781
58.375 4.648092
58.380 4.749985
58.385 4.925085
58.390 5.19808
58.395 5.508317
58.400 5.397744
58.405 5.432668
58.410 5.780724
58.415 5.769891
58.420 5.571681
58.425 5.363144
58.430 5.286973
58.435 5.267529
58.440 5.14324
58.445 4.950354
58.450 4.948819
58.455 5.099782
58.460 5.340275
58.465 5.361773
58.470 5.274509
58.475 5.223576
58.480 5.117895
58.485 4.966153
58.490 4.825562
58.495 4.820362
58.500 4.774481
58.505 4.863901
58.510 4.930101
58.515 5.029161
58.520 5.394768
58.525 5.262205
58.530 5.065267
58.535 5.04672
58.540 4.868585
58.545 4.734104
58.550 4.77168
58.555 4.818912
58.560 4.870745
58.565 4.788637
58.570 4.763421
58.575 4.816127
58.580 5.113638
58.585 5.135004
58.590 5.033225
58.595 5.059746
58.600 5.143077
58.605 5.206608
58.610 5.152351
58.615 4.972009
58.620 5.138123
58.625 5.464724
58.630 5.658978
58.635 5.605012
58.640 5.642411
58.645 5.806633
58.650 5.845481
58.655 5.874016
58.660 5.76656
58.665 5.685239
58.670 5.692069
58.675 5.623254
58.680 5.771888
58.685 5.546284
58.690 5.401529
58.695 5.616971
58.700 5.893469
58.705 5.9708
58.710 6.005014
58.715 6.04835
58.720 6.328741
58.725 6.44884
58.730 6.218156
58.735 6.309674
58.740 6.480513
58.745 6.512079
58.750 6.366595
58.755 6.400632
58.760 6.275268
