!@!!GADDS PLOTSO FILE: Chi integration type
!@!!Title/SampleName: map-1c
!@!!Comment: ?
!@!!User: Bruker Instrument Administrator
!@!!Site: University of Illinois Chicago
!@!!Frame: map-1c_01_000.gfrm
!@!!Wavelengths    1.54184   1.54056   1.54439
!@!!Frame angles: 2Theta: 63.000 Omega: 50.000 Phi: 0.000 Chi: 90.000
!@!!Integration range: 2Theta: 53.000 to 73.000  Gamma: -105.000 to -75.000
!@!!Integration method: bin normalized
!@!N
!@!SS
!@!M
!@!L 0.0 0.0 0.0 0.0
!@!XDegrees
!@!YCounts
53.000 8.344428
53.005 8.899986
53.010 9.078393
53.015 9.119353
53.020 8.981363
53.025 9.223737
53.030 9.855248
53.035 9.551733
53.040 9.181942
53.045 9.696437
53.050 9.688485
53.055 9.851912
53.060 9.302418
53.065 8.801373
53.070 8.499074
53.075 8.551234
53.080 8.157298
53.085 8.080745
53.090 8.055902
53.095 8.165915
53.100 8.574994
53.105 9.015676
53.110 9.247555
53.115 9.081953
53.120 9.151524
53.125 9.201951
53.130 8.498464
53.135 8.162451
53.140 8.027917
53.145 7.8681
53.150 8.03641
53.155 7.999087
53.160 8.122887
53.165 8.606975
53.170 8.80205
53.175 8.753815
53.180 8.879065
53.185 8.875458
53.190 9.215225
53.195 9.78443
53.200 9.786234
53.205 9.573291
53.210 9.509272
53.215 9.907392
53.220 9.885229
53.225 9.624552
53.230 9.106498
53.235 8.990066
53.240 9.200925
53.245 8.854668
53.250 8.536527
53.255 8.575124
53.260 8.777615
53.265 8.904631
53.270 8.813777
53.275 8.878968
53.280 9.025698
53.285 9.479452
53.290 9.149294
53.295 9.099306
53.300 8.837007
53.305 8.664802
53.310 8.274232
53.315 8.096019
53.320 7.916488
53.325 8.077672
53.330 8.192827
53.335 8.079882
53.340 8.376882
53.345 8.985942
53.350 8.997443
53.355 8.834496
53.360 8.78108
53.365 8.695511
53.370 9.067575
53.375 9.329812
53.380 9.511922
53.385 8.908536
53.390 9.102182
53.395 9.439356
53.400 9.696964
53.405 9.662956
53.410 9.632722
53.415 9.577162
53.420 9.604324
53.425 9.3201
53.430 9.219412
53.435 9.168181
53.440 8.80419
53.445 8.558768
53.450 8.576142
53.455 8.754154
53.460 8.761531
53.465 9.093905
53.470 9.21207
53.475 9.031047
53.480 8.889509
53.485 8.887691
53.490 8.98288
53.495 9.278527
53.500 9.326098
53.505 9.451818
53.510 9.748201
53.515 9.936196
53.520 10.206264
53.525 10.028356
53.530 9.865129
53.535 9.642728
53.540 9.747572
53.545 9.870923
53.550 9.893882
53.555 9.922213
53.560 9.734018
53.565 9.314384
53.570 9.493321
53.575 9.548442
53.580 9.489472
53.585 9.038834
53.590 9.410649
53.595 10.002391
53.600 10.301619
53.605 9.837232
53.610 9.668598
53.615 9.573195
53.620 9.835443
53.625 9.697805
53.630 9.280294
53.635 9.143399
53.640 9.415122
53.645 9.576493
53.650 9.912409
53.655 9.806931
53.660 9.689942
53.665 10.083364
53.670 10.274307
53.675 10.147814
53.680 10.082474
53.685 9.767904
53.690 10.246042
53.695 9.916489
53.700 9.745995
53.705 9.573219
53.710 9.543205
53.715 10.10616
53.720 10.033637
53.725 9.880257
53.730 9.936351
53.735 9.733235
53.740 10.15187
53.745 9.91732
53.750 9.530196
53.755 9.543606
53.760 9.688157
53.765 9.906083
53.770 10.185189
53.775 9.888193
53.780 9.89953
53.785 9.917046
53.790 9.974476
53.795 9.900617
53.800 10.027133
53.805 9.693149
53.810 9.99601
53.815 10.629594
53.820 10.681543
53.825 10.673437
53.830 10.731212
53.835 10.625798
53.840 10.742476
53.845 10.722257
53.850 10.697268
53.855 10.559489
53.860 10.223501
53.865 9.971177
53.870 9.964225
53.875 9.663504
53.880 8.979906
53.885 8.660327
53.890 8.619883
53.895 8.843718
53.900 8.703671
53.905 8.619675
53.910 8.831611
53.915 8.98398
53.920 9.000082
53.925 9.184126
53.930 9.767275
53.935 9.904064
53.940 10.000844
53.945 10.102294
53.950 10.12088
53.955 10.312889
53.960 10.31624
53.965 10.311923
53.970 10.742537
53.975 10.897784
53.980 10.945369
53.985 11.188083
53.990 11.000781
53.995 10.964669
54.000 10.654172
54.005 10.550289
54.010 10.630729
54.015 10.547932
54.020 10.511619
54.025 10.646849
54.030 10.230875
54.035 10.297576
54.040 10.657873
54.045 10.477187
54.050 10.559069
54.055 10.503087
54.060 10.979839
54.065 11.289086
54.070 10.993557
54.075 10.608251
54.080 11.146538
54.085 11.328732
54.090 11.290136
54.095 11.224502
54.100 11.302995
54.105 11.532261
54.110 11.470218
54.115 10.895053
54.120 10.885942
54.125 11.013275
54.130 10.384841
54.135 9.969348
54.140 10.178144
54.145 9.937783
54.150 9.96022
54.155 9.545486
54.160 9.280442
54.165 9.975514
54.170 9.836816
54.175 9.400283
54.180 9.642979
54.185 10.486876
54.190 11.063588
54.195 11.196552
54.200 11.018097
54.205 11.048969
54.210 11.536461
54.215 11.330608
54.220 11.075677
54.225 10.872416
54.230 10.991319
54.235 11.355818
54.240 11.488675
54.245 11.809882
54.250 11.862574
54.255 11.420621
54.260 11.430522
54.265 11.291364
54.270 10.896832
54.275 10.383494
54.280 9.989533
54.285 9.551355
54.290 9.672647
54.295 9.832344
54.300 9.798933
54.305 10.336081
54.310 10.352637
54.315 10.299679
54.320 10.415485
54.325 10.228175
54.330 10.062986
54.335 10.214999
54.340 10.275406
54.345 10.31273
54.350 10.358985
54.355 10.121217
54.360 9.950131
54.365 9.454837
54.370 8.87714
54.375 8.798645
54.380 8.954442
54.385 9.271449
54.390 9.503671
54.395 9.890533
54.400 10.422883
54.405 10.933276
54.410 10.977486
54.415 10.51345
54.420 10.416871
54.425 10.412973
54.430 10.019519
54.435 9.6345
54.440 9.053646
54.445 9.189502
54.450 9.058603
54.455 9.133388
54.460 9.227127
54.465 9.487268
54.470 9.235631
54.475 9.523257
54.480 9.462678
54.485 9.513605
54.490 9.887651
54.495 9.654772
54.500 9.731495
54.505 10.103583
54.510 10.051932
54.515 9.844223
54.520 9.596333
54.525 9.17215
54.530 9.677788
54.535 9.793012
54.540 10.137012
54.545 10.275817
54.550 10.743782
54.555 11.488398
54.560 11.604209
54.565 11.145525
54.570 10.679262
54.575 10.067554
54.580 9.583842
54.585 9.135279
54.590 8.804417
54.595 8.84263
54.600 9.009863
54.605 9.096773
54.610 9.447794
54.615 10.054443
54.620 10.113355
54.625 10.146693
54.630 9.952062
54.635 10.32909
54.640 10.5898
54.645 10.662773
54.650 10.641554
54.655 10.80344
54.660 10.553349
54.665 10.440552
54.670 10.204059
54.675 9.94003
54.680 10.237113
54.685 10.108685
54.690 10.237815
54.695 10.160124
54.700 10.662951
54.705 11.106158
54.710 11.254538
54.715 10.847442
54.720 10.740624
54.725 10.578217
54.730 10.638982
54.735 10.216121
54.740 9.466677
54.745 9.839405
54.750 9.964456
54.755 10.309291
54.760 10.595906
54.765 10.856319
54.770 11.459636
54.775 11.754274
54.780 11.297575
54.785 10.839544
54.790 10.914872
54.795 10.778624
54.800 10.611666
54.805 10.564516
54.810 10.48908
54.815 10.303638
54.820 10.318114
54.825 9.961878
54.830 10.548262
54.835 10.436824
54.840 10.234605
54.845 10.42193
54.850 10.539367
54.855 10.608683
54.860 10.233172
54.865 9.648372
54.870 10.012161
54.875 10.361598
54.880 10.143528
54.885 10.334322
54.890 10.509943
54.895 10.575792
54.900 10.438515
54.905 10.045185
54.910 10.027676
54.915 10.504182
54.920 10.90778
54.925 10.843408
54.930 10.647945
54.935 10.697644
54.940 10.375822
54.945 10.463264
54.950 10.537837
54.955 10.303278
54.960 10.16502
54.965 10.207631
54.970 10.223669
54.975 10.248899
54.980 9.819878
54.985 9.732286
54.990 9.543902
54.995 9.445086
55.000 9.242867
55.005 9.562125
55.010 9.843255
55.015 10.171357
55.020 10.466359
55.025 11.142342
55.030 11.525349
55.035 12.159925
55.040 11.901925
55.045 11.810493
55.050 11.433804
55.055 11.054424
55.060 10.91412
55.065 11.42384
55.070 11.437563
55.075 11.778792
55.080 11.951956
55.085 12.006432
55.090 11.579896
55.095 11.045601
55.100 10.658692
55.105 10.740976
55.110 10.858126
55.115 11.022564
55.120 11.352994
55.125 12.131981
55.130 12.732734
55.135 12.590246
55.140 12.111418
55.145 11.854913
55.150 11.772072
55.155 11.287552
55.160 11.258731
55.165 11.017517
55.170 11.078715
55.175 11.294825
55.180 11.084702
55.185 11.491033
55.190 11.744883
55.195 11.473629
55.200 11.292148
55.205 11.122144
55.210 10.945376
55.215 10.616289
55.220 10.654353
55.225 10.690309
55.230 10.761954
55.235 10.976263
55.240 10.915485
55.245 11.389924
55.250 11.293591
55.255 11.253803
55.260 11.087879
55.265 11.068766
55.270 11.356859
55.275 11.584312
55.280 11.67203
55.285 12.006373
55.290 11.545356
55.295 11.545049
55.300 11.309091
55.305 11.119159
55.310 10.753201
55.315 10.495865
55.320 10.099385
55.325 10.159317
55.330 10.123948
55.335 10.100584
55.340 10.1957
55.345 10.297902
55.350 10.906374
55.355 11.282572
55.360 11.767964
55.365 12.296575
55.370 12.722158
55.375 12.977159
55.380 12.603434
55.385 11.843496
55.390 11.314985
55.395 10.910245
55.400 10.773847
55.405 10.421256
55.410 10.167727
55.415 10.108889
55.420 10.181206
55.425 10.653001
55.430 10.828586
55.435 10.294829
55.440 10.562743
55.445 11.065401
55.450 11.476912
55.455 11.954765
55.460 11.792036
55.465 12.248211
55.470 12.741872
55.475 12.210056
55.480 12.037118
55.485 11.993288
55.490 12.247436
55.495 12.292972
55.500 12.704438
55.505 13.031679
55.510 13.334829
55.515 13.607267
55.520 13.606
55.525 13.362099
55.530 13.363441
55.535 13.126315
55.540 13.184221
55.545 13.032939
55.550 12.663647
55.555 12.406857
55.560 12.330601
55.565 12.495815
55.570 11.826106
55.575 11.517304
55.580 11.516516
55.585 11.670364
55.590 11.557079
55.595 11.242139
55.600 10.96166
55.605 11.146268
55.610 10.469649
55.615 10.172626
55.620 9.951088
55.625 9.741057
55.630 9.814181
55.635 10.118808
55.640 9.8757
55.645 10.341975
55.650 10.761436
55.655 10.857291
55.660 10.96868
55.665 11.1731
55.670 10.592417
55.675 11.11556
55.680 11.488523
55.685 11.615903
55.690 11.751838
55.695 11.724353
55.700 11.300621
55.705 11.708514
55.710 11.900323
55.715 12.540335
55.720 12.728874
55.725 12.635039
55.730 12.932089
55.735 13.003393
55.740 12.606586
55.745 12.260699
55.750 11.784211
55.755 11.600335
55.760 11.344296
55.765 10.987898
55.770 11.586555
55.775 12.106986
55.780 12.068134
55.785 11.632267
55.790 11.476705
55.795 11.501741
55.800 11.782535
55.805 11.184921
55.810 11.044831
55.815 10.912958
55.820 11.103299
55.825 11.722703
55.830 12.082388
55.835 12.169737
55.840 12.618261
55.845 12.516978
55.850 12.468362
55.855 12.406084
55.860 12.385211
55.865 12.443973
55.870 12.186174
55.875 11.83362
55.880 12.010685
55.885 12.164819
55.890 12.301532
55.895 11.931997
55.900 11.723023
55.905 11.912331
55.910 11.465554
55.915 11.128678
55.920 11.470631
55.925 11.930688
55.930 12.724141
55.935 12.835503
55.940 12.823048
55.945 13.395963
55.950 13.373805
55.955 13.110025
55.960 12.896635
55.965 12.622841
55.970 12.88062
55.975 12.891016
55.980 12.840669
55.985 12.723392
55.990 12.301385
55.995 12.440009
56.000 12.741668
56.005 12.849051
56.010 12.76932
56.015 12.685682
56.020 12.71233
56.025 12.982634
56.030 12.19852
56.035 11.361028
56.040 10.556236
56.045 10.876145
56.050 11.106705
56.055 11.155071
56.060 10.747574
56.065 10.947623
56.070 11.236403
56.075 11.614439
56.080 11.265311
56.085 10.891242
56.090 10.768339
56.095 10.998872
56.100 10.790505
56.105 10.813743
56.110 11.379091
56.115 12.157545
56.120 12.305012
56.125 12.475207
56.130 12.621203
56.135 13.190682
56.140 13.402412
56.145 12.896279
56.150 12.685372
56.155 12.372731
56.160 12.260111
56.165 12.311837
56.170 12.049895
56.175 11.752931
56.180 11.604868
56.185 12.026405
56.190 12.362247
56.195 12.167251
56.200 12.522613
56.205 13.054646
56.210 13.196221
56.215 13.231251
56.220 13.281427
56.225 13.538354
56.230 13.825366
56.235 13.524543
56.240 13.684812
56.245 13.698419
56.250 13.575415
56.255 13.152178
56.260 13.184355
56.265 12.862977
56.270 12.464614
56.275 12.070927
56.280 11.824463
56.285 11.418992
56.290 11.651766
56.295 11.629781
56.300 11.728099
56.305 11.785725
56.310 12.166893
56.315 12.705673
56.320 12.757185
56.325 12.495504
56.330 12.535906
56.335 12.085749
56.340 11.798862
56.345 11.695679
56.350 11.94433
56.355 12.24882
56.360 12.335787
56.365 12.371022
56.370 12.774292
56.375 12.558391
56.380 12.308262
56.385 11.944256
56.390 12.194351
56.395 12.116072
56.400 12.382171
56.405 12.497417
56.410 12.818463
56.415 12.919444
56.420 12.692914
56.425 12.587823
56.430 12.927194
56.435 12.996379
56.440 12.993869
56.445 13.178869
56.450 13.358543
56.455 13.405481
56.460 13.312179
56.465 12.626823
56.470 12.513779
56.475 12.587916
56.480 11.841807
56.485 11.748364
56.490 11.68066
56.495 11.855411
56.500 12.388724
56.505 12.721485
56.510 12.647319
56.515 12.676265
56.520 12.448266
56.525 12.473911
56.530 12.62062
56.535 12.09713
56.540 12.24108
56.545 12.270157
56.550 12.16049
56.555 12.748238
56.560 13.183359
56.565 12.950813
56.570 12.837088
56.575 12.559064
56.580 12.791838
56.585 12.697802
56.590 11.902335
56.595 11.533206
56.600 12.193569
56.605 12.505364
56.610 12.327013
56.615 12.41351
56.620 12.433493
56.625 12.496178
56.630 12.16731
56.635 12.036611
56.640 11.8842
56.645 11.913105
56.650 11.9559
56.655 12.256091
56.660 12.940877
56.665 13.505507
56.670 13.255509
56.675 13.539012
56.680 13.589082
56.685 13.819729
56.690 14.001022
56.695 13.519903
56.700 13.106249
56.705 13.400135
56.710 13.124605
56.715 13.116124
56.720 13.585658
56.725 13.818732
56.730 14.176959
56.735 14.369178
56.740 14.17619
56.745 14.393656
56.750 14.236855
56.755 13.866616
56.760 13.407373
56.765 12.979121
56.770 13.095281
56.775 13.254295
56.780 13.363358
56.785 13.28434
56.790 13.198
56.795 13.753889
56.800 14.289755
56.805 13.963619
56.810 13.571322
56.815 13.648902
56.820 13.781523
56.825 13.630597
56.830 13.664913
56.835 13.823048
56.840 14.190247
56.845 14.885087
56.850 14.974508
56.855 15.069855
56.860 14.855077
56.865 14.666464
56.870 14.12536
56.875 13.709927
56.880 13.916709
56.885 13.720037
56.890 13.39171
56.895 13.352205
56.900 13.558613
56.905 14.319937
56.910 14.176062
56.915 13.814894
56.920 14.075679
56.925 14.56706
56.930 14.92559
56.935 14.272345
56.940 13.57502
56.945 13.027336
56.950 12.651499
56.955 13.376981
56.960 13.628589
56.965 13.261382
56.970 13.356579
56.975 13.810288
56.980 14.566328
56.985 14.51867
56.990 13.994442
56.995 13.764061
57.000 13.875102
57.005 14.071701
57.010 14.147464
57.015 13.629992
57.020 13.616506
57.025 13.073978
57.030 13.015903
57.035 13.030413
57.040 12.631738
57.045 12.653787
57.050 12.770887
57.055 13.020656
57.060 13.462039
57.065 13.056038
57.070 12.979746
57.075 13.557792
57.080 13.636507
57.085 13.411803
57.090 13.405578
57.095 13.446122
57.100 14.037395
57.105 14.197869
57.110 13.499257
57.115 13.806255
57.120 13.935699
57.125 13.358028
57.130 13.16172
57.135 12.928368
57.140 12.755498
57.145 13.282189
57.150 12.961375
57.155 13.412842
57.160 13.994213
57.165 14.095473
57.170 14.359735
57.175 14.519343
57.180 14.695357
57.185 14.5019
57.190 14.046668
57.195 13.919894
57.200 13.762192
57.205 13.865277
57.210 12.880174
57.215 11.982486
57.220 12.079427
57.225 12.251224
57.230 11.890004
57.235 11.660236
57.240 11.496548
57.245 12.252134
57.250 12.768471
57.255 12.880378
57.260 13.063902
57.265 13.443272
57.270 13.798861
57.275 13.6882
57.280 13.217028
57.285 13.575614
57.290 13.834643
57.295 13.262404
57.300 12.994597
57.305 12.825305
57.310 13.134359
57.315 13.324859
57.320 13.126763
57.325 13.675979
57.330 14.558887
57.335 14.958405
57.340 15.229177
57.345 14.939083
57.350 14.141034
57.355 13.423457
57.360 12.614794
57.365 12.263539
57.370 12.106983
57.375 11.86381
57.380 11.781541
57.385 12.685267
57.390 13.276602
57.395 13.428124
57.400 13.383455
57.405 13.772892
57.410 13.778068
57.415 14.105573
57.420 14.389661
57.425 14.38655
57.430 14.585777
57.435 14.919481
57.440 14.598213
57.445 14.880322
57.450 15.046047
57.455 14.825787
57.460 14.745693
57.465 14.693393
57.470 14.201313
57.475 14.085264
57.480 14.06284
57.485 14.140973
57.490 14.287152
57.495 13.985888
57.500 13.87578
57.505 13.903324
57.510 14.136985
57.515 14.30784
57.520 14.549141
57.525 14.37479
57.530 14.069966
57.535 13.632043
57.540 13.521133
57.545 12.874256
57.550 12.519438
57.555 12.236705
57.560 12.701436
57.565 13.380789
57.570 13.737234
57.575 14.01345
57.580 14.542748
57.585 14.457848
57.590 13.630259
57.595 13.562672
57.600 13.763918
57.605 14.251401
57.610 14.381068
57.615 14.277591
57.620 14.396412
57.625 15.410237
57.630 15.632441
57.635 15.480947
57.640 15.159977
57.645 15.059186
57.650 14.768801
57.655 15.196928
57.660 15.42659
57.665 15.017137
57.670 15.282456
57.675 15.643634
57.680 16.150223
57.685 16.342209
57.690 15.883573
57.695 15.419421
57.700 15.56494
57.705 15.642715
57.710 15.750503
57.715 15.523838
57.720 15.808104
57.725 15.79213
57.730 15.808976
57.735 15.688972
57.740 15.706111
57.745 15.48461
57.750 15.348332
57.755 15.224184
57.760 15.27241
57.765 15.92083
57.770 15.89739
57.775 15.371262
57.780 15.799664
57.785 16.219297
57.790 16.123468
57.795 16.263208
57.800 16.009239
57.805 15.84551
57.810 15.633099
57.815 15.4081
57.820 15.285485
57.825 14.979757
57.830 14.114844
57.835 13.782522
57.840 13.691614
57.845 13.575461
57.850 13.455773
57.855 13.647624
57.860 13.827553
57.865 13.6497
57.870 13.621428
57.875 13.517718
57.880 13.174243
57.885 13.333753
57.890 12.710017
57.895 12.701794
57.900 13.354383
57.905 13.525637
57.910 14.31838
57.915 14.841835
57.920 14.77729
57.925 14.804369
57.930 15.135903
57.935 15.658016
57.940 16.125687
57.945 15.300678
57.950 15.295982
57.955 15.05094
57.960 15.487116
57.965 16.011005
57.970 15.616064
57.975 15.608792
57.980 16.062429
57.985 15.958941
57.990 15.982723
57.995 15.276727
58.000 14.58357
58.005 14.606976
58.010 14.385658
58.015 14.200445
58.020 13.783103
58.025 14.358632
58.030 14.857882
58.035 15.137864
58.040 14.711789
58.045 14.717116
58.050 14.838638
58.055 15.294637
58.060 15.542459
58.065 15.904596
58.070 15.794608
58.075 16.048241
58.080 16.17045
58.085 15.98053
58.090 16.02103
58.095 15.816789
58.100 15.557871
58.105 15.650963
58.110 16.135151
58.115 16.405304
58.120 16.815271
58.125 16.299746
58.130 16.073126
58.135 15.932548
58.140 15.559232
58.145 14.985366
58.150 14.594285
58.155 14.646608
58.160 14.510211
58.165 14.50475
58.170 14.502528
58.175 15.077722
58.180 15.552035
58.185 15.890619
58.190 15.632234
58.195 15.814795
58.200 16.231062
58.205 16.523912
58.210 16.278971
58.215 15.911909
58.220 15.752717
58.225 15.793574
58.230 15.669314
58.235 15.561492
58.240 15.75578
58.245 15.798177
58.250 15.820172
58.255 15.966119
58.260 16.16909
58.265 16.14699
58.270 15.747873
58.275 14.87577
58.280 14.333968
58.285 14.554206
58.290 15.07496
58.295 15.535378
58.300 15.521017
58.305 15.467198
58.310 15.845991
58.315 15.894321
58.320 15.677991
58.325 15.700921
58.330 15.985245
58.335 16.47892
58.340 16.60881
58.345 16.824768
58.350 17.04014
58.355 16.667568
58.360 16.596491
58.365 16.430555
58.370 16.345404
58.375 17.029842
58.380 17.309998
58.385 17.143867
58.390 17.183332
58.395 16.835135
58.400 16.384594
58.405 15.833388
58.410 15.487979
58.415 15.285739
58.420 16.12562
58.425 16.587669
58.430 16.725702
58.435 16.899361
58.440 17.132215
58.445 17.372744
58.450 17.293308
58.455 17.03587
58.460 17.118879
58.465 16.718292
58.470 16.83691
58.475 17.051744
58.480 16.625906
58.485 16.51792
58.490 16.171663
58.495 15.886975
58.500 16.339012
58.505 16.301588
