!@!!GADDS PLOTSO FILE: Chi integration type
!@!!Title/SampleName: map-164
!@!!Comment: ?
!@!!User: Bruker Instrument Administrator
!@!!Site: University of Illinois Chicago
!@!!Frame: map-164_01_000.gfrm
!@!!Wavelengths    1.54184   1.54056   1.54439
!@!!Frame angles: 2Theta: 63.000 Omega: 50.000 Phi: 0.000 Chi: 90.000
!@!!Integration range: 2Theta: 53.000 to 73.000  Gamma: -105.000 to -75.000
!@!!Integration method: bin normalized
!@!N
!@!SS
!@!M
!@!L 0.0 0.0 0.0 0.0
!@!XDegrees
!@!YCounts
53.000 3.49229
53.005 3.547221
53.010 3.922663
53.015 4.232008
53.020 4.235441
53.025 4.428003
53.030 4.226252
53.035 4.046165
53.040 4.098439
53.045 4.014682
53.050 3.780459
53.055 3.578204
53.060 3.571799
53.065 3.720139
53.070 4.019557
53.075 3.895099
53.080 3.711611
53.085 3.749973
53.090 3.877434
53.095 3.794967
53.100 3.741027
53.105 3.713451
53.110 3.868584
53.115 4.262125
53.120 4.42152
53.125 4.370203
53.130 4.325172
53.135 4.573939
53.140 4.718921
53.145 4.480145
53.150 4.21466
53.155 3.991908
53.160 4.075443
53.165 3.813085
53.170 3.726234
53.175 3.670509
53.180 3.953601
53.185 4.284668
53.190 4.117844
53.195 4.044653
53.200 4.138112
53.205 3.933205
53.210 3.694268
53.215 3.519226
53.220 3.849921
53.225 4.083296
53.230 4.089401
53.235 3.992985
53.240 3.839171
53.245 4.033904
53.250 3.637408
53.255 3.545526
53.260 3.555003
53.265 3.549113
53.270 3.935393
53.275 4.207075
53.280 4.006436
53.285 3.909514
53.290 3.859465
53.295 4.225428
53.300 4.448427
53.305 4.36545
53.310 4.283216
53.315 4.496855
53.320 4.49214
53.325 4.291603
53.330 4.136892
53.335 3.985987
53.340 4.060056
53.345 4.11772
53.350 4.049412
53.355 4.062293
53.360 3.925361
53.365 3.908912
53.370 4.134507
53.375 4.319055
53.380 4.262761
53.385 4.491745
53.390 4.76915
53.395 4.833718
53.400 4.514878
53.405 4.197504
53.410 3.90516
53.415 3.746088
53.420 3.674025
53.425 3.610062
53.430 3.840754
53.435 4.045028
53.440 4.081253
53.445 4.332308
53.450 4.685073
53.455 4.820351
53.460 4.855611
53.465 4.531037
53.470 4.518124
53.475 4.514623
53.480 4.225425
53.485 4.202376
53.490 4.007539
53.495 3.773665
53.500 3.785551
53.505 4.036316
53.510 4.202917
53.515 4.074965
53.520 3.975175
53.525 4.055753
53.530 4.373768
53.535 4.517939
53.540 4.420094
53.545 4.382963
53.550 4.365145
53.555 4.185194
53.560 4.106091
53.565 3.830451
53.570 3.57969
53.575 3.584981
53.580 3.860563
53.585 4.314147
53.590 4.689519
53.595 4.844735
53.600 5.006678
53.605 4.866835
53.610 4.747363
53.615 4.165049
53.620 3.983455
53.625 3.644739
53.630 3.183486
53.635 3.077488
53.640 3.086361
53.645 3.318541
53.650 3.484277
53.655 3.611547
53.660 4.277676
53.665 4.595407
53.670 4.695492
53.675 4.904859
53.680 5.084531
53.685 5.166056
53.690 5.251649
53.695 4.982373
53.700 4.862468
53.705 4.630341
53.710 4.540618
53.715 4.557435
53.720 4.429881
53.725 4.139881
53.730 4.238435
53.735 4.466851
53.740 4.723119
53.745 4.851157
53.750 5.079599
53.755 5.221963
53.760 5.19373
53.765 5.387085
53.770 5.761592
53.775 5.973019
53.780 5.764878
53.785 5.387305
53.790 5.521299
53.795 5.758903
53.800 5.910127
53.805 5.655541
53.810 5.277102
53.815 5.365857
53.820 5.376512
53.825 5.165394
53.830 4.710469
53.835 4.209901
53.840 4.289505
53.845 4.110626
53.850 4.011996
53.855 3.836163
53.860 3.75805
53.865 3.793831
53.870 3.791021
53.875 3.705842
53.880 4.056207
53.885 4.064319
53.890 4.401798
53.895 4.627834
53.900 5.150082
53.905 5.361939
53.910 5.249908
53.915 5.457977
53.920 5.837935
53.925 5.751606
53.930 5.43621
53.935 5.020228
53.940 5.20617
53.945 5.388712
53.950 5.153495
53.955 4.999456
53.960 5.121743
53.965 5.323789
53.970 5.227688
53.975 4.882061
53.980 4.913941
53.985 4.874794
53.990 4.959355
53.995 5.077904
54.000 5.675196
54.005 5.96829
54.010 6.013286
54.015 6.314348
54.020 6.398691
54.025 6.337759
54.030 6.062261
54.035 5.850456
54.040 5.775229
54.045 6.118865
54.050 6.151249
54.055 6.104142
54.060 6.097825
54.065 6.199791
54.070 6.222839
54.075 6.478757
54.080 6.327585
54.085 6.544802
54.090 6.837421
54.095 7.052559
54.100 7.011228
54.105 7.072008
54.110 7.07899
54.115 7.138593
54.120 7.022207
54.125 7.381213
54.130 7.943742
54.135 8.21113
54.140 8.303995
54.145 8.026347
54.150 7.755493
54.155 7.79734
54.160 7.312
54.165 7.11988
54.170 7.327694
54.175 7.810585
54.180 8.263973
54.185 8.361714
54.190 8.223698
54.195 8.370957
54.200 8.328578
54.205 7.845309
54.210 7.734213
54.215 7.685732
54.220 8.071257
54.225 8.335601
54.230 8.643375
54.235 8.49427
54.240 8.691257
54.245 8.781939
54.250 8.995586
54.255 8.663636
54.260 8.38156
54.265 8.225416
54.270 8.764642
54.275 8.787191
54.280 8.964046
54.285 9.033566
54.290 9.590286
54.295 9.729122
54.300 9.901849
54.305 9.892877
54.310 9.617607
54.315 9.282149
54.320 9.331405
54.325 9.363415
54.330 9.782469
54.335 9.752027
54.340 10.12777
54.345 10.368637
54.350 10.040367
54.355 9.45167
54.360 8.939256
54.365 8.841944
54.370 8.846226
54.375 8.128438
54.380 8.02836
54.385 8.196095
54.390 8.502539
54.395 8.475972
54.400 8.269782
54.405 8.226092
54.410 8.281021
54.415 8.156241
54.420 7.778141
54.425 7.305774
54.430 7.030945
54.435 6.603415
54.440 6.539487
54.445 6.575737
54.450 6.379487
54.455 6.740886
54.460 6.572946
54.465 6.514571
54.470 6.52382
54.475 6.160308
54.480 6.195637
54.485 6.574294
54.490 6.478756
54.495 6.305123
54.500 6.012597
54.505 6.15812
54.510 6.088273
54.515 5.759754
54.520 5.574563
54.525 5.931326
54.530 6.237793
54.535 6.51562
54.540 6.311197
54.545 6.311819
54.550 6.327927
54.555 6.181152
54.560 6.086087
54.565 6.100886
54.570 5.811763
54.575 5.605314
54.580 5.713192
54.585 5.260471
54.590 5.070388
54.595 4.928812
54.600 4.708363
54.605 4.810598
54.610 4.942172
54.615 4.889393
54.620 5.125731
54.625 5.19786
54.630 5.10469
54.635 5.176785
54.640 5.071645
54.645 4.676033
54.650 4.609941
54.655 4.671372
54.660 4.72524
54.665 4.577773
54.670 4.399402
54.675 4.579052
54.680 4.652135
54.685 4.718982
54.690 4.545173
54.695 4.630444
54.700 4.650826
54.705 4.70604
54.710 4.735234
54.715 5.115427
54.720 5.206609
54.725 5.46941
54.730 5.391409
54.735 5.211462
54.740 5.279113
54.745 5.26561
54.750 5.172549
54.755 5.387268
54.760 5.250837
54.765 5.636244
54.770 5.942205
54.775 5.740524
54.780 5.691245
54.785 5.284405
54.790 4.974096
54.795 4.829112
54.800 4.392454
54.805 4.428001
54.810 4.405223
54.815 4.443959
54.820 4.387428
54.825 4.63099
54.830 4.898818
54.835 4.941366
54.840 4.982749
54.845 4.697179
54.850 4.623616
54.855 4.67575
54.860 4.218726
54.865 3.911091
54.870 3.8891
54.875 3.900642
54.880 4.196696
54.885 4.166496
54.890 4.373983
54.895 4.66152
54.900 5.008369
54.905 5.065514
54.910 4.9867
54.915 4.848421
54.920 4.787518
54.925 4.625948
54.930 4.338327
54.935 4.066226
54.940 3.685072
54.945 3.910111
54.950 3.884904
54.955 3.863932
54.960 3.94176
54.965 4.207276
54.970 4.536813
54.975 4.91776
54.980 4.59991
54.985 4.65946
54.990 4.795998
54.995 4.969617
55.000 4.707458
55.005 4.469031
55.010 4.549934
55.015 4.788927
55.020 4.849326
55.025 4.62437
55.030 4.560197
55.035 4.734354
55.040 4.711691
55.045 4.507847
55.050 4.212961
55.055 4.426098
55.060 4.529045
55.065 4.640748
55.070 4.867808
55.075 4.970031
55.080 4.994099
55.085 4.871245
55.090 4.64316
55.095 4.378335
55.100 4.147288
55.105 3.873306
55.110 3.88338
55.115 3.921093
55.120 4.089375
55.125 4.112833
55.130 4.47003
55.135 4.451305
55.140 4.515619
55.145 4.468134
55.150 4.524619
55.155 4.488893
55.160 4.43862
55.165 4.199728
55.170 4.265143
55.175 4.341191
55.180 4.273472
55.185 4.465111
55.190 4.92793
55.195 4.994481
55.200 5.219017
55.205 5.291656
55.210 5.298678
55.215 5.58092
55.220 5.478191
55.225 5.449933
55.230 5.43804
55.235 5.188198
55.240 5.009148
55.245 4.953195
55.250 4.696701
55.255 4.299431
55.260 3.939492
55.265 3.923597
55.270 3.785207
55.275 3.999469
55.280 4.066665
55.285 4.146423
55.290 4.102492
55.295 4.34794
55.300 4.688597
55.305 4.53639
55.310 4.125277
55.315 3.907305
55.320 3.950576
55.325 4.42305
55.330 3.863235
55.335 3.68896
55.340 4.162537
55.345 4.553794
55.350 4.7538
55.355 4.645473
55.360 4.476639
55.365 4.444272
55.370 4.309224
55.375 4.00848
55.380 3.8295
55.385 3.606287
55.390 3.372547
55.395 3.468212
55.400 3.789503
55.405 3.935296
55.410 4.157753
55.415 4.256246
55.420 4.487705
55.425 4.633363
55.430 4.442606
55.435 4.192688
55.440 4.155488
55.445 3.99191
55.450 3.882742
55.455 3.695835
55.460 3.866974
55.465 4.462951
55.470 4.650226
55.475 4.662011
55.480 4.453103
55.485 4.454193
55.490 4.738447
55.495 5.01065
55.500 4.648402
55.505 4.424512
55.510 4.500223
55.515 4.784139
55.520 4.680022
55.525 4.326695
55.530 3.823231
55.535 3.809013
55.540 3.956242
55.545 3.877904
55.550 3.961786
55.555 4.125592
55.560 4.39704
55.565 4.830987
55.570 5.055504
55.575 4.881194
55.580 4.750384
55.585 4.544856
55.590 4.339577
55.595 4.224591
55.600 3.944807
55.605 3.976563
55.610 4.047662
55.615 4.141002
55.620 4.139349
55.625 4.263538
55.630 4.488976
55.635 4.935187
55.640 5.133992
55.645 5.158568
55.650 5.388512
55.655 5.603089
55.660 5.620568
55.665 5.09817
55.670 4.531655
55.675 4.412951
55.680 4.315587
55.685 4.177015
55.690 4.151167
55.695 4.33438
55.700 4.443115
55.705 4.433159
55.710 4.541819
55.715 4.777193
55.720 5.140615
55.725 5.238981
55.730 5.123231
55.735 4.994045
55.740 5.024208
55.745 4.982985
55.750 4.981034
55.755 4.509099
55.760 4.358621
55.765 4.482493
55.770 4.708022
55.775 4.736256
55.780 4.637727
55.785 4.224301
55.790 4.197357
55.795 4.283254
55.800 4.278954
55.805 4.086334
55.810 4.076744
55.815 4.183628
55.820 4.400333
55.825 4.298683
55.830 4.21943
55.835 3.971515
55.840 3.751797
55.845 3.629341
55.850 3.911371
55.855 4.1861
55.860 4.145366
55.865 4.396985
55.870 4.625124
55.875 5.073869
55.880 5.144229
55.885 5.093592
55.890 4.847027
55.895 4.731919
55.900 4.565352
55.905 4.651466
55.910 4.599844
55.915 4.496499
55.920 4.383956
55.925 4.720883
55.930 5.038984
55.935 5.088917
55.940 5.248747
55.945 5.315597
55.950 5.44894
55.955 5.098925
55.960 4.81125
55.965 4.600227
55.970 4.464803
55.975 4.369481
55.980 4.552779
55.985 4.411248
55.990 4.698751
55.995 4.817653
56.000 4.929579
56.005 5.06949
56.010 5.074592
56.015 5.04156
56.020 4.9788
56.025 4.747472
56.030 4.654264
56.035 4.892884
56.040 4.777467
56.045 4.392885
56.050 4.159715
56.055 4.555791
56.060 4.605804
56.065 4.592765
56.070 4.326583
56.075 4.367849
56.080 4.637217
56.085 4.6428
56.090 4.346949
56.095 4.478607
56.100 4.427692
56.105 4.636282
56.110 4.450527
56.115 4.534681
56.120 4.746076
56.125 4.912737
56.130 5.054817
56.135 4.980562
56.140 4.978986
56.145 5.220487
56.150 4.918325
56.155 5.127158
56.160 5.20262
56.165 5.249687
56.170 5.798939
56.175 5.669638
56.180 5.526391
56.185 5.30306
56.190 4.930519
56.195 4.842576
56.200 4.378892
56.205 3.939557
56.210 3.93081
56.215 3.958325
56.220 4.177861
56.225 4.318633
56.230 4.497655
56.235 4.990216
56.240 5.178905
56.245 5.477857
56.250 5.546058
56.255 5.509337
56.260 5.540538
56.265 5.2794
56.270 4.804392
56.275 4.361355
56.280 4.098895
56.285 4.169229
56.290 4.29755
56.295 4.59138
56.300 4.742157
56.305 4.911671
56.310 4.869887
56.315 5.043465
56.320 4.827496
56.325 4.475839
56.330 4.001073
56.335 3.876055
56.340 4.124855
56.345 4.510378
56.350 4.427455
56.355 4.208623
56.360 4.310233
56.365 4.372222
56.370 4.520291
56.375 4.337854
56.380 4.199204
56.385 4.039625
56.390 4.363177
56.395 4.56229
56.400 4.674767
56.405 4.716939
56.410 5.053746
56.415 5.186113
56.420 5.311872
56.425 5.313482
56.430 5.307851
56.435 5.314499
56.440 5.208871
56.445 4.948117
56.450 5.099918
56.455 5.216297
56.460 5.377571
56.465 5.375611
56.470 5.237606
56.475 5.172417
56.480 4.975113
56.485 4.865042
56.490 4.824315
56.495 4.731628
56.500 4.39932
56.505 4.492834
56.510 4.676763
56.515 4.824628
56.520 4.813246
56.525 4.720865
56.530 4.964615
56.535 5.299566
56.540 5.64123
56.545 5.502038
56.550 5.402705
56.555 5.153936
56.560 5.075787
56.565 5.056113
56.570 4.965145
56.575 4.579193
56.580 4.609327
56.585 4.699015
56.590 4.749315
56.595 4.311333
56.600 4.136083
56.605 4.300201
56.610 4.264668
56.615 4.254276
56.620 4.436542
56.625 4.674256
56.630 4.909132
56.635 4.655159
56.640 4.539409
56.645 4.884604
56.650 4.684694
56.655 4.41241
56.660 4.443021
56.665 4.625217
56.670 4.59673
56.675 4.542669
56.680 4.492585
56.685 4.758791
56.690 5.219834
56.695 4.97582
56.700 5.083587
56.705 5.152724
56.710 5.035358
56.715 4.959745
56.720 4.779184
56.725 4.493998
56.730 4.736171
56.735 4.614758
56.740 4.690696
56.745 4.403865
56.750 4.440853
56.755 4.702463
56.760 4.518519
56.765 4.439374
56.770 4.331323
56.775 4.385398
56.780 4.79655
56.785 4.64098
56.790 4.631397
56.795 4.760039
56.800 4.805533
56.805 4.77209
56.810 4.51634
56.815 4.311274
56.820 4.431803
56.825 4.41153
56.830 4.407677
56.835 4.541378
56.840 4.584627
56.845 4.7664
56.850 4.698221
56.855 4.642186
56.860 4.81371
56.865 4.990657
56.870 4.951026
56.875 4.992893
56.880 5.38251
56.885 5.52013
56.890 5.48351
56.895 5.372123
56.900 5.530399
56.905 5.817012
56.910 5.679264
56.915 5.559851
56.920 5.547179
56.925 5.609442
56.930 5.428302
56.935 4.909191
56.940 4.941719
56.945 5.010636
56.950 4.927656
56.955 4.812486
56.960 4.897246
56.965 5.348403
56.970 5.472018
56.975 5.710037
56.980 5.776729
56.985 5.625119
56.990 5.621479
56.995 5.322996
57.000 5.070646
57.005 5.13285
57.010 4.799942
57.015 4.928437
57.020 5.086538
57.025 5.392088
57.030 5.371272
57.035 5.261342
57.040 5.06999
57.045 4.776481
57.050 4.532327
57.055 4.435285
57.060 4.024654
57.065 4.10845
57.070 4.112395
57.075 4.003086
57.080 4.176424
57.085 4.214578
57.090 4.161955
57.095 4.478326
57.100 4.43363
57.105 4.838703
57.110 5.309511
57.115 5.188134
57.120 5.446632
57.125 5.223532
57.130 5.249619
57.135 5.285245
57.140 5.204571
57.145 5.096268
57.150 5.022238
57.155 5.094035
57.160 5.078682
57.165 4.950744
57.170 4.911979
57.175 4.665427
57.180 4.835911
57.185 4.581699
57.190 4.632504
57.195 4.599083
57.200 4.603892
57.205 4.778188
57.210 4.64572
57.215 4.550865
57.220 4.902203
57.225 4.949454
57.230 5.182573
57.235 5.282786
57.240 4.735607
57.245 4.549697
57.250 4.445917
57.255 4.128594
57.260 3.882793
57.265 3.744685
57.270 3.701957
57.275 3.960731
57.280 4.306616
57.285 4.324173
57.290 4.52683
57.295 4.80738
57.300 4.979032
57.305 4.920641
57.310 5.08111
57.315 5.365665
57.320 5.698751
57.325 6.033273
57.330 6.007939
57.335 6.014661
57.340 6.33073
57.345 6.370641
57.350 6.486468
57.355 6.291074
57.360 6.154592
57.365 5.916679
57.370 5.770128
57.375 5.764075
57.380 5.731745
57.385 5.22041
57.390 5.279215
57.395 4.937407
57.400 5.117439
57.405 4.911025
57.410 4.65021
57.415 4.645144
57.420 4.766311
57.425 4.684828
57.430 5.082878
57.435 5.18526
57.440 5.206379
57.445 5.242367
57.450 5.350796
57.455 5.377355
57.460 5.331037
57.465 5.143939
57.470 5.244363
57.475 5.315618
57.480 5.219126
57.485 5.557813
57.490 5.63333
57.495 5.743823
57.500 5.776813
57.505 5.685912
57.510 5.646662
57.515 5.482503
57.520 4.859512
57.525 4.796206
57.530 4.646201
57.535 4.685805
57.540 4.834175
57.545 4.821669
57.550 5.055529
57.555 5.161233
57.560 5.184933
57.565 5.143042
57.570 4.853042
57.575 5.000597
57.580 5.214807
57.585 5.29114
57.590 5.431196
57.595 5.377394
57.600 5.401763
57.605 5.828557
57.610 5.479894
57.615 5.241397
57.620 5.204437
57.625 5.323551
57.630 5.562079
57.635 5.857646
57.640 5.845264
57.645 5.961642
57.650 5.809289
57.655 5.769667
57.660 5.527769
57.665 5.255832
57.670 4.73283
57.675 4.566469
57.680 4.848205
57.685 5.010196
57.690 5.205519
57.695 5.273047
57.700 5.304889
57.705 5.578894
57.710 5.365736
57.715 5.1574
57.720 5.287561
57.725 4.990903
57.730 5.105258
57.735 5.239198
57.740 5.431257
57.745 5.430033
57.750 5.697243
57.755 5.585546
57.760 5.706967
57.765 5.832688
57.770 5.534714
57.775 5.216568
57.780 5.342858
57.785 4.910395
57.790 4.952989
57.795 4.986167
57.800 4.719473
57.805 4.942912
57.810 5.160772
57.815 5.335172
57.820 5.881175
57.825 6.18117
57.830 6.454924
57.835 6.564018
57.840 6.587483
57.845 6.85841
57.850 6.825749
57.855 6.659504
57.860 6.546829
57.865 6.019438
57.870 6.431367
57.875 6.610091
57.880 6.406953
57.885 6.119612
57.890 6.103107
57.895 6.253311
57.900 6.781731
57.905 6.766695
57.910 6.524718
57.915 6.813471
57.920 7.099569
57.925 7.142648
57.930 7.106834
57.935 6.589388
57.940 6.536614
57.945 6.652636
57.950 6.671479
57.955 6.632703
57.960 6.443773
57.965 6.508373
57.970 6.408899
57.975 6.663166
57.980 6.685641
57.985 6.984385
57.990 6.912537
57.995 7.270981
58.000 7.094563
58.005 7.112083
58.010 7.092571
58.015 6.69953
58.020 6.007086
58.025 5.995775
58.030 6.159359
58.035 6.148366
58.040 6.080786
58.045 6.054054
58.050 6.323238
58.055 6.614107
58.060 6.315614
58.065 6.24201
58.070 6.620068
58.075 6.753957
58.080 6.642488
58.085 6.484615
58.090 6.201603
58.095 6.198804
58.100 5.837878
58.105 5.574388
58.110 5.217885
58.115 5.14643
58.120 5.430161
58.125 5.486208
58.130 5.779919
58.135 5.805456
58.140 5.920749
58.145 6.46957
58.150 6.508103
58.155 6.327343
58.160 6.436675
58.165 5.96523
58.170 5.762003
58.175 5.511719
58.180 5.195045
58.185 5.284045
58.190 5.276541
58.195 5.146378
58.200 5.580978
58.205 6.19012
58.210 6.321719
58.215 6.641892
58.220 6.444563
58.225 6.450198
58.230 6.343155
58.235 5.861718
58.240 5.435255
58.245 5.069652
58.250 4.614366
58.255 4.402638
58.260 4.581697
58.265 4.801531
58.270 4.952939
58.275 5.146373
58.280 5.6565
58.285 6.077319
58.290 6.241096
58.295 6.100159
58.300 6.281941
58.305 6.387388
58.310 6.34903
58.315 5.983519
58.320 5.745979
58.325 5.936967
58.330 5.718955
58.335 5.942595
58.340 5.996272
58.345 5.626474
58.350 5.573528
58.355 5.46359
58.360 5.252637
58.365 5.323183
58.370 5.153375
58.375 5.080794
58.380 5.292687
58.385 5.106947
58.390 5.177462
58.395 5.423185
58.400 5.896205
58.405 5.79001
58.410 5.832478
58.415 5.921653
58.420 6.138892
58.425 6.041659
58.430 5.928314
58.435 5.543509
58.440 5.541543
58.445 5.705526
58.450 5.814541
58.455 5.795575
58.460 5.942717
58.465 6.055509
58.470 6.024983
58.475 6.209734
58.480 6.003312
58.485 5.927753
58.490 5.808194
58.495 5.919965
58.500 5.590637
58.505 5.355337
58.510 5.317578
58.515 5.411349
58.520 5.185605
58.525 4.965659
58.530 4.74711
58.535 5.013909
58.540 5.067972
58.545 5.194466
58.550 5.441954
58.555 5.850515
58.560 6.269587
58.565 6.52197
58.570 6.494631
58.575 6.747544
58.580 6.733119
58.585 6.822365
58.590 6.586206
58.595 6.304908
58.600 6.149491
58.605 6.217152
58.610 6.059728
58.615 5.939163
58.620 5.907804
58.625 6.111459
58.630 6.175508
58.635 6.173227
58.640 6.186803
58.645 6.049867
58.650 5.677984
58.655 5.806173
58.660 6.343774
58.665 6.866314
58.670 7.08755
58.675 7.01863
58.680 7.261507
58.685 7.376365
58.690 7.156004
58.695 6.778098
58.700 6.470533
58.705 6.315853
58.710 6.046967
58.715 5.687703
58.720 5.870324
58.725 5.845075
58.730 5.609245
58.735 5.385191
58.740 4.995262
58.745 5.133312
58.750 5.266533
58.755 5.168637
58.760 5.084432
58.765 4.993092
