!@!!GADDS PLOTSO FILE: Chi integration type
!@!!Title/SampleName: map-101
!@!!Comment: ?
!@!!User: Bruker Instrument Administrator
!@!!Site: University of Illinois Chicago
!@!!Frame: map-101_01_000.gfrm
!@!!Wavelengths    1.54184   1.54056   1.54439
!@!!Frame angles: 2Theta: 63.000 Omega: 50.000 Phi: 0.000 Chi: 90.000
!@!!Integration range: 2Theta: 53.000 to 73.000  Gamma: -105.000 to -75.000
!@!!Integration method: bin normalized
!@!N
!@!SS
!@!M
!@!L 0.0 0.0 0.0 0.0
!@!XDegrees
!@!YCounts
53.000 9.978374
53.005 10.056627
53.010 9.886247
53.015 10.082369
53.020 10.074056
53.025 10.080713
53.030 9.830032
53.035 9.785479
53.040 9.567068
53.045 9.724934
53.050 9.902438
53.055 10.087562
53.060 10.558136
53.065 11.315934
53.070 12.192911
53.075 12.375127
53.080 12.260612
53.085 12.468109
53.090 12.631196
53.095 12.691561
53.100 11.590452
53.105 10.913853
53.110 11.032225
53.115 10.899557
53.120 10.35097
53.125 9.843246
53.130 9.866852
53.135 10.280486
53.140 10.087758
53.145 10.185426
53.150 10.181753
53.155 10.464765
53.160 10.531838
53.165 10.467592
53.170 10.873691
53.175 11.063299
53.180 10.658134
53.185 10.573281
53.190 10.873927
53.195 10.763467
53.200 10.62625
53.205 10.177404
53.210 10.003768
53.215 10.333606
53.220 9.978306
53.225 9.665573
53.230 9.564817
53.235 9.318217
53.240 9.363341
53.245 9.255424
53.250 9.483689
53.255 9.812868
53.260 10.079254
53.265 10.227435
53.270 10.722948
53.275 10.874767
53.280 11.378119
53.285 11.184196
53.290 11.361449
53.295 11.168435
53.300 11.27047
53.305 11.195164
53.310 11.21819
53.315 10.970334
53.320 11.275477
53.325 11.559961
53.330 11.418535
53.335 11.346982
53.340 11.21385
53.345 10.944238
53.350 10.909099
53.355 10.270837
53.360 10.068811
53.365 9.877973
53.370 10.102227
53.375 10.45861
53.380 10.711421
53.385 10.281868
53.390 10.591973
53.395 11.050979
53.400 11.665998
53.405 11.437987
53.410 11.379834
53.415 11.745804
53.420 12.242814
53.425 11.986334
53.430 11.286221
53.435 11.095317
53.440 11.4374
53.445 11.357375
53.450 10.894163
53.455 10.70967
53.460 10.541172
53.465 10.480999
53.470 10.450129
53.475 10.281437
53.480 10.199206
53.485 10.231401
53.490 10.700477
53.495 11.83794
53.500 12.55305
53.505 12.317559
53.510 12.575892
53.515 13.079523
53.520 13.406802
53.525 13.166601
53.530 12.314831
53.535 11.946785
53.540 12.503788
53.545 12.142411
53.550 11.908217
53.555 11.681582
53.560 11.592011
53.565 12.068573
53.570 12.125195
53.575 11.823357
53.580 12.045444
53.585 12.36588
53.590 12.566986
53.595 12.798436
53.600 12.800778
53.605 13.16227
53.610 13.288554
53.615 13.297337
53.620 13.302469
53.625 13.247618
53.630 13.237604
53.635 13.005298
53.640 12.793369
53.645 12.346919
53.650 11.831828
53.655 11.217836
53.660 10.942754
53.665 10.639551
53.670 10.385045
53.675 10.299071
53.680 10.289745
53.685 10.758489
53.690 11.289563
53.695 11.758755
53.700 11.702551
53.705 11.56751
53.710 11.513631
53.715 11.865246
53.720 11.800477
53.725 10.919287
53.730 10.584052
53.735 10.621347
53.740 11.237245
53.745 11.257362
53.750 11.033327
53.755 10.797947
53.760 10.725404
53.765 11.520997
53.770 11.776274
53.775 11.454135
53.780 11.405995
53.785 11.682101
53.790 12.569378
53.795 12.864339
53.800 12.293567
53.805 11.921076
53.810 12.062963
53.815 12.014689
53.820 11.687617
53.825 11.211083
53.830 11.107703
53.835 10.87132
53.840 11.12927
53.845 11.39884
53.850 11.426495
53.855 11.365714
53.860 11.688539
53.865 11.498964
53.870 11.673438
53.875 12.400418
53.880 12.086975
53.885 12.187841
53.890 12.78171
53.895 12.809446
53.900 13.153236
53.905 12.81749
53.910 12.547705
53.915 12.927924
53.920 12.93003
53.925 12.335132
53.930 12.024883
53.935 11.861776
53.940 11.942781
53.945 11.477221
53.950 11.256456
53.955 11.219032
53.960 11.383415
53.965 11.752228
53.970 11.992951
53.975 12.07957
53.980 12.197067
53.985 12.375743
53.990 12.154867
53.995 12.201274
54.000 12.218463
54.005 12.086198
54.010 12.157758
54.015 12.153856
54.020 11.846136
54.025 11.891379
54.030 11.930161
54.035 11.654899
54.040 11.557839
54.045 11.828415
54.050 11.884177
54.055 11.825318
54.060 11.782415
54.065 11.795036
54.070 11.81219
54.075 11.994061
54.080 11.649134
54.085 11.573814
54.090 11.825669
54.095 11.84168
54.100 11.944076
54.105 12.585438
54.110 12.555037
54.115 12.607998
54.120 12.440705
54.125 12.425546
54.130 12.057584
54.135 11.666101
54.140 11.13318
54.145 10.799761
54.150 10.946486
54.155 11.252838
54.160 11.490824
54.165 11.814259
54.170 12.177102
54.175 12.468668
54.180 12.734808
54.185 12.35992
54.190 12.394935
54.195 12.548498
54.200 12.787898
54.205 12.654179
54.210 12.719705
54.215 12.794786
54.220 13.007161
54.225 13.233263
54.230 12.796217
54.235 12.686347
54.240 12.920128
54.245 12.752515
54.250 12.801294
54.255 12.776966
54.260 12.657137
54.265 13.254016
54.270 13.533699
54.275 13.283853
54.280 13.586038
54.285 13.393825
54.290 13.224179
54.295 12.905449
54.300 12.810348
54.305 12.771848
54.310 12.911802
54.315 12.885017
54.320 13.035592
54.325 12.784219
54.330 13.096
54.335 13.258197
54.340 13.267132
54.345 13.407296
54.350 13.351733
54.355 13.800724
54.360 14.216864
54.365 13.736267
54.370 13.732071
54.375 13.331239
54.380 13.02769
54.385 12.757295
54.390 12.544985
54.395 12.617524
54.400 12.596602
54.405 12.107319
54.410 12.745312
54.415 12.95134
54.420 13.01726
54.425 12.554096
54.430 12.435791
54.435 12.22165
54.440 11.59509
54.445 11.155909
54.450 10.762649
54.455 11.585339
54.460 11.563478
54.465 11.79203
54.470 12.950266
54.475 13.365744
54.480 13.871408
54.485 13.75921
54.490 13.339614
54.495 13.783058
54.500 13.701125
54.505 13.164784
54.510 12.720939
54.515 12.728658
54.520 13.02217
54.525 12.860257
54.530 12.059632
54.535 11.778171
54.540 12.212185
54.545 12.591202
54.550 12.145429
54.555 11.735346
54.560 11.953651
54.565 12.128185
54.570 11.927086
54.575 11.405966
54.580 10.80476
54.585 11.278324
54.590 11.43619
54.595 11.352486
54.600 11.572241
54.605 11.709962
54.610 11.994783
54.615 12.577778
54.620 12.593148
54.625 12.804859
54.630 13.224675
54.635 12.989549
54.640 12.978515
54.645 12.96204
54.650 12.405317
54.655 12.216628
54.660 11.910486
54.665 11.587811
54.670 11.804908
54.675 11.912005
54.680 12.137282
54.685 11.995936
54.690 12.317438
54.695 12.692705
54.700 12.798373
54.705 12.78173
54.710 13.123784
54.715 12.997829
54.720 13.199903
54.725 13.054111
54.730 12.791207
54.735 12.701797
54.740 12.453512
54.745 12.284887
54.750 12.280074
54.755 11.939082
54.760 11.693783
54.765 11.569736
54.770 11.867805
54.775 11.758339
54.780 11.542922
54.785 11.383535
54.790 11.575134
54.795 11.776616
54.800 11.999664
54.805 11.902256
54.810 12.130697
54.815 12.631612
54.820 12.954471
54.825 13.008819
54.830 12.794577
54.835 12.722028
54.840 12.821197
54.845 12.667155
54.850 12.332228
54.855 12.651969
54.860 12.50517
54.865 12.354479
54.870 11.751513
54.875 11.45013
54.880 11.808216
54.885 11.367639
54.890 10.841096
54.895 10.894321
54.900 10.964671
54.905 10.932742
54.910 11.45849
54.915 11.67345
54.920 11.686256
54.925 11.913292
54.930 12.034187
54.935 12.440423
54.940 13.09618
54.945 13.003554
54.950 13.139891
54.955 12.996368
54.960 12.933528
54.965 12.805182
54.970 12.544507
54.975 12.431423
54.980 12.499308
54.985 12.853703
54.990 13.470393
54.995 13.712763
55.000 14.112066
55.005 14.503614
55.010 13.95837
55.015 13.425878
55.020 13.51011
55.025 13.245854
55.030 13.279032
55.035 12.99782
55.040 12.208182
55.045 12.772088
55.050 12.644018
55.055 12.441339
55.060 12.630326
55.065 12.139636
55.070 12.529519
55.075 12.414762
55.080 11.96249
55.085 12.090899
55.090 11.815205
55.095 11.691396
55.100 12.065704
55.105 11.938826
55.110 12.04443
55.115 12.460767
55.120 12.607577
55.125 12.68028
55.130 12.916792
55.135 12.760233
55.140 12.50772
55.145 12.970425
55.150 13.009888
55.155 13.292611
55.160 13.314224
55.165 13.204601
55.170 12.984312
55.175 13.501088
55.180 13.188722
55.185 13.254909
55.190 13.072247
55.195 12.770928
55.200 12.538941
55.205 12.630795
55.210 11.955775
55.215 11.659844
55.220 11.283961
55.225 11.668466
55.230 11.882683
55.235 12.173795
55.240 12.500232
55.245 12.919667
55.250 12.827808
55.255 12.455338
55.260 11.945134
55.265 12.033624
55.270 12.130932
55.275 11.859576
55.280 11.884687
55.285 12.058869
55.290 12.139477
55.295 12.435276
55.300 12.569687
55.305 12.553573
55.310 12.64465
55.315 12.462051
55.320 12.616165
55.325 14.016953
55.330 13.856204
55.335 13.948191
55.340 13.939229
55.345 13.961715
55.350 14.512178
55.355 14.206081
55.360 13.113376
55.365 13.456256
55.370 13.054015
55.375 12.844526
55.380 12.823771
55.385 12.68714
55.390 13.163422
55.395 13.161374
55.400 12.813667
55.405 12.990973
55.410 13.690767
55.415 13.733361
55.420 13.537127
55.425 13.430162
55.430 13.578928
55.435 14.118798
55.440 14.090411
55.445 14.038466
55.450 14.613656
55.455 14.926348
55.460 14.614981
55.465 14.582522
55.470 14.642178
55.475 14.936187
55.480 14.686559
55.485 14.111506
55.490 14.192672
55.495 14.44354
55.500 15.151764
55.505 15.260803
55.510 14.566102
55.515 14.330465
55.520 14.078545
55.525 13.820556
55.530 13.539296
55.535 12.549656
55.540 12.030153
55.545 11.760679
55.550 11.795328
55.555 12.311621
55.560 12.529824
55.565 12.766194
55.570 12.41808
55.575 12.248321
55.580 12.972271
55.585 13.577681
55.590 13.243933
55.595 13.045562
55.600 12.425391
55.605 13.03877
55.610 13.357006
55.615 13.126314
55.620 12.986449
55.625 13.057055
55.630 12.776544
55.635 13.261825
55.640 13.185122
55.645 13.397068
55.650 13.236328
55.655 13.126986
55.660 13.171699
55.665 13.279104
55.670 13.075247
55.675 12.307726
55.680 12.35479
55.685 12.080296
55.690 12.06869
55.695 12.835657
55.700 13.193488
55.705 13.287804
55.710 13.408044
55.715 13.034326
55.720 13.540187
55.725 13.590665
55.730 12.593932
55.735 12.61218
55.740 12.817565
55.745 13.063273
55.750 13.316861
55.755 13.527935
55.760 12.994206
55.765 13.17947
55.770 12.843243
55.775 13.022642
55.780 13.191735
55.785 13.099901
55.790 12.998486
55.795 13.51113
55.800 13.948582
55.805 13.814269
55.810 13.855428
55.815 14.150625
55.820 14.617441
55.825 14.789554
55.830 14.954904
55.835 15.261605
55.840 15.05965
55.845 14.893415
55.850 14.95901
55.855 14.470809
55.860 13.832256
55.865 13.275706
55.870 12.722788
55.875 13.638271
55.880 13.62791
55.885 13.594744
55.890 13.812852
55.895 14.065001
55.900 14.439776
55.905 14.260619
55.910 13.952185
55.915 14.032755
55.920 14.011167
55.925 13.926431
55.930 13.707877
55.935 14.135962
55.940 14.796023
55.945 15.399464
55.950 15.173317
55.955 14.836718
55.960 15.128431
55.965 15.691645
55.970 15.243555
55.975 14.793277
55.980 14.187135
55.985 14.121624
55.990 14.191724
55.995 13.936321
56.000 13.245941
56.005 12.890538
56.010 13.125319
56.015 13.403335
56.020 13.709648
56.025 13.577197
56.030 13.740411
56.035 14.112358
56.040 14.462329
56.045 14.353391
56.050 14.262201
56.055 14.238747
56.060 14.223345
56.065 14.597507
56.070 15.222827
56.075 14.842965
56.080 14.88446
56.085 14.909097
56.090 15.145998
56.095 15.307026
56.100 14.834438
56.105 14.386725
56.110 14.779749
56.115 14.405447
56.120 13.998914
56.125 13.844785
56.130 13.490055
56.135 13.403695
56.140 13.339812
56.145 13.337658
56.150 13.62515
56.155 14.008488
56.160 13.964308
56.165 14.223267
56.170 14.098605
56.175 13.620454
56.180 13.448513
56.185 13.427697
56.190 13.440248
56.195 13.309504
56.200 13.248182
56.205 13.800994
56.210 14.470564
56.215 14.941142
56.220 15.219146
56.225 14.925203
56.230 14.908376
56.235 15.226243
56.240 15.225121
56.245 15.171651
56.250 14.932032
56.255 14.834625
56.260 15.206211
56.265 15.576832
56.270 15.277237
56.275 14.443381
56.280 13.907271
56.285 14.087477
56.290 13.837615
56.295 13.011517
56.300 12.565687
56.305 12.434385
56.310 12.985879
56.315 13.086019
56.320 12.493072
56.325 12.185678
56.330 12.187122
56.335 12.430514
56.340 12.599011
56.345 12.454769
56.350 12.748337
56.355 13.190206
56.360 13.642149
56.365 14.290618
56.370 13.967318
56.375 14.217336
56.380 14.079835
56.385 13.709901
56.390 13.197801
56.395 13.29197
56.400 13.278476
56.405 13.195739
56.410 12.922002
56.415 13.213663
56.420 13.399293
56.425 13.915268
56.430 14.177109
56.435 14.31947
56.440 14.379034
56.445 14.55057
56.450 14.37917
56.455 13.422834
56.460 13.185361
56.465 12.847223
56.470 13.023613
56.475 13.35535
56.480 13.563635
56.485 14.081875
56.490 15.244095
56.495 15.438593
56.500 15.163724
56.505 15.408119
56.510 15.354518
56.515 14.688074
56.520 14.204789
56.525 13.935669
56.530 14.006546
56.535 13.695767
56.540 13.338232
56.545 13.343818
56.550 13.820691
56.555 14.221982
56.560 13.971964
56.565 14.206965
56.570 14.298418
56.575 13.979293
56.580 13.777223
56.585 13.545359
56.590 13.050727
56.595 13.541575
56.600 13.277829
56.605 13.42555
56.610 13.94117
56.615 14.192963
56.620 14.801259
56.625 15.443181
56.630 14.978868
56.635 14.998885
56.640 15.087582
56.645 14.524129
56.650 13.926071
56.655 13.437035
56.660 13.444752
56.665 13.552952
56.670 13.525935
56.675 13.078136
56.680 13.685513
56.685 14.172474
56.690 14.666983
56.695 14.567924
56.700 14.983222
56.705 15.589375
56.710 15.840991
56.715 16.028446
56.720 15.713326
56.725 15.226056
56.730 15.418811
56.735 15.486647
56.740 15.486797
56.745 15.677938
56.750 15.738503
56.755 16.424061
56.760 16.918669
56.765 16.679121
56.770 15.95819
56.775 15.93323
56.780 15.695982
56.785 15.158537
56.790 14.678685
56.795 14.497544
56.800 14.818866
56.805 14.874181
56.810 14.517678
56.815 14.448838
56.820 14.377047
56.825 14.301872
56.830 14.40202
56.835 14.839041
56.840 15.223812
56.845 15.815804
56.850 16.049786
56.855 15.933816
56.860 15.520212
56.865 15.629637
56.870 15.669214
56.875 16.223936
56.880 15.997447
56.885 15.554497
56.890 15.804634
56.895 16.398203
56.900 16.096285
56.905 15.012196
56.910 14.001167
56.915 14.101072
56.920 14.618268
56.925 14.686366
56.930 14.30505
56.935 14.345376
56.940 14.213227
56.945 14.627245
56.950 14.703947
56.955 14.689196
56.960 14.601268
56.965 14.325667
56.970 14.018956
56.975 14.587305
56.980 14.435596
56.985 14.191186
56.990 13.944007
56.995 13.676874
57.000 13.653194
57.005 13.579712
57.010 13.309323
57.015 13.128106
57.020 13.267607
57.025 13.384779
57.030 13.509969
57.035 14.117435
57.040 14.694921
57.045 14.844189
57.050 14.978744
57.055 14.764257
57.060 14.802054
57.065 14.637306
57.070 14.137134
57.075 14.276382
57.080 14.456767
57.085 14.444285
57.090 14.219416
57.095 14.220654
57.100 14.515161
57.105 14.373281
57.110 14.296368
57.115 13.968598
57.120 13.990849
57.125 13.911386
57.130 14.10715
57.135 14.087288
57.140 14.578461
57.145 14.768986
57.150 14.531147
57.155 15.092939
57.160 15.808237
57.165 16.32206
57.170 17.041025
57.175 16.980728
57.180 17.283337
57.185 17.56757
57.190 17.315788
57.195 17.175097
57.200 16.763845
57.205 16.098959
57.210 15.794241
57.215 15.423066
57.220 16.00247
57.225 16.087036
57.230 15.863448
57.235 15.434306
57.240 15.745823
57.245 15.435799
57.250 15.836655
57.255 15.607719
57.260 15.634415
57.265 15.452757
57.270 16.036352
57.275 16.126303
57.280 15.906371
57.285 15.166363
57.290 14.852024
57.295 14.790265
57.300 15.111385
57.305 14.817622
57.310 14.439887
57.315 14.870625
57.320 14.961986
57.325 14.856124
57.330 14.995314
57.335 14.546071
57.340 14.66288
57.345 14.766441
57.350 14.47358
57.355 14.891093
57.360 14.856838
57.365 15.262256
57.370 15.466511
57.375 15.499712
57.380 15.506388
57.385 15.982525
57.390 16.389761
57.395 16.172861
57.400 16.084848
57.405 16.060364
57.410 16.085958
57.415 15.93934
57.420 15.767784
57.425 15.184814
57.430 15.63293
57.435 15.739076
57.440 15.794447
57.445 15.559295
57.450 15.737904
57.455 15.573301
57.460 15.505866
57.465 15.631262
57.470 15.821465
57.475 15.984431
57.480 15.587356
57.485 15.149079
57.490 15.527112
57.495 15.403656
57.500 15.233483
57.505 15.645721
57.510 15.736036
57.515 16.500696
57.520 16.757839
57.525 16.741381
57.530 16.75275
57.535 16.470123
57.540 16.068054
57.545 15.820078
57.550 15.698116
57.555 15.972246
57.560 15.552908
57.565 15.804565
57.570 16.490147
57.575 16.41535
57.580 16.38464
57.585 16.369318
57.590 16.070583
57.595 16.739851
57.600 16.614689
57.605 15.584145
57.610 15.584633
57.615 15.600103
57.620 15.944309
57.625 16.643486
57.630 16.789186
57.635 17.003122
57.640 16.826059
57.645 16.841852
57.650 16.726215
57.655 15.913582
57.660 14.904075
57.665 13.995871
57.670 14.376219
57.675 14.621531
57.680 14.755705
57.685 14.761453
57.690 15.146262
57.695 15.79667
57.700 15.670188
57.705 15.294257
57.710 15.210151
57.715 15.606388
57.720 16.400454
57.725 16.414778
57.730 16.847687
57.735 17.417486
57.740 17.394897
57.745 17.457674
57.750 17.27927
57.755 17.426456
57.760 17.376442
57.765 16.837898
57.770 16.387518
57.775 16.464008
57.780 16.799006
57.785 16.537004
57.790 15.931798
57.795 15.834684
57.800 15.909912
57.805 16.198944
57.810 16.103725
57.815 16.020947
57.820 16.175177
57.825 16.809256
57.830 17.138918
57.835 17.01347
57.840 16.982414
57.845 17.453619
57.850 17.631672
57.855 17.659981
57.860 17.408182
57.865 17.333046
57.870 17.344175
57.875 17.318316
57.880 16.727682
57.885 16.055033
57.890 15.782917
57.895 15.321035
57.900 15.437905
57.905 15.691993
57.910 15.480849
57.915 15.68642
57.920 15.889299
57.925 16.198555
57.930 17.01391
57.935 17.280054
57.940 17.668909
57.945 17.700375
57.950 17.753387
57.955 17.831425
57.960 17.461092
57.965 17.13484
57.970 16.703959
57.975 16.413128
57.980 17.040728
57.985 17.268326
57.990 17.357693
57.995 17.864737
58.000 18.096638
58.005 18.24024
58.010 18.59816
58.015 18.612329
58.020 18.621544
58.025 18.559784
58.030 18.369511
58.035 18.137299
58.040 18.345978
58.045 18.44294
58.050 17.763964
58.055 17.823544
58.060 17.920132
58.065 17.409626
58.070 17.260754
58.075 17.42746
58.080 17.221909
58.085 17.395164
58.090 17.339375
58.095 17.42979
58.100 18.165915
58.105 19.045673
58.110 18.77039
58.115 18.76096
58.120 19.173632
58.125 19.230476
58.130 19.823849
58.135 20.146305
58.140 20.12001
58.145 20.331873
58.150 20.67359
58.155 20.742264
58.160 20.221727
58.165 19.640335
58.170 19.12501
58.175 19.589397
58.180 20.215033
58.185 20.05385
58.190 20.310673
58.195 20.902515
58.200 21.248882
58.205 21.158834
58.210 20.160547
58.215 19.541458
58.220 19.393499
58.225 19.583002
58.230 19.448143
58.235 19.530851
58.240 19.685499
58.245 20.090189
58.250 21.011559
58.255 21.047266
58.260 21.331896
58.265 21.238712
58.270 21.022329
58.275 21.145658
58.280 20.710562
58.285 20.135782
58.290 19.801558
58.295 19.964888
58.300 20.489944
58.305 21.029243
58.310 21.064442
58.315 21.82185
58.320 22.99029
58.325 24.027966
58.330 23.744541
58.335 24.323368
58.340 24.396112
58.345 24.830614
58.350 24.994406
58.355 24.583805
58.360 24.52989
58.365 24.515202
58.370 23.949383
58.375 23.501413
58.380 23.03017
58.385 22.333429
58.390 22.11581
58.395 21.858889
58.400 22.159338
58.405 22.520842
58.410 23.428812
58.415 24.134558
58.420 24.623344
58.425 25.680025
58.430 26.659603
58.435 27.402815
58.440 27.591564
