!@!!GADDS PLOTSO FILE: Chi integration type
!@!!Title/SampleName: map-4b
!@!!Comment: ?
!@!!User: Bruker Instrument Administrator
!@!!Site: University of Illinois Chicago
!@!!Frame: map-4b_01_000.gfrm
!@!!Wavelengths    1.54184   1.54056   1.54439
!@!!Frame angles: 2Theta: 63.000 Omega: 50.000 Phi: 0.000 Chi: 90.000
!@!!Integration range: 2Theta: 53.000 to 73.000  Gamma: -105.000 to -75.000
!@!!Integration method: bin normalized
!@!N
!@!SS
!@!M
!@!L 0.0 0.0 0.0 0.0
!@!XDegrees
!@!YCounts
53.000 9.673999
53.005 9.704131
53.010 9.472408
53.015 9.058996
53.020 9.086292
53.025 9.525818
53.030 9.56006
53.035 9.362815
53.040 9.084965
53.045 9.447865
53.050 9.252656
53.055 9.261918
53.060 9.193936
53.065 9.107262
53.070 9.105354
53.075 9.351179
53.080 9.207533
53.085 9.168283
53.090 8.871826
53.095 8.986194
53.100 9.173321
53.105 9.211319
53.110 8.891901
53.115 9.11093
53.120 9.58088
53.125 9.72153
53.130 9.347604
53.135 9.30481
53.140 9.562886
53.145 9.614841
53.150 8.951888
53.155 9.137519
53.160 9.198485
53.165 9.121516
53.170 8.581085
53.175 8.510112
53.180 8.892884
53.185 9.368708
53.190 8.989358
53.195 8.860423
53.200 9.229036
53.205 9.923081
53.210 9.717301
53.215 9.665244
53.220 9.797999
53.225 9.818058
53.230 9.996994
53.235 9.832439
53.240 9.775809
53.245 9.803164
53.250 10.278025
53.255 10.646293
53.260 10.781735
53.265 11.135244
53.270 10.960483
53.275 10.988872
53.280 11.196061
53.285 10.755136
53.290 10.517443
53.295 10.282885
53.300 10.026121
53.305 9.709633
53.310 9.466601
53.315 9.002028
53.320 8.556169
53.325 8.682027
53.330 8.802526
53.335 9.308648
53.340 9.698235
53.345 9.673912
53.350 9.979907
53.355 10.130583
53.360 10.021687
53.365 9.99612
53.370 9.609454
53.375 9.669058
53.380 10.452596
53.385 10.479117
53.390 10.290469
53.395 10.345236
53.400 10.645481
53.405 11.013408
53.410 10.62594
53.415 10.684992
53.420 11.21315
53.425 11.015536
53.430 10.884858
53.435 10.674699
53.440 10.384461
53.445 9.959709
53.450 9.400639
53.455 9.356804
53.460 9.819747
53.465 10.30387
53.470 10.255672
53.475 10.810699
53.480 11.166792
53.485 11.429641
53.490 11.361197
53.495 11.074168
53.500 10.986708
53.505 10.969862
53.510 10.551111
53.515 10.668921
53.520 10.642637
53.525 10.380995
53.530 10.188507
53.535 9.963315
53.540 10.23674
53.545 10.334256
53.550 9.808417
53.555 9.862621
53.560 10.51337
53.565 10.562094
53.570 10.418871
53.575 10.476653
53.580 10.683625
53.585 11.028963
53.590 10.78442
53.595 10.411012
53.600 10.642879
53.605 10.932213
53.610 10.855361
53.615 11.192441
53.620 11.243976
53.625 11.311911
53.630 11.396992
53.635 11.390877
53.640 11.831286
53.645 11.769799
53.650 11.560911
53.655 11.382443
53.660 11.121799
53.665 10.994999
53.670 10.680032
53.675 10.302123
53.680 10.444429
53.685 10.224112
53.690 10.400563
53.695 10.707697
53.700 10.815755
53.705 10.780835
53.710 10.520809
53.715 10.280643
53.720 10.435376
53.725 10.652082
53.730 10.739751
53.735 10.908496
53.740 11.047647
53.745 11.041591
53.750 11.184972
53.755 11.359385
53.760 10.954901
53.765 10.86174
53.770 10.374006
53.775 10.269982
53.780 10.4024
53.785 10.518513
53.790 10.469292
53.795 10.860122
53.800 11.2107
53.805 11.683058
53.810 11.971225
53.815 12.328033
53.820 12.432623
53.825 12.311769
53.830 11.952478
53.835 12.063287
53.840 11.86286
53.845 11.68712
53.850 11.270943
53.855 11.233633
53.860 11.072157
53.865 10.829369
53.870 9.998578
53.875 9.521049
53.880 9.511114
53.885 9.499328
53.890 9.550484
53.895 10.145234
53.900 10.1795
53.905 10.740102
53.910 10.734957
53.915 11.085874
53.920 11.248792
53.925 11.446524
53.930 11.787344
53.935 12.388656
53.940 12.679349
53.945 12.350526
53.950 11.670004
53.955 11.235624
53.960 10.501764
53.965 9.990877
53.970 9.160135
53.975 8.995219
53.980 9.302147
53.985 9.451516
53.990 9.697
53.995 9.763539
54.000 10.190955
54.005 10.363067
54.010 10.449249
54.015 10.254385
54.020 10.379121
54.025 10.534837
54.030 10.296329
54.035 9.968475
54.040 10.103513
54.045 9.928442
54.050 10.267175
54.055 10.019924
54.060 10.322028
54.065 10.966857
54.070 11.259313
54.075 11.248732
54.080 11.466979
54.085 11.622739
54.090 11.867437
54.095 11.612105
54.100 11.206955
54.105 11.402328
54.110 11.506921
54.115 11.352308
54.120 11.140846
54.125 10.53197
54.130 10.172509
54.135 10.287955
54.140 10.50846
54.145 10.731057
54.150 10.976044
54.155 10.634708
54.160 10.887901
54.165 11.154748
54.170 11.185555
54.175 10.810313
54.180 10.886784
54.185 11.111503
54.190 11.608193
54.195 11.566131
54.200 11.43429
54.205 11.331346
54.210 11.2753
54.215 10.849524
54.220 10.524282
54.225 10.559811
54.230 10.865872
54.235 11.024545
54.240 11.072425
54.245 10.753881
54.250 11.28428
54.255 11.419956
54.260 11.413356
54.265 11.329674
54.270 11.332866
54.275 11.380076
54.280 11.35797
54.285 11.025798
54.290 10.880415
54.295 11.016397
54.300 10.892538
54.305 10.921041
54.310 11.207213
54.315 11.150356
54.320 11.233274
54.325 11.146748
54.330 11.316195
54.335 11.565149
54.340 11.543776
54.345 11.767084
54.350 12.314471
54.355 12.613766
54.360 13.00679
54.365 12.922946
54.370 12.868474
54.375 12.459468
54.380 11.911497
54.385 11.311643
54.390 10.699173
54.395 10.341648
54.400 10.22091
54.405 10.448097
54.410 10.580892
54.415 10.440822
54.420 10.631021
54.425 10.806417
54.430 10.839771
54.435 10.762544
54.440 10.594223
54.445 10.733841
54.450 10.983146
54.455 11.277748
54.460 11.494531
54.465 11.60802
54.470 11.577342
54.475 12.084366
54.480 12.568671
54.485 12.707544
54.490 12.518805
54.495 12.264734
54.500 12.28212
54.505 12.481277
54.510 12.3655
54.515 12.685753
54.520 12.890383
54.525 12.994267
54.530 12.635009
54.535 12.663295
54.540 13.436111
54.545 13.138412
54.550 12.16691
54.555 11.7567
54.560 12.165687
54.565 12.322191
54.570 12.212803
54.575 11.424018
54.580 12.125708
54.585 12.643022
54.590 12.46267
54.595 12.216557
54.600 12.419424
54.605 12.124036
54.610 11.768174
54.615 11.751754
54.620 12.19388
54.625 12.656369
54.630 12.976213
54.635 12.550777
54.640 12.288815
54.645 12.144618
54.650 11.449075
54.655 11.03385
54.660 10.601322
54.665 10.728724
54.670 11.429927
54.675 11.525313
54.680 11.815068
54.685 11.951326
54.690 11.928585
54.695 11.814904
54.700 11.234318
54.705 11.052817
54.710 11.45294
54.715 11.687641
54.720 12.128635
54.725 12.197989
54.730 12.221346
54.735 12.116695
54.740 12.034209
54.745 11.645598
54.750 10.769044
54.755 10.266115
54.760 10.284398
54.765 10.67012
54.770 10.84968
54.775 10.761902
54.780 10.773549
54.785 11.4032
54.790 11.594239
54.795 11.510003
54.800 11.638972
54.805 11.614028
54.810 11.905864
54.815 12.001275
54.820 11.925298
54.825 11.834478
54.830 12.170133
54.835 12.098621
54.840 12.088898
54.845 12.480486
54.850 12.65508
54.855 13.292674
54.860 13.339034
54.865 13.306545
54.870 13.402638
54.875 13.573203
54.880 13.229135
54.885 13.1538
54.890 12.557451
54.895 12.671881
54.900 12.586997
54.905 12.60947
54.910 12.369357
54.915 12.449714
54.920 12.859941
54.925 12.866158
54.930 12.950858
54.935 13.289045
54.940 12.991889
54.945 12.810711
54.950 12.572144
54.955 11.988129
54.960 11.687218
54.965 11.495715
54.970 11.386807
54.975 11.976139
54.980 12.493921
54.985 12.557811
54.990 12.840538
54.995 12.877924
55.000 12.223744
55.005 11.853776
55.010 11.210342
55.015 10.395755
55.020 10.218588
55.025 10.334311
55.030 10.609398
55.035 10.90973
55.040 11.09614
55.045 11.516442
55.050 11.361852
55.055 11.639459
55.060 11.965692
55.065 12.281824
55.070 12.285347
55.075 12.029902
55.080 11.868604
55.085 11.896234
55.090 11.208328
55.095 10.321292
55.100 9.909966
55.105 9.608971
55.110 9.85778
55.115 10.220089
55.120 10.736319
55.125 10.795401
55.130 11.199017
55.135 11.520171
55.140 12.248429
55.145 12.367893
55.150 12.041171
55.155 11.936077
55.160 12.269472
55.165 11.885499
55.170 11.847155
55.175 11.432667
55.180 11.489315
55.185 12.100998
55.190 11.918509
55.195 12.441517
55.200 12.971704
55.205 13.117197
55.210 13.786244
55.215 13.608667
55.220 13.096317
55.225 12.922369
55.230 12.818329
55.235 12.548973
55.240 12.150782
55.245 11.610911
55.250 11.637212
55.255 11.99719
55.260 11.985519
55.265 11.997209
55.270 12.198881
55.275 12.00264
55.280 11.682418
55.285 11.669234
55.290 11.807893
55.295 12.190069
55.300 11.315037
55.305 11.158892
55.310 11.374042
55.315 11.450043
55.320 11.477404
55.325 11.706917
55.330 11.49896
55.335 12.196781
55.340 11.917627
55.345 11.819686
55.350 12.331293
55.355 12.372005
55.360 12.178447
55.365 12.474412
55.370 12.276518
55.375 12.555561
55.380 13.142398
55.385 13.017493
55.390 12.810628
55.395 12.675043
55.400 12.493299
55.405 12.695231
55.410 12.882501
55.415 13.071348
55.420 13.092085
55.425 12.827322
55.430 13.008657
55.435 13.233083
55.440 13.243195
55.445 13.187225
55.450 12.956945
55.455 13.27852
55.460 13.748914
55.465 13.420341
55.470 13.158962
55.475 13.47301
55.480 13.475616
55.485 13.351429
55.490 13.334844
55.495 13.6722
55.500 13.914917
55.505 13.946189
55.510 13.702583
55.515 13.61412
55.520 13.930795
55.525 13.810911
55.530 13.301543
55.535 13.011433
55.540 13.026571
55.545 12.962129
55.550 12.875303
55.555 12.447466
55.560 12.639235
55.565 12.685519
55.570 13.060847
55.575 13.08989
55.580 12.538249
55.585 12.03264
55.590 11.834584
55.595 12.236511
55.600 12.348375
55.605 12.004235
55.610 12.075286
55.615 12.522824
55.620 12.766163
55.625 12.527467
55.630 11.921729
55.635 11.912271
55.640 11.819498
55.645 12.179128
55.650 11.72526
55.655 11.513934
55.660 11.455592
55.665 12.102644
55.670 12.296087
55.675 12.023796
55.680 11.287375
55.685 11.97898
55.690 12.321748
55.695 12.248301
55.700 11.820378
55.705 12.216388
55.710 12.927094
55.715 13.372921
55.720 13.636327
55.725 13.735844
55.730 13.62236
55.735 12.921222
55.740 12.052015
55.745 11.197802
55.750 11.076107
55.755 10.459604
55.760 10.313246
55.765 10.838759
55.770 11.735481
55.775 12.296135
55.780 12.347798
55.785 12.285069
55.790 12.190154
55.795 12.038756
55.800 11.51213
55.805 11.421339
55.810 11.879976
55.815 12.28952
55.820 12.411759
55.825 12.695691
55.830 12.859801
55.835 12.957135
55.840 13.60356
55.845 13.484185
55.850 13.989151
55.855 14.175647
55.860 14.312689
55.865 14.139922
55.870 13.405666
55.875 12.513701
55.880 12.252619
55.885 11.732418
55.890 11.330583
55.895 11.68034
55.900 12.361541
55.905 12.337777
55.910 12.677918
55.915 13.082737
55.920 13.093569
55.925 13.326846
55.930 12.739837
55.935 12.627167
55.940 12.774867
55.945 13.091855
55.950 13.294777
55.955 13.529723
55.960 13.489325
55.965 13.981091
55.970 13.918313
55.975 13.529478
55.980 12.700604
55.985 12.62189
55.990 12.859643
55.995 13.117297
56.000 13.039159
56.005 13.06898
56.010 13.615318
56.015 13.534329
56.020 13.262472
56.025 13.138645
56.030 13.051606
56.035 13.154188
56.040 13.299392
56.045 13.182242
56.050 13.358426
56.055 12.764047
56.060 12.522192
56.065 12.470258
56.070 12.263409
56.075 12.681906
56.080 13.644632
56.085 13.971569
56.090 14.17259
56.095 14.725024
56.100 15.314396
56.105 15.131516
56.110 14.285738
56.115 13.730202
56.120 13.536123
56.125 13.564893
56.130 12.650425
56.135 11.947506
56.140 12.52078
56.145 12.687548
56.150 12.31767
56.155 12.036398
56.160 11.9515
56.165 12.306506
56.170 12.760735
56.175 12.852352
56.180 12.911703
56.185 13.08403
56.190 13.360658
56.195 13.611519
56.200 13.452365
56.205 13.844725
56.210 14.007487
56.215 13.647309
56.220 13.003512
56.225 12.907389
56.230 12.70102
56.235 12.596868
56.240 12.463118
56.245 12.531981
56.250 12.758585
56.255 13.702777
56.260 14.283868
56.265 14.891216
56.270 14.597378
56.275 14.43729
56.280 13.857777
56.285 14.062042
56.290 13.936557
56.295 13.768793
56.300 13.481242
56.305 13.756968
56.310 13.985614
56.315 13.880022
56.320 13.780344
56.325 13.53888
56.330 13.289927
56.335 13.566282
56.340 13.239112
56.345 12.805273
56.350 12.91923
56.355 12.393126
56.360 12.477232
56.365 12.36838
56.370 12.393179
56.375 12.738096
56.380 12.990453
56.385 13.518782
56.390 13.733695
56.395 14.026741
56.400 14.525846
56.405 14.626661
56.410 14.647519
56.415 14.34437
56.420 14.039763
56.425 13.75561
56.430 13.534225
56.435 12.994101
56.440 12.832785
56.445 13.14075
56.450 13.216725
56.455 13.226532
56.460 13.521097
56.465 13.603656
56.470 13.510409
56.475 13.211325
56.480 12.335166
56.485 12.497562
56.490 12.999605
56.495 12.746994
56.500 12.058856
56.505 12.643714
56.510 12.995806
56.515 13.524336
56.520 13.42137
56.525 12.83764
56.530 12.628582
56.535 13.011544
56.540 12.613984
56.545 12.38782
56.550 12.220097
56.555 12.98137
56.560 13.602886
56.565 13.928431
56.570 13.780152
56.575 14.017236
56.580 14.008063
56.585 13.934332
56.590 13.11995
56.595 12.64906
56.600 12.637024
56.605 12.421759
56.610 11.97833
56.615 12.470116
56.620 12.54497
56.625 13.170974
56.630 13.161993
56.635 13.012982
56.640 13.061486
56.645 13.111634
56.650 12.922693
56.655 12.935684
56.660 13.577166
56.665 14.205637
56.670 14.21587
56.675 14.453529
56.680 14.655761
56.685 14.745782
56.690 14.76443
56.695 14.243827
56.700 13.976915
56.705 14.078308
56.710 14.156564
56.715 14.108991
56.720 13.959286
56.725 13.973382
56.730 13.571789
56.735 13.560174
56.740 13.689935
56.745 13.22872
56.750 13.266277
56.755 13.469538
56.760 13.579006
56.765 13.469579
56.770 13.790928
56.775 13.509497
56.780 13.56307
56.785 13.430719
56.790 12.917214
56.795 12.683765
56.800 13.225408
56.805 12.990855
56.810 12.752894
56.815 12.926603
56.820 12.797801
56.825 13.088917
56.830 13.250557
56.835 12.923722
56.840 13.223343
56.845 13.828529
56.850 13.576302
56.855 13.481936
56.860 13.429007
56.865 13.721645
56.870 13.681382
56.875 13.606483
56.880 14.08274
56.885 14.538946
56.890 14.800021
56.895 14.61791
56.900 14.6689
56.905 15.225827
56.910 15.374113
56.915 14.786827
56.920 14.500578
56.925 14.657576
56.930 14.706948
56.935 14.534994
56.940 14.370352
56.945 13.990106
56.950 14.492073
56.955 14.499669
56.960 13.991409
56.965 13.506656
56.970 13.049115
56.975 12.940576
56.980 12.681111
56.985 12.540603
56.990 12.733629
56.995 12.679565
57.000 12.973043
57.005 13.128021
57.010 13.515537
57.015 13.840611
57.020 13.457306
57.025 13.397861
57.030 13.836206
57.035 14.719661
57.040 14.799649
57.045 14.354401
57.050 14.052602
57.055 13.87458
57.060 13.691836
57.065 13.627552
57.070 13.114416
57.075 13.057833
57.080 13.54949
57.085 14.112599
57.090 14.656905
57.095 14.747898
57.100 14.390959
57.105 14.386705
57.110 14.542155
57.115 14.515324
57.120 14.48695
57.125 14.262338
57.130 13.907048
57.135 13.837361
57.140 13.704635
57.145 13.153329
57.150 12.646723
57.155 12.72014
57.160 13.237389
57.165 13.864522
57.170 13.950624
57.175 13.679653
57.180 14.084162
57.185 14.326161
57.190 13.926704
57.195 13.678694
57.200 13.678239
57.205 13.348496
57.210 13.609919
57.215 13.455181
57.220 13.097985
57.225 13.529231
57.230 13.458561
57.235 13.750273
57.240 14.043865
57.245 14.167465
57.250 14.509192
57.255 14.9698
57.260 14.864314
57.265 14.913878
57.270 14.995955
57.275 15.314496
57.280 15.728794
57.285 15.528047
57.290 15.44346
57.295 15.527218
57.300 14.912377
57.305 14.733171
57.310 14.589958
57.315 13.998073
57.320 14.155102
57.325 14.932693
57.330 15.212723
57.335 15.353709
57.340 14.653114
57.345 14.351233
57.350 14.456452
57.355 14.164253
57.360 13.60299
57.365 13.509178
57.370 13.669935
57.375 13.899009
57.380 14.105248
57.385 14.124662
57.390 14.49687
57.395 14.231063
57.400 14.565351
57.405 14.845758
57.410 15.5482
57.415 15.830176
57.420 15.96819
57.425 15.424392
57.430 14.999176
57.435 14.676255
57.440 14.155938
57.445 13.934887
57.450 14.123168
57.455 13.929976
57.460 14.013016
57.465 14.054134
57.470 14.140298
57.475 14.34346
57.480 13.974483
57.485 13.819554
57.490 14.115932
57.495 14.227681
57.500 14.331962
57.505 13.955132
57.510 13.818902
57.515 13.477405
57.520 13.630301
57.525 13.329776
57.530 13.161448
57.535 13.241393
57.540 13.250514
57.545 13.297425
57.550 13.621088
57.555 13.693881
57.560 13.900513
57.565 14.563919
57.570 14.765885
57.575 15.063593
57.580 14.963075
57.585 14.667129
57.590 14.829213
57.595 15.271024
57.600 15.185266
57.605 15.371607
57.610 15.831373
57.615 16.37365
57.620 16.744921
57.625 16.40201
57.630 16.255833
57.635 15.846051
57.640 15.172915
57.645 14.798966
57.650 14.469048
57.655 13.979396
57.660 13.130411
57.665 12.718151
57.670 12.884601
57.675 13.476295
57.680 13.843423
57.685 14.446985
57.690 15.063081
57.695 15.742846
57.700 16.141914
57.705 16.681326
57.710 16.656931
57.715 16.251585
57.720 15.951906
57.725 15.501754
57.730 15.501878
57.735 15.529344
57.740 15.13306
57.745 15.109403
57.750 15.519933
57.755 15.406685
57.760 15.541931
57.765 15.869651
57.770 15.534965
57.775 15.415904
57.780 15.381216
57.785 15.065267
57.790 15.448291
57.795 15.436385
57.800 15.085658
57.805 15.000909
57.810 14.799209
57.815 15.045845
57.820 15.010545
57.825 14.521722
57.830 14.270186
57.835 14.62707
57.840 15.077065
57.845 14.917061
57.850 14.792696
57.855 14.808513
57.860 15.533889
57.865 16.427546
57.870 16.341166
57.875 16.588902
57.880 16.393621
57.885 16.5662
57.890 16.394896
57.895 16.147049
57.900 15.569079
57.905 15.382418
57.910 15.31696
57.915 15.988712
57.920 15.85185
57.925 15.95441
57.930 15.664898
57.935 15.868182
57.940 16.002541
57.945 15.884808
57.950 16.107233
57.955 15.926586
57.960 15.545862
57.965 15.806628
57.970 15.645364
57.975 16.176701
57.980 16.469421
57.985 16.143574
57.990 16.314587
57.995 16.643255
58.000 16.836874
58.005 16.776703
58.010 16.362995
58.015 16.178535
58.020 16.393946
58.025 16.640333
58.030 17.076344
58.035 17.337481
58.040 17.558075
58.045 17.546635
58.050 17.435427
58.055 17.089622
58.060 16.601339
58.065 15.561382
58.070 15.334882
58.075 15.518352
58.080 15.289278
58.085 14.972698
58.090 15.316036
58.095 15.770814
58.100 16.423454
58.105 16.289648
58.110 16.40785
58.115 16.543852
58.120 16.684654
58.125 16.452579
58.130 16.286917
58.135 16.799574
58.140 17.231665
58.145 17.006493
58.150 16.662567
58.155 16.279982
58.160 15.922048
58.165 16.223854
58.170 15.480109
58.175 14.652441
58.180 14.299818
58.185 14.997341
58.190 15.882242
58.195 16.613997
58.200 16.482067
58.205 17.107393
58.210 18.213884
58.215 18.651642
58.220 18.81332
58.225 19.210285
58.230 19.345083
58.235 19.290167
58.240 18.771797
58.245 17.955257
58.250 17.92544
58.255 17.403095
58.260 16.73962
58.265 16.215027
58.270 16.303442
58.275 16.481995
58.280 16.532446
58.285 17.124182
58.290 17.242067
58.295 17.839466
58.300 18.293093
58.305 18.243708
58.310 18.151863
58.315 18.319427
58.320 18.243696
58.325 18.499796
58.330 17.987631
58.335 17.914124
58.340 18.486189
58.345 19.35288
58.350 20.075403
58.355 20.349871
58.360 20.182777
58.365 20.992577
58.370 21.202385
58.375 21.068478
58.380 20.934755
58.385 20.718445
58.390 20.892464
58.395 21.211424
58.400 21.460033
58.405 21.638277
58.410 21.709057
58.415 21.912209
58.420 21.938284
58.425 22.147799
58.430 22.271786
58.435 21.634186
58.440 21.733751
58.445 21.933867
58.450 22.779942
58.455 23.720253
58.460 24.17067
58.465 24.973276
58.470 25.30694
