!@!!GADDS PLOTSO FILE: Chi integration type
!@!!Title/SampleName: map-ac
!@!!Comment: ?
!@!!User: Bruker Instrument Administrator
!@!!Site: University of Illinois Chicago
!@!!Frame: map-ac_01_000.gfrm
!@!!Wavelengths    1.54184   1.54056   1.54439
!@!!Frame angles: 2Theta: 63.000 Omega: 50.000 Phi: 0.000 Chi: 90.000
!@!!Integration range: 2Theta: 53.000 to 73.000  Gamma: -105.000 to -75.000
!@!!Integration method: bin normalized
!@!N
!@!SS
!@!M
!@!L 0.0 0.0 0.0 0.0
!@!XDegrees
!@!YCounts
53.000 9.572203
53.005 9.447237
53.010 9.676743
53.015 9.813586
53.020 9.753937
53.025 9.535359
53.030 9.655792
53.035 10.20073
53.040 10.545499
53.045 10.453769
53.050 10.352278
53.055 10.377771
53.060 10.465524
53.065 10.132563
53.070 9.629432
53.075 9.270237
53.080 9.042217
53.085 8.803596
53.090 8.698616
53.095 8.75003
53.100 8.64558
53.105 8.587079
53.110 8.755161
53.115 9.001244
53.120 9.183828
53.125 9.187757
53.130 9.197319
53.135 9.275252
53.140 9.256012
53.145 8.685039
53.150 8.27667
53.155 8.163041
53.160 8.08095
53.165 8.321616
53.170 8.105767
53.175 8.353271
53.180 8.190499
53.185 8.249736
53.190 8.751734
53.195 8.85014
53.200 9.01571
53.205 9.319049
53.210 9.780426
53.215 10.326372
53.220 10.489568
53.225 10.578938
53.230 10.952416
53.235 11.078056
53.240 10.978486
53.245 10.588427
53.250 10.230783
53.255 10.632592
53.260 10.646
53.265 10.355982
53.270 10.420911
53.275 10.170216
53.280 11.012298
53.285 11.844398
53.290 11.421608
53.295 11.231554
53.300 11.350084
53.305 11.501058
53.310 11.407875
53.315 10.812564
53.320 10.358455
53.325 10.3161
53.330 10.061342
53.335 9.86659
53.340 9.604277
53.345 9.4683
53.350 9.324126
53.355 9.499831
53.360 9.959023
53.365 10.047748
53.370 10.211241
53.375 10.455414
53.380 10.718934
53.385 11.069613
53.390 11.033551
53.395 10.847703
53.400 10.409367
53.405 10.445829
53.410 10.513842
53.415 10.273777
53.420 10.026077
53.425 9.591331
53.430 9.772166
53.435 9.946298
53.440 9.890673
53.445 9.717196
53.450 9.782589
53.455 9.604055
53.460 9.065398
53.465 8.693934
53.470 8.84584
53.475 9.021155
53.480 8.932714
53.485 8.812701
53.490 8.988199
53.495 9.315225
53.500 9.797791
53.505 10.117325
53.510 10.190089
53.515 10.223334
53.520 10.236393
53.525 10.612402
53.530 10.733785
53.535 10.464867
53.540 10.152301
53.545 9.84313
53.550 10.060446
53.555 10.061236
53.560 9.859225
53.565 9.775513
53.570 9.947593
53.575 10.023324
53.580 10.268043
53.585 10.277439
53.590 10.767078
53.595 11.119183
53.600 11.650377
53.605 11.835584
53.610 11.883557
53.615 11.799504
53.620 11.7488
53.625 11.463231
53.630 11.497413
53.635 11.18217
53.640 10.78924
53.645 10.698921
53.650 10.663949
53.655 10.677455
53.660 10.366789
53.665 9.86934
53.670 9.910839
53.675 10.545014
53.680 10.717982
53.685 10.713019
53.690 10.502769
53.695 10.699807
53.700 11.075302
53.705 10.92151
53.710 10.338492
53.715 10.248974
53.720 10.579779
53.725 10.98617
53.730 10.863945
53.735 10.571269
53.740 10.193717
53.745 9.830512
53.750 9.624136
53.755 9.203056
53.760 9.008531
53.765 9.095079
53.770 9.109088
53.775 9.696166
53.780 10.07068
53.785 10.104797
53.790 9.681643
53.795 9.772282
53.800 10.006862
53.805 10.530374
53.810 10.717855
53.815 10.73283
53.820 10.464832
53.825 10.659513
53.830 10.879646
53.835 10.523854
53.840 9.926946
53.845 9.663952
53.850 9.52848
53.855 9.987348
53.860 10.274661
53.865 10.055501
53.870 10.062329
53.875 10.204427
53.880 10.470284
53.885 10.661977
53.890 10.677341
53.895 10.742756
53.900 10.93595
53.905 11.130786
53.910 11.025987
53.915 10.919744
53.920 11.198976
53.925 11.25768
53.930 11.299816
53.935 10.885085
53.940 11.109249
53.945 11.195115
53.950 11.491615
53.955 11.62177
53.960 11.486611
53.965 11.522246
53.970 11.691834
53.975 11.213088
53.980 11.265271
53.985 11.039835
53.990 10.911702
53.995 10.603202
54.000 10.580807
54.005 11.06708
54.010 11.034332
54.015 11.140047
54.020 11.367964
54.025 11.5407
54.030 12.158186
54.035 11.785847
54.040 11.583465
54.045 11.661821
54.050 11.406965
54.055 11.107588
54.060 10.775641
54.065 10.664988
54.070 11.081928
54.075 10.952587
54.080 10.880543
54.085 10.687201
54.090 10.498749
54.095 10.574863
54.100 10.149355
54.105 10.073908
54.110 10.3465
54.115 10.598456
54.120 10.591646
54.125 10.339773
54.130 10.605521
54.135 10.948119
54.140 10.833075
54.145 11.298102
54.150 11.285795
54.155 11.795773
54.160 12.026715
54.165 11.382424
54.170 11.991798
54.175 11.751813
54.180 11.382345
54.185 11.518598
54.190 11.920177
54.195 12.056479
54.200 12.492256
54.205 12.321131
54.210 12.61329
54.215 12.597553
54.220 12.362392
54.225 12.182893
54.230 12.323699
54.235 12.400723
54.240 12.300094
54.245 12.660035
54.250 12.601077
54.255 12.165083
54.260 11.80023
54.265 11.284234
54.270 11.238153
54.275 11.222793
54.280 10.63743
54.285 10.638317
54.290 11.161781
54.295 11.251825
54.300 11.422514
54.305 11.309308
54.310 11.422965
54.315 11.053796
54.320 10.765453
54.325 10.601127
54.330 10.161725
54.335 10.134043
54.340 9.945674
54.345 9.925276
54.350 10.462756
54.355 10.50271
54.360 10.746989
54.365 11.523676
54.370 11.170488
54.375 10.786658
54.380 10.836953
54.385 11.037265
54.390 11.12434
54.395 10.806069
54.400 10.861216
54.405 10.726182
54.410 10.517982
54.415 10.138125
54.420 10.02212
54.425 10.449717
54.430 10.54915
54.435 10.599854
54.440 11.407273
54.445 11.891547
54.450 12.149611
54.455 11.959434
54.460 11.485802
54.465 11.042158
54.470 11.123316
54.475 10.760475
54.480 10.905298
54.485 10.979206
54.490 11.359656
54.495 11.280933
54.500 11.05711
54.505 10.819031
54.510 10.901477
54.515 10.766304
54.520 10.721659
54.525 10.466308
54.530 11.016077
54.535 10.815766
54.540 10.683185
54.545 10.565799
54.550 10.463681
54.555 10.511174
54.560 10.532599
54.565 10.381286
54.570 10.689457
54.575 11.305422
54.580 11.653056
54.585 12.229576
54.590 12.369103
54.595 12.411795
54.600 12.543251
54.605 13.231083
54.610 12.91161
54.615 13.184426
54.620 13.032462
54.625 13.079248
54.630 13.039121
54.635 13.136637
54.640 12.082096
54.645 11.732543
54.650 11.343719
54.655 11.347995
54.660 11.649867
54.665 11.75683
54.670 11.853079
54.675 13.018466
54.680 13.073008
54.685 12.681129
54.690 12.344607
54.695 12.264034
54.700 12.416308
54.705 12.137858
54.710 11.054611
54.715 11.038238
54.720 11.015596
54.725 11.236489
54.730 11.147667
54.735 10.744348
54.740 10.734048
54.745 10.977311
54.750 11.2158
54.755 11.314394
54.760 10.910635
54.765 11.285872
54.770 11.406336
54.775 11.307517
54.780 10.91208
54.785 10.800587
54.790 10.815926
54.795 11.434239
54.800 11.356668
54.805 11.371137
54.810 11.495247
54.815 12.191351
54.820 12.660125
54.825 12.590527
54.830 12.448543
54.835 12.531107
54.840 12.54651
54.845 12.708238
54.850 12.738511
54.855 12.82468
54.860 12.870107
54.865 12.061487
54.870 12.095303
54.875 12.316972
54.880 12.696284
54.885 12.286075
54.890 11.895388
54.895 12.204104
54.900 12.467339
54.905 12.012744
54.910 11.65123
54.915 10.949516
54.920 11.000617
54.925 11.126929
54.930 11.154475
54.935 11.361118
54.940 11.783432
54.945 12.257491
54.950 13.283193
54.955 13.379867
54.960 13.094481
54.965 13.052698
54.970 12.992733
54.975 12.759987
54.980 12.303075
54.985 11.825047
54.990 11.785851
54.995 11.783467
55.000 11.318575
55.005 11.210628
55.010 10.948432
55.015 11.070689
55.020 10.829919
55.025 10.922015
55.030 10.49896
55.035 10.351015
55.040 10.713326
55.045 10.810115
55.050 10.417784
55.055 10.769271
55.060 11.005693
55.065 11.320435
55.070 11.482033
55.075 11.511842
55.080 11.739097
55.085 12.181214
55.090 11.655554
55.095 11.544755
55.100 11.893497
55.105 12.137109
55.110 12.311235
55.115 12.163238
55.120 12.068171
55.125 12.281837
55.130 12.636091
55.135 12.501881
55.140 12.239514
55.145 12.211994
55.150 12.344415
55.155 12.654914
55.160 13.076407
55.165 12.808609
55.170 12.801502
55.175 12.822743
55.180 13.010624
55.185 12.852617
55.190 12.84405
55.195 12.60815
55.200 12.592451
55.205 12.543353
55.210 12.535864
55.215 12.690179
55.220 12.841005
55.225 12.49262
55.230 12.240734
55.235 12.596255
55.240 12.624744
55.245 12.457192
55.250 11.889601
55.255 11.878063
55.260 11.438148
55.265 11.494638
55.270 10.914695
55.275 10.928782
55.280 11.211117
55.285 12.027303
55.290 12.551199
55.295 12.591764
55.300 12.619098
55.305 12.90726
55.310 12.666381
55.315 12.180934
55.320 11.57885
55.325 11.775529
55.330 11.88756
55.335 12.032055
55.340 12.517349
55.345 12.426088
55.350 12.301862
55.355 12.748471
55.360 12.905495
55.365 13.379648
55.370 13.425477
55.375 13.330796
55.380 13.218269
55.385 13.413906
55.390 13.009825
55.395 12.505867
55.400 12.209511
55.405 11.924373
55.410 12.471126
55.415 12.94871
55.420 12.615631
55.425 12.910872
55.430 13.01226
55.435 12.857785
55.440 12.700652
55.445 12.549183
55.450 12.604085
55.455 12.482404
55.460 12.037324
55.465 12.111833
55.470 11.978109
55.475 12.349399
55.480 12.025308
55.485 11.686687
55.490 11.505301
55.495 11.506642
55.500 11.901324
55.505 12.424776
55.510 11.995228
55.515 11.837032
55.520 12.058277
55.525 11.597947
55.530 11.536799
55.535 11.118115
55.540 10.77921
55.545 11.276045
55.550 11.492303
55.555 11.466803
55.560 12.200838
55.565 12.791828
55.570 13.019354
55.575 13.626263
55.580 13.957919
55.585 14.602784
55.590 14.945313
55.595 14.879193
55.600 15.018956
55.605 15.138864
55.610 14.590271
55.615 14.666497
55.620 14.294001
55.625 14.524384
55.630 14.35397
55.635 14.074313
55.640 14.126211
55.645 13.712543
55.650 13.739738
55.655 14.195161
55.660 14.24137
55.665 14.302029
55.670 14.576944
55.675 14.646418
55.680 14.822555
55.685 14.241881
55.690 13.623898
55.695 13.327765
55.700 12.934344
55.705 12.390882
55.710 11.840186
55.715 11.123192
55.720 11.144592
55.725 11.474915
55.730 11.988637
55.735 12.636235
55.740 12.579837
55.745 12.445303
55.750 12.816338
55.755 13.044275
55.760 12.520411
55.765 11.842208
55.770 11.466598
55.775 11.994515
55.780 12.587731
55.785 12.484241
55.790 12.141316
55.795 12.336489
55.800 12.771703
55.805 13.138362
55.810 13.139434
55.815 13.229663
55.820 13.22178
55.825 13.434668
55.830 13.692042
55.835 13.628294
55.840 13.2961
55.845 13.216213
55.850 13.095388
55.855 13.125638
55.860 12.451834
55.865 12.181571
55.870 11.752226
55.875 11.242112
55.880 11.101431
55.885 11.40142
55.890 11.876308
55.895 12.301869
55.900 11.922461
55.905 12.172416
55.910 12.746919
55.915 13.11719
55.920 13.202224
55.925 13.178018
55.930 13.20763
55.935 13.798378
55.940 14.042349
55.945 14.455091
55.950 14.144151
55.955 13.47966
55.960 12.928363
55.965 12.935844
55.970 12.586681
55.975 12.074469
55.980 11.479321
55.985 11.433056
55.990 11.857064
55.995 12.659573
56.000 12.437115
56.005 12.418236
56.010 12.338676
56.015 12.534411
56.020 12.140453
56.025 11.745802
56.030 11.60495
56.035 12.023358
56.040 12.322768
56.045 12.488533
56.050 12.538328
56.055 13.113328
56.060 12.830558
56.065 12.628761
56.070 12.48092
56.075 12.536867
56.080 12.532385
56.085 12.402461
56.090 13.088525
56.095 13.780266
56.100 13.515964
56.105 13.682711
56.110 13.527638
56.115 13.81694
56.120 14.020477
56.125 12.983341
56.130 12.833371
56.135 13.165136
56.140 13.103335
56.145 12.811076
56.150 12.413785
56.155 12.430007
56.160 13.022234
56.165 13.045986
56.170 12.887976
56.175 12.598512
56.180 12.672142
56.185 12.651937
56.190 12.609572
56.195 12.738076
56.200 12.442759
56.205 12.286338
56.210 12.007278
56.215 12.435859
56.220 12.97299
56.225 13.505356
56.230 13.943217
56.235 14.8072
56.240 14.892386
56.245 14.89245
56.250 14.463758
56.255 13.974253
56.260 12.999561
56.265 12.318716
56.270 11.831235
56.275 11.883639
56.280 12.359797
56.285 12.666939
56.290 12.670102
56.295 12.768607
56.300 12.467555
56.305 12.777964
56.310 13.103695
56.315 13.048695
56.320 13.065822
56.325 13.532791
56.330 13.607104
56.335 13.946595
56.340 13.889541
56.345 13.641537
56.350 13.3866
56.355 13.169228
56.360 12.798866
56.365 13.23583
56.370 13.732751
56.375 13.641129
56.380 13.52102
56.385 13.215927
56.390 13.365541
56.395 13.407776
56.400 13.295481
56.405 12.584769
56.410 12.429448
56.415 12.795737
56.420 12.994527
56.425 13.172872
56.430 13.341129
56.435 13.083667
56.440 12.840816
56.445 12.419414
56.450 12.18282
56.455 12.058813
56.460 12.282045
56.465 12.033958
56.470 12.162913
56.475 12.726829
56.480 13.043432
56.485 13.007236
56.490 13.62854
56.495 13.624815
56.500 13.697199
56.505 13.705553
56.510 13.625043
56.515 13.175497
56.520 13.016777
56.525 12.762983
56.530 12.477876
56.535 12.659964
56.540 12.331243
56.545 12.249742
56.550 12.700689
56.555 12.643784
56.560 12.349589
56.565 12.485722
56.570 12.370628
56.575 12.748711
56.580 12.937222
56.585 12.977856
56.590 13.240869
56.595 13.434673
56.600 13.238399
56.605 13.482298
56.610 13.103671
56.615 13.152416
56.620 13.118271
56.625 12.779578
56.630 12.76189
56.635 12.88768
56.640 12.920413
56.645 13.038161
56.650 13.216729
56.655 13.053756
56.660 13.053415
56.665 13.292471
56.670 13.197857
56.675 12.84751
56.680 12.63341
56.685 12.416173
56.690 13.135909
56.695 13.024462
56.700 13.295657
56.705 13.646214
56.710 13.990267
56.715 14.173928
56.720 14.62114
56.725 14.483832
56.730 14.916872
56.735 14.131603
56.740 14.071301
56.745 14.556654
56.750 14.987686
56.755 14.607819
56.760 14.834958
56.765 14.761336
56.770 15.048867
56.775 14.899555
56.780 14.598695
56.785 14.229581
56.790 14.388425
56.795 14.462471
56.800 14.483818
56.805 14.061154
56.810 13.958565
56.815 14.381783
56.820 14.186681
56.825 14.300712
56.830 13.70393
56.835 13.754978
56.840 14.21832
56.845 14.586308
56.850 14.155423
56.855 14.37824
56.860 13.935712
56.865 14.320578
56.870 14.859085
56.875 14.920007
56.880 14.614898
56.885 14.35955
56.890 14.215242
56.895 14.458649
56.900 14.280725
56.905 14.319743
56.910 14.714505
56.915 15.264339
56.920 15.45997
56.925 15.60755
56.930 15.319684
56.935 14.831347
56.940 13.896522
56.945 13.467123
56.950 13.036627
56.955 12.944215
56.960 12.796251
56.965 12.696158
56.970 13.0439
56.975 13.47154
56.980 12.806972
56.985 12.834874
56.990 13.005413
56.995 13.183274
57.000 13.312597
57.005 13.066142
57.010 13.303802
57.015 14.096311
57.020 14.238872
57.025 14.575432
57.030 14.373445
57.035 14.604156
57.040 14.657343
57.045 14.747478
57.050 15.144919
57.055 15.533445
57.060 15.253675
57.065 15.129535
57.070 15.259171
57.075 15.907582
57.080 15.37735
57.085 14.449183
57.090 13.846123
57.095 13.828847
57.100 13.859693
57.105 13.597708
57.110 13.667303
57.115 14.902808
57.120 15.735594
57.125 16.137566
57.130 16.333656
57.135 16.617521
57.140 16.528805
57.145 16.20236
57.150 15.476399
57.155 15.070418
57.160 15.010727
57.165 15.222423
57.170 15.352808
57.175 15.220915
57.180 15.065614
57.185 15.008625
57.190 14.876298
57.195 14.571839
57.200 14.355336
57.205 14.202959
57.210 14.22451
57.215 13.934817
57.220 14.085255
57.225 14.191209
57.230 13.977546
57.235 13.971663
57.240 13.616117
57.245 14.101542
57.250 14.368122
57.255 14.213798
57.260 14.343
57.265 14.985141
57.270 15.284736
57.275 15.612684
57.280 14.695273
57.285 14.806964
57.290 14.460495
57.295 14.09458
57.300 14.304243
57.305 14.238461
57.310 14.186026
57.315 14.955356
57.320 15.19505
57.325 15.792551
57.330 15.708885
57.335 15.077242
57.340 14.952993
57.345 15.08155
57.350 14.892115
57.355 14.732361
57.360 14.183215
57.365 14.327917
57.370 14.884133
57.375 15.637431
57.380 15.305017
57.385 15.10614
57.390 15.199963
57.395 15.186186
57.400 15.198194
57.405 14.965657
57.410 14.606355
57.415 15.020129
57.420 14.586338
57.425 14.195264
57.430 14.308334
57.435 14.254279
57.440 14.150331
57.445 13.507683
57.450 13.603201
57.455 14.509977
57.460 15.349723
57.465 15.770371
57.470 15.538995
57.475 15.571712
57.480 16.210787
57.485 16.452925
57.490 16.16272
57.495 15.891006
57.500 15.681065
57.505 15.929235
57.510 15.984152
57.515 15.865196
57.520 14.962784
57.525 14.672376
57.530 14.352129
57.535 14.622417
57.540 14.736568
57.545 14.855551
57.550 14.874152
57.555 15.941671
57.560 16.13126
57.565 16.301592
57.570 16.158035
57.575 16.182552
57.580 16.425989
57.585 16.230932
57.590 15.53845
57.595 15.318118
57.600 15.283704
57.605 15.236882
57.610 14.990417
57.615 14.870645
57.620 14.832658
57.625 15.18989
57.630 15.114053
57.635 15.497651
57.640 15.610291
57.645 15.425954
57.650 15.321733
57.655 15.249059
57.660 14.926865
57.665 14.846892
57.670 14.347875
57.675 14.499786
57.680 14.636455
57.685 14.939233
57.690 15.227056
57.695 15.556756
57.700 15.583627
57.705 15.764929
57.710 15.880832
57.715 15.474729
57.720 15.455843
57.725 15.247131
57.730 14.903034
57.735 15.07106
57.740 14.368901
57.745 14.516501
57.750 14.885479
57.755 14.577574
57.760 14.383219
57.765 14.591792
57.770 14.501829
57.775 14.8613
57.780 14.550878
57.785 14.507482
57.790 14.60057
57.795 14.298994
57.800 13.739689
57.805 13.187151
57.810 13.500887
57.815 13.399999
57.820 13.209463
57.825 13.633924
57.830 13.795945
57.835 13.790401
57.840 13.875254
57.845 13.363358
57.850 13.79045
57.855 13.840088
57.860 13.938877
57.865 14.041314
57.870 14.09833
57.875 14.434687
57.880 14.776212
57.885 14.513288
57.890 14.733305
57.895 14.71163
57.900 14.758142
57.905 14.628217
57.910 14.533451
57.915 14.188854
57.920 14.216158
57.925 13.711754
57.930 13.487849
57.935 13.984824
57.940 14.489996
57.945 14.104754
57.950 14.10074
57.955 13.834715
57.960 13.856892
57.965 13.6399
57.970 13.052838
57.975 12.858788
57.980 12.697078
57.985 12.873621
57.990 13.250397
57.995 13.25567
58.000 13.833892
58.005 14.299708
58.010 14.972404
58.015 15.339903
58.020 14.918413
58.025 14.699063
58.030 14.600811
58.035 14.344004
58.040 14.019606
58.045 13.727934
58.050 13.951228
58.055 14.404784
58.060 14.838463
58.065 14.862414
58.070 14.483298
58.075 14.607135
58.080 14.666274
58.085 14.350868
58.090 14.281983
58.095 14.268556
58.100 14.297007
58.105 14.634131
58.110 14.601943
58.115 14.486859
58.120 15.045018
58.125 15.421074
58.130 15.265725
58.135 15.362359
58.140 15.670821
58.145 15.733595
58.150 15.462515
58.155 15.179349
58.160 14.797661
58.165 15.325023
58.170 15.865636
58.175 15.702142
58.180 15.274142
58.185 15.142725
58.190 14.918687
58.195 15.412013
58.200 15.282064
58.205 15.369391
58.210 15.199875
58.215 15.344803
58.220 15.644392
58.225 15.871581
58.230 15.395925
58.235 15.016185
58.240 14.621452
58.245 14.912473
58.250 15.066668
58.255 14.3972
58.260 13.718022
58.265 13.8364
58.270 14.136638
58.275 14.076016
58.280 13.759444
58.285 14.068278
58.290 14.431503
58.295 14.688289
58.300 14.93357
58.305 14.821494
58.310 14.592387
58.315 14.454995
58.320 14.496248
58.325 14.707522
58.330 14.764413
58.335 14.316536
58.340 14.557485
58.345 14.948055
58.350 15.229203
58.355 14.948385
58.360 14.76022
58.365 14.986211
58.370 14.92468
58.375 14.533134
58.380 14.277234
58.385 14.841622
58.390 15.370636
58.395 15.376793
58.400 15.096934
58.405 15.348271
58.410 15.506875
58.415 15.525021
58.420 14.892816
58.425 14.724605
58.430 14.849022
58.435 15.124681
58.440 15.505947
58.445 15.783397
58.450 15.830655
58.455 16.111258
58.460 15.683469
58.465 15.605185
