!@!!GADDS PLOTSO FILE: Chi integration type
!@!!Title/SampleName: map-4
!@!!Comment: ?
!@!!User: Bruker Instrument Administrator
!@!!Site: University of Illinois Chicago
!@!!Frame: map-4_01_000.gfrm
!@!!Wavelengths    1.54184   1.54056   1.54439
!@!!Frame angles: 2Theta: 63.000 Omega: 50.000 Phi: 0.000 Chi: 90.000
!@!!Integration range: 2Theta: 53.000 to 73.000  Gamma: -105.000 to -75.000
!@!!Integration method: bin normalized
!@!N
!@!SS
!@!M
!@!L 0.0 0.0 0.0 0.0
!@!XDegrees
!@!YCounts
53.000 7.389094
53.005 7.486291
53.010 7.87601
53.015 8.330626
53.020 8.925843
53.025 9.307816
53.030 9.114045
53.035 8.970295
53.040 8.37759
53.045 7.92518
53.050 7.088253
53.055 6.637107
53.060 6.492593
53.065 6.6678
53.070 6.939592
53.075 7.217493
53.080 7.63166
53.085 8.309918
53.090 8.59418
53.095 8.769844
53.100 8.470191
53.105 8.197464
53.110 8.070436
53.115 7.786207
53.120 7.57884
53.125 7.403675
53.130 7.355351
53.135 7.727691
53.140 7.916449
53.145 8.301181
53.150 8.323536
53.155 8.16223
53.160 8.396646
53.165 8.943297
53.170 8.943165
53.175 8.634698
53.180 8.511915
53.185 8.55444
53.190 8.626454
53.195 8.115266
53.200 7.50019
53.205 7.462662
53.210 7.48124
53.215 7.517017
53.220 7.666323
53.225 8.312188
53.230 8.71139
53.235 9.074721
53.240 9.165151
53.245 9.078743
53.250 8.888922
53.255 8.544332
53.260 7.664766
53.265 7.121591
53.270 6.846198
53.275 6.721996
53.280 6.893961
53.285 6.95581
53.290 7.422698
53.295 7.619233
53.300 8.147507
53.305 8.634823
53.310 8.882206
53.315 8.99691
53.320 8.797549
53.325 8.9924
53.330 9.185867
53.335 8.703868
53.340 8.980095
53.345 9.001375
53.350 8.979509
53.355 9.054526
53.360 9.074034
53.365 9.348646
53.370 9.403359
53.375 8.884251
53.380 8.864544
53.385 9.006948
53.390 9.094205
53.395 8.896557
53.400 8.93057
53.405 8.953586
53.410 9.098486
53.415 9.253878
53.420 9.089566
53.425 8.651403
53.430 8.590005
53.435 8.296033
53.440 8.339567
53.445 8.134312
53.450 7.799596
53.455 7.766775
53.460 7.959685
53.465 7.841661
53.470 7.703465
53.475 7.896513
53.480 8.480227
53.485 8.820053
53.490 9.229822
53.495 9.321745
53.500 10.030358
53.505 10.298102
53.510 10.296613
53.515 10.191803
53.520 10.137109
53.525 9.890858
53.530 10.043739
53.535 9.63169
53.540 9.573925
53.545 9.372127
53.550 9.299551
53.555 9.214425
53.560 9.327316
53.565 9.287016
53.570 9.441451
53.575 9.544932
53.580 9.775902
53.585 9.637201
53.590 9.629432
53.595 8.99757
53.600 8.326132
53.605 8.104377
53.610 8.062677
53.615 8.054037
53.620 8.2955
53.625 8.298223
53.630 8.599955
53.635 8.728841
53.640 8.481384
53.645 7.999215
53.650 7.552062
53.655 7.546309
53.660 7.8868
53.665 8.009738
53.670 8.566492
53.675 8.817385
53.680 9.201897
53.685 9.578949
53.690 9.32763
53.695 9.269135
53.700 9.768327
53.705 9.61756
53.710 10.085313
53.715 10.115278
53.720 10.239315
53.725 10.31697
53.730 10.206391
53.735 10.366894
53.740 10.19556
53.745 9.737041
53.750 9.754525
53.755 9.542252
53.760 9.634737
53.765 9.40896
53.770 9.025595
53.775 9.224545
53.780 9.16099
53.785 9.257046
53.790 9.584107
53.795 9.745646
53.800 9.802781
53.805 9.945242
53.810 9.954072
53.815 9.816657
53.820 9.041588
53.825 8.467913
53.830 8.055079
53.835 8.039177
53.840 8.185182
53.845 8.510742
53.850 8.853743
53.855 9.360878
53.860 9.44977
53.865 9.729982
53.870 9.432784
53.875 9.033792
53.880 8.806623
53.885 8.742748
53.890 8.58691
53.895 8.68519
53.900 8.850554
53.905 9.248585
53.910 8.961226
53.915 9.006724
53.920 9.133385
53.925 9.410722
53.930 9.459573
53.935 8.951632
53.940 9.016534
53.945 9.516609
53.950 9.56671
53.955 9.718688
53.960 9.469475
53.965 9.920463
53.970 10.183058
53.975 9.900781
53.980 9.479568
53.985 9.10397
53.990 8.819677
53.995 8.605505
54.000 8.630502
54.005 8.961057
54.010 9.253395
54.015 9.805516
54.020 10.363411
54.025 10.723701
54.030 10.232338
54.035 9.462588
54.040 9.560448
54.045 9.975063
54.050 9.743863
54.055 9.48674
54.060 9.38763
54.065 10.368188
54.070 10.949133
54.075 10.863385
54.080 10.753428
54.085 10.554397
54.090 10.493694
54.095 10.944726
54.100 10.70459
54.105 10.280499
54.110 9.963773
54.115 9.733042
54.120 9.851715
54.125 9.80694
54.130 9.529017
54.135 9.749207
54.140 9.832787
54.145 9.519905
54.150 9.625034
54.155 9.993172
54.160 10.49588
54.165 10.380325
54.170 10.451355
54.175 10.599048
54.180 10.767097
54.185 10.662462
54.190 10.517518
54.195 10.066207
54.200 10.267465
54.205 10.28462
54.210 10.132151
54.215 10.280819
54.220 10.240777
54.225 10.239861
54.230 10.148713
54.235 10.926159
54.240 10.762397
54.245 10.774827
54.250 10.629699
54.255 10.502045
54.260 10.463724
54.265 10.10361
54.270 8.863893
54.275 8.927727
54.280 8.848533
54.285 8.603897
54.290 8.606417
54.295 8.57324
54.300 8.830004
54.305 8.738377
54.310 8.777662
54.315 8.900493
54.320 8.897146
54.325 8.954568
54.330 9.283657
54.335 9.943039
54.340 10.533402
54.345 10.749565
54.350 11.162125
54.355 11.863273
54.360 11.777957
54.365 11.577746
54.370 11.115215
54.375 10.808854
54.380 10.818049
54.385 10.515035
54.390 10.033273
54.395 10.372101
54.400 10.144815
54.405 10.21524
54.410 10.368793
54.415 10.499535
54.420 10.917173
54.425 10.816615
54.430 10.441907
54.435 10.655559
54.440 10.498223
54.445 10.5521
54.450 10.278585
54.455 10.042666
54.460 10.362507
54.465 9.967448
54.470 9.720372
54.475 10.049584
54.480 9.821563
54.485 9.887552
54.490 10.079145
54.495 10.098477
54.500 10.410853
54.505 10.35404
54.510 9.848518
54.515 9.586499
54.520 9.166475
54.525 9.139642
54.530 9.159002
54.535 9.214143
54.540 9.715415
54.545 10.16441
54.550 10.555056
54.555 10.488534
54.560 10.102193
54.565 9.858145
54.570 9.508397
54.575 8.794276
54.580 8.62534
54.585 8.403955
54.590 8.442719
54.595 8.856958
54.600 9.164345
54.605 9.364652
54.610 9.536061
54.615 9.512539
54.620 9.820219
54.625 9.658586
54.630 9.532621
54.635 9.597694
54.640 10.116575
54.645 10.980695
54.650 11.015444
54.655 10.924744
54.660 11.536168
54.665 11.468138
54.670 11.625549
54.675 11.187178
54.680 10.715436
54.685 10.752276
54.690 10.673178
54.695 10.339694
54.700 10.365933
54.705 10.245537
54.710 9.652586
54.715 9.574576
54.720 9.64849
54.725 10.060385
54.730 10.742407
54.735 10.482933
54.740 10.41674
54.745 10.303302
54.750 10.145282
54.755 10.340025
54.760 10.168422
54.765 9.794534
54.770 10.132922
54.775 10.609572
54.780 10.813055
54.785 10.892962
54.790 10.758142
54.795 10.378676
54.800 10.451774
54.805 9.958557
54.810 9.582129
54.815 9.810464
54.820 9.682484
54.825 9.815234
54.830 10.314096
54.835 10.477505
54.840 10.306025
54.845 10.257864
54.850 10.295016
54.855 10.248446
54.860 9.757607
54.865 9.23862
54.870 9.128796
54.875 9.478767
54.880 9.55613
54.885 9.439796
54.890 9.253183
54.895 9.256768
54.900 9.238389
54.905 9.272414
54.910 9.299334
54.915 9.028122
54.920 9.343469
54.925 9.878421
54.930 10.280476
54.935 10.429563
54.940 10.850238
54.945 11.527758
54.950 11.523195
54.955 11.460449
54.960 11.33973
54.965 11.309088
54.970 11.076127
54.975 10.409189
54.980 9.8617
54.985 10.115989
54.990 9.738409
54.995 9.239663
55.000 9.277596
55.005 9.421836
55.010 9.478674
55.015 9.249027
55.020 9.480869
55.025 9.760801
55.030 10.129573
55.035 10.241522
55.040 10.334662
55.045 10.568886
55.050 10.672238
55.055 10.58434
55.060 10.544385
55.065 10.325311
55.070 10.291741
55.075 10.331033
55.080 10.730939
55.085 10.893694
55.090 10.743792
55.095 11.050693
55.100 11.430818
55.105 11.591087
55.110 11.738821
55.115 11.956709
55.120 12.272795
55.125 12.386499
55.130 12.166017
55.135 11.94164
55.140 11.541101
55.145 11.165967
55.150 10.647935
55.155 10.291965
55.160 10.077329
55.165 9.744699
55.170 9.991805
55.175 10.427528
55.180 10.641688
55.185 10.891253
55.190 11.151847
55.195 11.531585
55.200 11.733721
55.205 11.374167
55.210 11.355984
55.215 11.597577
55.220 11.895683
55.225 11.363493
55.230 10.808816
55.235 10.770339
55.240 10.966248
55.245 10.696598
55.250 10.214615
55.255 9.960231
55.260 10.399453
55.265 10.909514
55.270 11.183388
55.275 11.445187
55.280 11.617663
55.285 11.930773
55.290 12.266444
55.295 12.234027
55.300 12.458982
55.305 12.645322
55.310 12.479099
55.315 12.521959
55.320 12.32678
55.325 12.346889
55.330 12.559026
55.335 12.090435
55.340 11.77188
55.345 11.481763
55.350 11.286489
55.355 11.052574
55.360 10.956322
55.365 10.949783
55.370 10.638747
55.375 11.02072
55.380 11.223478
55.385 11.453914
55.390 11.994875
55.395 11.866241
55.400 11.917892
55.405 11.842834
55.410 11.410792
55.415 11.357018
55.420 11.587339
55.425 11.489148
55.430 11.489222
55.435 11.218613
55.440 11.491756
55.445 11.961985
55.450 11.947172
55.455 11.771893
55.460 11.806396
55.465 12.091364
55.470 12.692039
55.475 12.788373
55.480 12.650337
55.485 12.404961
55.490 12.280456
55.495 11.746531
55.500 11.335767
55.505 10.93082
55.510 10.46641
55.515 10.576728
55.520 10.812836
55.525 11.054671
55.530 11.254045
55.535 11.370662
55.540 11.480568
55.545 11.227975
55.550 11.422075
55.555 11.518984
55.560 11.93734
55.565 12.226947
55.570 12.464922
55.575 12.876596
55.580 12.862006
55.585 12.147779
55.590 12.296786
55.595 11.81883
55.600 11.842262
55.605 11.045918
55.610 11.3318
55.615 11.436529
55.620 11.669879
55.625 11.197133
55.630 11.365521
55.635 11.58661
55.640 11.814498
55.645 11.150043
55.650 11.504656
55.655 11.68005
55.660 11.620769
55.665 11.575861
55.670 11.719375
55.675 12.153932
55.680 12.620633
55.685 12.550564
55.690 12.311586
55.695 12.266675
55.700 11.652776
55.705 11.503699
55.710 11.185595
55.715 10.83963
55.720 10.328908
55.725 10.439388
55.730 10.204594
55.735 10.036622
55.740 9.929214
55.745 9.432454
55.750 9.730339
55.755 9.890278
55.760 9.815732
55.765 10.475046
55.770 11.07405
55.775 11.127213
55.780 11.426776
55.785 11.291242
55.790 11.539881
55.795 11.202347
55.800 10.715798
55.805 10.550375
55.810 10.345165
55.815 10.3604
55.820 10.612714
55.825 10.834962
55.830 11.106797
55.835 11.152027
55.840 11.099519
55.845 11.581359
55.850 11.216504
55.855 11.008678
55.860 10.944479
55.865 11.095824
55.870 11.634766
55.875 12.1234
55.880 12.104901
55.885 12.421404
55.890 12.234219
55.895 12.554159
55.900 12.632362
55.905 12.407378
55.910 12.381786
55.915 12.565471
55.920 13.17466
55.925 13.656342
55.930 13.453665
55.935 14.051616
55.940 13.77172
55.945 13.819738
55.950 13.565753
55.955 13.123068
55.960 12.423162
55.965 11.872254
55.970 11.38471
55.975 11.174867
55.980 11.384258
55.985 11.772718
55.990 11.272852
55.995 11.405201
56.000 11.514495
56.005 11.968426
56.010 12.051199
56.015 11.310092
56.020 11.257742
56.025 11.857102
56.030 12.144153
56.035 12.503628
56.040 12.444604
56.045 12.847959
56.050 12.871289
56.055 12.860029
56.060 12.542126
56.065 11.856841
56.070 11.314505
56.075 10.887258
56.080 10.755571
56.085 10.574145
56.090 10.059834
56.095 10.274549
56.100 11.044457
56.105 10.716066
56.110 10.308805
56.115 10.425311
56.120 11.01951
56.125 11.646252
56.130 11.291178
56.135 11.214817
56.140 11.693624
56.145 11.540182
56.150 11.303244
56.155 10.582382
56.160 10.550044
56.165 10.971842
56.170 10.766696
56.175 11.141985
56.180 11.500483
56.185 11.43405
56.190 11.835766
56.195 11.721854
56.200 11.179095
56.205 10.961744
56.210 11.122455
56.215 11.654472
56.220 11.971918
56.225 11.980709
56.230 12.098767
56.235 12.914864
56.240 13.078161
56.245 12.619289
56.250 12.33322
56.255 12.354779
56.260 12.785778
56.265 13.145262
56.270 13.085533
56.275 13.081781
56.280 13.369663
56.285 13.649902
56.290 13.787384
56.295 13.672685
56.300 13.522168
56.305 13.531733
56.310 13.505922
56.315 13.386037
56.320 12.903657
56.325 12.608332
56.330 12.790065
56.335 12.928192
56.340 13.075152
56.345 12.994143
56.350 12.32045
56.355 12.626062
56.360 12.421535
56.365 11.733847
56.370 11.012788
56.375 10.855941
56.380 10.873334
56.385 11.428285
56.390 11.126364
56.395 11.340572
56.400 11.591999
56.405 11.322353
56.410 11.304793
56.415 11.828714
56.420 12.19193
56.425 12.273837
56.430 12.466392
56.435 12.41689
56.440 12.187484
56.445 12.059531
56.450 11.195857
56.455 10.829765
56.460 10.758264
56.465 10.655401
56.470 10.611423
56.475 11.044851
56.480 11.407943
56.485 11.95088
56.490 12.292879
56.495 12.799199
56.500 12.927011
56.505 13.126318
56.510 13.226266
56.515 12.783088
56.520 12.498837
56.525 11.983674
56.530 11.280618
56.535 10.680618
56.540 10.443036
56.545 9.998659
56.550 10.347328
56.555 10.132773
56.560 9.846281
56.565 10.057801
56.570 10.180971
56.575 10.353906
56.580 10.650528
56.585 11.094511
56.590 11.437351
56.595 12.049175
56.600 12.153646
56.605 12.8947
56.610 13.212764
56.615 13.464063
56.620 13.082447
56.625 13.413236
56.630 13.205175
56.635 13.059431
56.640 12.808416
56.645 12.792406
56.650 12.296925
56.655 12.189456
56.660 11.864285
56.665 11.987117
56.670 12.468394
56.675 12.721096
56.680 12.860621
56.685 12.960261
56.690 13.046407
56.695 13.291669
56.700 13.349951
56.705 13.003163
56.710 13.17372
56.715 13.269246
56.720 13.45074
56.725 13.636051
56.730 13.46115
56.735 13.106896
56.740 12.783752
56.745 12.855681
56.750 12.74803
56.755 12.67784
56.760 12.741748
56.765 13.406857
56.770 13.709386
56.775 13.887635
56.780 13.858453
56.785 14.231702
56.790 14.274822
56.795 13.952461
56.800 13.315619
56.805 13.677188
56.810 13.616452
56.815 13.399783
56.820 13.105781
56.825 13.146438
56.830 13.700932
56.835 14.650243
56.840 15.096717
56.845 15.101442
56.850 15.046165
56.855 14.87212
56.860 14.751887
56.865 14.206947
56.870 13.254046
56.875 12.801344
56.880 12.66923
56.885 12.221521
56.890 12.349518
56.895 12.71859
56.900 12.972385
56.905 12.848584
56.910 12.317539
56.915 12.27463
56.920 12.514685
56.925 12.44223
56.930 12.302825
56.935 12.235473
56.940 12.350899
56.945 13.144854
56.950 13.553225
56.955 13.7432
56.960 13.506664
56.965 13.677745
56.970 13.806852
56.975 14.401601
56.980 13.854196
56.985 13.994287
56.990 14.114218
56.995 14.105916
57.000 13.74116
57.005 13.400889
57.010 12.943781
57.015 13.000989
57.020 12.897018
57.025 12.974231
57.030 12.986199
57.035 13.002577
57.040 12.661538
57.045 12.79407
57.050 13.085014
57.055 12.968945
57.060 12.733815
57.065 12.810585
57.070 13.068344
57.075 13.416419
57.080 13.489639
57.085 13.678369
57.090 14.208321
57.095 14.584903
57.100 14.377333
57.105 14.668096
57.110 14.596631
57.115 14.74705
57.120 14.808192
57.125 14.486653
57.130 13.926004
57.135 13.60389
57.140 13.391061
57.145 13.387234
57.150 12.719625
57.155 12.035774
57.160 12.435337
57.165 12.836905
57.170 13.028975
57.175 12.793654
57.180 12.853962
57.185 12.868666
57.190 12.786484
57.195 12.648018
57.200 13.176143
57.205 13.370443
57.210 13.566699
57.215 13.272687
57.220 13.561295
57.225 13.716864
57.230 13.456634
57.235 12.923684
57.240 12.842965
57.245 13.310894
57.250 13.336813
57.255 13.726035
57.260 14.1084
57.265 14.202493
57.270 14.341352
57.275 14.201391
57.280 14.00661
57.285 14.308068
57.290 13.98923
57.295 14.048691
57.300 14.552058
57.305 14.622555
57.310 14.959838
57.315 15.472746
57.320 15.996081
57.325 16.065451
57.330 15.753237
57.335 15.734924
57.340 15.939964
57.345 15.763136
57.350 15.161155
57.355 14.668183
57.360 14.694734
57.365 14.531996
57.370 14.004103
57.375 13.865226
57.380 13.735555
57.385 13.757493
57.390 13.3168
57.395 13.574581
57.400 13.728375
57.405 14.18924
57.410 14.669641
57.415 14.816903
57.420 15.046146
57.425 15.285037
57.430 14.935541
57.435 14.86863
57.440 14.905343
57.445 14.671537
57.450 14.91004
57.455 14.785089
57.460 14.6185
57.465 14.957071
57.470 15.064313
57.475 14.58643
57.480 14.472885
57.485 14.429744
57.490 14.375771
57.495 14.221124
57.500 13.743787
57.505 13.486794
57.510 13.723652
57.515 13.866581
57.520 13.723781
57.525 13.49707
57.530 13.769876
57.535 14.055195
57.540 14.064329
57.545 14.230412
57.550 14.223366
57.555 14.489436
57.560 14.886403
57.565 14.712389
57.570 14.564178
57.575 14.796978
57.580 14.750234
57.585 14.745743
57.590 14.828803
57.595 14.67771
57.600 14.475298
57.605 14.269155
57.610 13.917521
57.615 13.813861
57.620 13.61966
57.625 13.907459
57.630 14.499899
57.635 14.769052
57.640 14.804668
57.645 14.7915
57.650 14.676411
57.655 14.690801
57.660 14.158908
57.665 13.569786
57.670 13.748625
57.675 14.033015
57.680 14.065639
57.685 14.154584
57.690 13.908117
57.695 13.186052
57.700 12.691519
57.705 12.594017
57.710 11.673903
57.715 11.778867
57.720 12.031343
57.725 12.282297
57.730 12.816556
57.735 13.256886
57.740 13.332636
57.745 13.489091
57.750 13.370131
57.755 12.953703
57.760 12.844812
57.765 12.912905
57.770 12.477829
57.775 12.283486
57.780 12.953242
57.785 12.853484
57.790 12.775925
57.795 13.221037
57.800 13.493701
57.805 14.09808
57.810 14.129456
57.815 14.174129
57.820 14.927123
57.825 15.648485
57.830 15.169234
57.835 14.759085
57.840 14.809897
57.845 14.652624
57.850 14.2578
57.855 13.420113
57.860 12.807691
57.865 13.001528
57.870 13.034732
57.875 12.980449
57.880 13.250381
57.885 13.617615
57.890 13.694732
57.895 13.964515
57.900 13.941195
57.905 14.134453
57.910 14.070492
57.915 14.148859
57.920 13.607767
57.925 13.57515
57.930 13.87755
57.935 14.071596
57.940 14.26864
57.945 14.14408
57.950 14.549997
57.955 14.855617
57.960 14.601234
57.965 14.140309
57.970 14.499867
57.975 14.630197
57.980 14.483532
57.985 14.460543
57.990 14.619411
57.995 14.685245
58.000 14.589022
58.005 14.387933
58.010 14.503287
58.015 14.765761
58.020 14.671946
58.025 14.463243
58.030 14.424467
58.035 14.84547
58.040 14.770922
58.045 14.886312
58.050 15.315892
58.055 15.544093
58.060 15.41877
58.065 15.438576
58.070 15.344213
58.075 15.05309
58.080 14.640973
58.085 13.728978
58.090 13.508657
58.095 13.837306
58.100 14.020775
58.105 13.833723
58.110 13.771754
58.115 13.691533
58.120 13.766338
58.125 13.734875
58.130 13.884378
58.135 14.125744
58.140 13.792604
58.145 13.574964
58.150 13.539292
58.155 13.119198
58.160 12.866895
58.165 12.264528
58.170 11.837646
58.175 12.176688
58.180 12.410921
58.185 12.195604
58.190 12.711938
58.195 13.042313
58.200 13.638844
58.205 14.321124
58.210 14.46157
58.215 14.79559
58.220 15.561769
58.225 15.620871
58.230 15.451253
58.235 15.064765
58.240 14.564836
58.245 14.183455
58.250 13.9731
58.255 13.636169
58.260 13.603651
58.265 13.607728
58.270 13.548601
58.275 13.831029
58.280 13.727165
58.285 13.489813
58.290 13.14959
58.295 13.093691
58.300 13.401827
58.305 13.616545
58.310 13.637854
58.315 13.544222
58.320 13.628044
58.325 14.252388
58.330 14.603222
58.335 14.26581
58.340 13.985792
58.345 13.590397
58.350 13.89249
58.355 13.77898
58.360 12.915059
58.365 12.791177
58.370 13.135905
58.375 13.30181
58.380 13.478835
58.385 13.925217
58.390 14.203458
58.395 14.813346
58.400 14.791724
58.405 14.745545
58.410 14.879004
58.415 14.963466
58.420 14.236099
58.425 14.486708
58.430 14.291335
58.435 14.133934
58.440 14.428165
58.445 14.484784
58.450 14.639038
58.455 15.237937
58.460 15.058113
58.465 15.082478
58.470 15.282751
58.475 14.876418
58.480 14.629343
58.485 14.497573
58.490 14.326992
58.495 14.631309
58.500 15.041224
58.505 15.132885
58.510 15.190553
58.515 15.698672
58.520 15.169001
58.525 14.789352
