!@!!GADDS PLOTSO FILE: Chi integration type
!@!!Title/SampleName: map-18b
!@!!Comment: ?
!@!!User: Bruker Instrument Administrator
!@!!Site: University of Illinois Chicago
!@!!Frame: map-18b_01_000.gfrm
!@!!Wavelengths    1.54184   1.54056   1.54439
!@!!Frame angles: 2Theta: 63.000 Omega: 50.000 Phi: 0.000 Chi: 90.000
!@!!Integration range: 2Theta: 53.000 to 73.000  Gamma: -105.000 to -75.000
!@!!Integration method: bin normalized
!@!N
!@!SS
!@!M
!@!L 0.0 0.0 0.0 0.0
!@!XDegrees
!@!YCounts
53.000 9.793955
53.005 9.916441
53.010 9.669398
53.015 9.601161
53.020 9.576388
53.025 9.444609
53.030 9.513873
53.035 9.326559
53.040 9.342779
53.045 9.384018
53.050 9.325122
53.055 9.659361
53.060 9.786211
53.065 9.671408
53.070 9.553963
53.075 9.441685
53.080 9.16401
53.085 8.834484
53.090 8.50301
53.095 8.746435
53.100 8.720866
53.105 9.349032
53.110 9.715508
53.115 10.013167
53.120 9.817006
53.125 9.405548
53.130 9.180957
53.135 9.209073
53.140 8.506977
53.145 8.007157
53.150 7.918072
53.155 8.386863
53.160 8.635302
53.165 9.13861
53.170 9.354372
53.175 9.947311
53.180 10.489051
53.185 10.492661
53.190 10.245116
53.195 9.980331
53.200 9.481203
53.205 9.282043
53.210 9.222172
53.215 9.189879
53.220 9.376526
53.225 9.526723
53.230 9.655451
53.235 9.539358
53.240 9.098643
53.245 8.700683
53.250 8.509645
53.255 8.508972
53.260 8.874878
53.265 8.972189
53.270 9.148682
53.275 9.330409
53.280 9.708199
53.285 9.61806
53.290 9.204394
53.295 8.729149
53.300 8.640689
53.305 8.797883
53.310 8.71264
53.315 8.568411
53.320 8.973691
53.325 9.21435
53.330 9.615449
53.335 10.3377
53.340 10.006028
53.345 10.063355
53.350 10.333591
53.355 10.504224
53.360 10.452919
53.365 10.239325
53.370 10.00247
53.375 9.830359
53.380 9.569582
53.385 8.755415
53.390 8.145248
53.395 8.37558
53.400 7.809485
53.405 7.865366
53.410 8.152493
53.415 8.307774
53.420 8.977818
53.425 9.376258
53.430 9.018689
53.435 9.029599
53.440 9.038519
53.445 9.335036
53.450 9.803793
53.455 9.482348
53.460 9.308249
53.465 9.782128
53.470 9.802757
53.475 10.234378
53.480 9.641396
53.485 9.083997
53.490 8.985743
53.495 9.137769
53.500 9.55007
53.505 9.143355
53.510 8.791647
53.515 9.254859
53.520 9.565147
53.525 10.016198
53.530 9.900309
53.535 9.390862
53.540 9.683161
53.545 9.395452
53.550 9.249055
53.555 8.956795
53.560 8.44179
53.565 8.302711
53.570 8.341548
53.575 8.371633
53.580 8.45847
53.585 8.192545
53.590 8.528805
53.595 8.592207
53.600 8.576052
53.605 8.746971
53.610 9.296064
53.615 10.065489
53.620 10.290635
53.625 10.511499
53.630 10.497924
53.635 10.595452
53.640 10.610362
53.645 10.227878
53.650 9.649561
53.655 9.666539
53.660 9.825714
53.665 9.764115
53.670 9.918656
53.675 9.895303
53.680 10.154329
53.685 10.241616
53.690 9.676796
53.695 9.625417
53.700 10.106447
53.705 10.391322
53.710 10.552013
53.715 10.514947
53.720 10.629368
53.725 10.660665
53.730 10.780871
53.735 10.734295
53.740 10.144188
53.745 9.405938
53.750 9.617137
53.755 9.821969
53.760 9.509474
53.765 9.457265
53.770 9.195909
53.775 9.564973
53.780 10.060396
53.785 10.514775
53.790 11.020883
53.795 11.317881
53.800 11.336555
53.805 12.056505
53.810 12.065708
53.815 11.611241
53.820 10.846353
53.825 10.630481
53.830 10.395423
53.835 10.219619
53.840 9.715381
53.845 10.037745
53.850 10.091883
53.855 10.045703
53.860 9.905319
53.865 9.840835
53.870 9.898009
53.875 9.993343
53.880 9.860287
53.885 10.382052
53.890 10.37997
53.895 10.804127
53.900 10.854161
53.905 10.470203
53.910 10.224148
53.915 9.732598
53.920 9.340384
53.925 9.134649
53.930 8.905338
53.935 8.826357
53.940 8.803267
53.945 8.786072
53.950 9.244293
53.955 9.304863
53.960 9.097348
53.965 9.548265
53.970 9.73709
53.975 9.863516
53.980 9.430581
53.985 8.998525
53.990 9.378907
53.995 9.403663
54.000 8.625953
54.005 8.255236
54.010 8.435088
54.015 9.057775
54.020 9.079788
54.025 8.891636
54.030 9.198584
54.035 9.412813
54.040 9.554307
54.045 9.387923
54.050 9.323458
54.055 9.115127
54.060 8.766044
54.065 8.825165
54.070 9.181403
54.075 9.233907
54.080 9.005424
54.085 9.038062
54.090 9.730966
54.095 10.044944
54.100 9.925321
54.105 9.538162
54.110 9.717717
54.115 9.940494
54.120 9.873323
54.125 9.994628
54.130 9.967489
54.135 9.837745
54.140 10.269047
54.145 10.349782
54.150 10.446357
54.155 10.441368
54.160 9.9537
54.165 9.771436
54.170 9.642655
54.175 9.144965
54.180 9.106874
54.185 8.774317
54.190 8.656868
54.195 8.853477
54.200 8.834404
54.205 8.913568
54.210 8.558696
54.215 8.292798
54.220 8.330138
54.225 8.095784
54.230 8.403853
54.235 8.728436
54.240 8.989558
54.245 9.149352
54.250 9.116647
54.255 9.20514
54.260 9.072059
54.265 8.717327
54.270 8.824382
54.275 8.965996
54.280 9.182045
54.285 9.248673
54.290 9.057321
54.295 9.132576
54.300 9.125646
54.305 9.266202
54.310 9.199162
54.315 9.722032
54.320 10.233335
54.325 10.645343
54.330 10.604506
54.335 10.382455
54.340 10.680545
54.345 10.389984
54.350 9.858584
54.355 9.666445
54.360 9.386024
54.365 9.036223
54.370 9.0433
54.375 8.661775
54.380 8.526276
54.385 8.433895
54.390 7.923312
54.395 8.310591
54.400 9.032453
54.405 9.303562
54.410 9.577407
54.415 9.385331
54.420 9.621945
54.425 9.877995
54.430 9.669502
54.435 9.622076
54.440 9.200686
54.445 9.235476
54.450 9.87184
54.455 9.810331
54.460 9.738837
54.465 9.865049
54.470 9.632496
54.475 9.860456
54.480 10.015693
54.485 9.717849
54.490 10.200014
54.495 10.3897
54.500 10.190401
54.505 9.768681
54.510 9.193493
54.515 9.057986
54.520 9.341898
54.525 9.375459
54.530 9.248804
54.535 9.129416
54.540 9.373245
54.545 10.008262
54.550 10.072507
54.555 9.628855
54.560 9.303967
54.565 9.416708
54.570 9.612803
54.575 9.34077
54.580 9.052896
54.585 9.068335
54.590 9.315829
54.595 9.570273
54.600 9.756633
54.605 9.570136
54.610 9.988246
54.615 10.065495
54.620 9.979115
54.625 10.271958
54.630 10.364146
54.635 10.303592
54.640 10.03649
54.645 9.470891
54.650 9.445159
54.655 9.17867
54.660 8.820612
54.665 8.659546
54.670 9.111586
54.675 9.439224
54.680 9.677205
54.685 9.85871
54.690 9.847273
54.695 9.415924
54.700 9.003267
54.705 8.98734
54.710 9.480849
54.715 9.947905
54.720 10.332317
54.725 10.416958
54.730 10.461652
54.735 10.644152
54.740 10.380296
54.745 10.089266
54.750 9.724869
54.755 9.298029
54.760 9.653563
54.765 10.231505
54.770 10.410843
54.775 10.889789
54.780 10.909951
54.785 10.83318
54.790 10.539831
54.795 10.108984
54.800 10.193522
54.805 10.439095
54.810 9.958179
54.815 9.988117
54.820 9.580199
54.825 9.924184
54.830 10.010829
54.835 9.912225
54.840 10.045071
54.845 10.229406
54.850 9.925371
54.855 10.133141
54.860 9.82908
54.865 9.476599
54.870 9.31845
54.875 9.297718
54.880 9.634368
54.885 9.976469
54.890 10.089231
54.895 10.032022
54.900 10.018782
54.905 9.729129
54.910 9.614965
54.915 9.984311
54.920 10.266718
54.925 10.280421
54.930 10.716848
54.935 10.829366
54.940 11.0034
54.945 11.01827
54.950 10.636462
54.955 10.536458
54.960 10.811377
54.965 11.120652
54.970 11.244927
54.975 10.828478
54.980 10.655811
54.985 10.898802
54.990 11.153525
54.995 10.72764
55.000 10.418238
55.005 10.317348
55.010 10.743148
55.015 10.548673
55.020 10.350311
55.025 10.44313
55.030 10.302961
55.035 10.185214
55.040 10.005438
55.045 9.650876
55.050 9.956696
55.055 9.691113
55.060 9.678073
55.065 9.694308
55.070 9.449207
55.075 9.511957
55.080 9.623936
55.085 9.718269
55.090 9.803416
55.095 9.764665
55.100 9.543001
55.105 9.637045
55.110 9.531626
55.115 9.443232
55.120 9.096722
55.125 9.160341
55.130 9.434774
55.135 10.168382
55.140 10.390915
55.145 10.432224
55.150 10.076928
55.155 10.099316
55.160 9.841062
55.165 9.734317
55.170 9.839121
55.175 9.726332
55.180 9.849396
55.185 9.947075
55.190 10.208216
55.195 10.400482
55.200 10.622549
55.205 10.688605
55.210 10.65504
55.215 10.993857
55.220 10.768299
55.225 10.088561
55.230 10.235047
55.235 9.947238
55.240 9.980842
55.245 9.558997
55.250 9.04086
55.255 9.776818
55.260 10.291034
55.265 9.983365
55.270 9.922983
55.275 9.832814
55.280 10.015841
55.285 10.194123
55.290 10.073476
55.295 10.045402
55.300 10.176179
55.305 10.345905
55.310 10.605748
55.315 10.782625
55.320 11.20072
55.325 11.106652
55.330 10.880569
55.335 10.304435
55.340 10.190825
55.345 9.864697
55.350 9.596176
55.355 8.857352
55.360 8.964494
55.365 9.422491
55.370 10.126369
55.375 10.040746
55.380 10.061541
55.385 10.482865
55.390 10.431788
55.395 10.174647
55.400 9.879884
55.405 9.40061
55.410 9.632053
55.415 9.555199
55.420 9.282622
55.425 9.658182
55.430 9.523838
55.435 9.82643
55.440 9.995626
55.445 9.714621
55.450 9.76
55.455 10.183067
55.460 10.18453
55.465 10.399718
55.470 9.836548
55.475 9.703849
55.480 9.513113
55.485 9.309618
55.490 8.886493
55.495 9.046765
55.500 8.75299
55.505 9.162674
55.510 9.304022
55.515 9.288821
55.520 9.359897
55.525 9.566648
55.530 9.525675
55.535 9.702512
55.540 9.325542
55.545 9.390602
55.550 9.587133
55.555 9.852821
55.560 9.785338
55.565 9.637975
55.570 9.471469
55.575 9.117366
55.580 9.337245
55.585 9.258555
55.590 8.912927
55.595 8.848933
55.600 8.861012
55.605 8.657091
55.610 8.704674
55.615 8.399279
55.620 8.23734
55.625 8.007537
55.630 8.083334
55.635 8.83555
55.640 9.355147
55.645 9.528918
55.650 9.940377
55.655 10.145622
55.660 10.095779
55.665 9.623367
55.670 9.278537
55.675 9.368153
55.680 9.61631
55.685 9.855165
55.690 10.27439
55.695 10.706836
55.700 10.641314
55.705 10.53473
55.710 10.478853
55.715 10.280901
55.720 9.834406
55.725 9.44135
55.730 9.230217
55.735 8.974365
55.740 8.814526
55.745 8.709959
55.750 9.023796
55.755 9.230216
55.760 9.408391
55.765 10.037872
55.770 10.705966
55.775 10.360679
55.780 10.467394
55.785 10.705517
55.790 10.615283
55.795 10.501798
55.800 9.938264
55.805 9.457223
55.810 9.596653
55.815 9.329563
55.820 9.359408
55.825 9.723927
55.830 9.511131
55.835 9.629975
55.840 10.313085
55.845 10.79202
55.850 10.849879
55.855 10.248322
55.860 10.14326
55.865 10.346115
55.870 10.714899
55.875 10.842797
55.880 10.72502
55.885 10.973323
55.890 10.568506
55.895 10.010908
55.900 9.706097
55.905 9.173374
55.910 9.269322
55.915 9.39218
55.920 9.553379
55.925 9.940876
55.930 10.648395
55.935 11.076383
55.940 10.873592
55.945 10.105052
55.950 9.779683
55.955 9.603838
55.960 9.601551
55.965 9.455814
55.970 9.647307
55.975 9.680908
55.980 9.687795
55.985 9.375899
55.990 9.300749
55.995 9.120697
56.000 8.723186
56.005 8.595604
56.010 8.616223
56.015 8.644602
56.020 8.395965
56.025 8.3278
56.030 8.849888
56.035 8.83119
56.040 8.830388
56.045 8.941822
56.050 9.401957
56.055 9.885654
56.060 9.984845
56.065 9.501615
56.070 10.049144
56.075 9.974581
56.080 10.274666
56.085 10.302557
56.090 10.298626
56.095 9.966259
56.100 9.670659
56.105 9.333313
56.110 9.541361
56.115 9.410898
56.120 9.374164
56.125 9.570596
56.130 9.948503
56.135 10.497145
56.140 10.566195
56.145 10.500941
56.150 10.214385
56.155 9.9022
56.160 9.875301
56.165 10.022992
56.170 10.029051
56.175 10.06854
56.180 10.063791
56.185 9.996246
56.190 10.067015
56.195 9.91411
56.200 9.789642
56.205 9.672796
56.210 9.790375
56.215 9.810508
56.220 9.811378
56.225 9.685221
56.230 9.537668
56.235 9.206828
56.240 9.049644
56.245 8.916874
56.250 9.15447
56.255 9.575397
56.260 9.44304
56.265 9.333883
56.270 9.464971
56.275 9.502428
56.280 9.372491
56.285 9.64153
56.290 9.756589
56.295 10.01815
56.300 10.739377
56.305 11.068975
56.310 10.893931
56.315 11.190236
56.320 10.404623
56.325 9.984751
56.330 10.046789
56.335 9.83612
56.340 9.893554
56.345 10.193683
56.350 10.134986
56.355 10.342249
56.360 10.39242
56.365 10.42281
56.370 10.237341
56.375 10.557615
56.380 10.818848
56.385 10.882147
56.390 10.936776
56.395 11.244167
56.400 11.015584
56.405 10.863628
56.410 10.936835
56.415 10.767991
56.420 10.854994
56.425 11.067517
56.430 11.216914
56.435 11.305551
56.440 11.395669
56.445 10.744048
56.450 10.297018
56.455 11.039399
56.460 11.142065
56.465 10.969755
56.470 11.424386
56.475 11.679536
56.480 12.541013
56.485 12.910755
56.490 12.802669
56.495 13.032145
56.500 12.929009
56.505 12.933555
56.510 12.511578
56.515 12.227564
56.520 12.16422
56.525 11.714573
56.530 12.108795
56.535 12.336906
56.540 12.207142
56.545 12.614587
56.550 12.65407
56.555 12.833782
56.560 13.043213
56.565 12.459224
56.570 12.634872
56.575 12.946926
56.580 12.970804
56.585 13.349313
56.590 13.266262
56.595 12.78568
56.600 13.016398
56.605 12.939198
56.610 12.486309
56.615 12.181753
56.620 12.19394
56.625 12.239405
56.630 12.392731
56.635 11.992536
56.640 11.908982
56.645 12.028329
56.650 12.004499
56.655 11.748832
56.660 11.418395
56.665 11.30868
56.670 10.99254
56.675 10.973211
56.680 10.835922
56.685 10.787271
56.690 10.736733
56.695 10.373069
56.700 10.349058
56.705 10.513762
56.710 10.057179
56.715 9.68792
56.720 9.640337
56.725 9.370546
56.730 9.420749
56.735 9.520686
56.740 9.18586
56.745 9.255274
56.750 9.176053
56.755 9.458353
56.760 9.525385
56.765 9.677638
56.770 9.721834
56.775 9.771773
56.780 9.868846
56.785 10.023601
56.790 9.990574
56.795 10.066155
56.800 9.685027
56.805 9.531179
56.810 9.887324
56.815 9.926732
56.820 10.207254
56.825 9.980129
56.830 10.288037
56.835 10.479092
56.840 10.243803
56.845 10.224441
56.850 10.143587
56.855 9.519677
56.860 9.350983
56.865 9.241769
56.870 9.505327
56.875 9.517019
56.880 9.604929
56.885 9.815408
56.890 10.30624
56.895 10.44431
56.900 10.484578
56.905 10.482228
56.910 10.318913
56.915 10.118111
56.920 10.255806
56.925 10.309093
56.930 10.277069
56.935 10.04614
56.940 9.993626
56.945 10.179342
56.950 9.879266
56.955 9.684929
56.960 9.450404
56.965 9.256452
56.970 9.197214
56.975 9.296806
56.980 9.29318
56.985 9.2793
56.990 9.450826
56.995 9.784338
57.000 9.695344
57.005 9.479223
57.010 9.169079
57.015 9.112403
57.020 8.905173
57.025 8.639749
57.030 8.609141
57.035 8.679832
57.040 8.908294
57.045 9.055305
57.050 8.969168
57.055 9.402978
57.060 9.611282
57.065 9.625494
57.070 9.745502
57.075 9.672959
57.080 9.93928
57.085 10.11082
57.090 9.786594
57.095 9.569528
57.100 9.909712
57.105 10.166561
57.110 10.204475
57.115 10.569987
57.120 10.427807
57.125 10.625175
57.130 10.313787
57.135 9.696722
57.140 9.407338
57.145 9.326061
57.150 8.680644
57.155 8.567928
57.160 8.101884
57.165 8.17188
57.170 8.423506
57.175 8.585911
57.180 8.614651
57.185 8.599043
57.190 9.138074
57.195 9.47947
57.200 9.813837
57.205 9.81415
57.210 9.590584
57.215 9.293044
57.220 9.428126
57.225 9.15668
57.230 9.076636
57.235 8.581718
57.240 8.222395
57.245 8.296968
57.250 8.532475
57.255 8.530296
57.260 8.340562
57.265 8.55508
57.270 9.166349
57.275 9.570329
57.280 9.760294
57.285 10.025673
57.290 10.536398
57.295 10.679405
57.300 10.493334
57.305 10.663652
57.310 10.574843
57.315 10.713932
57.320 10.4552
57.325 10.081452
57.330 9.901456
57.335 9.811605
57.340 9.521015
57.345 9.452467
57.350 9.30115
57.355 9.557698
57.360 9.636989
57.365 9.655847
57.370 9.469841
57.375 9.42058
57.380 9.817971
57.385 9.488964
57.390 9.445853
57.395 9.647388
57.400 10.023449
57.405 10.790199
57.410 11.055881
57.415 10.302685
57.420 10.233562
57.425 10.080664
57.430 10.091371
57.435 9.66275
57.440 8.860326
57.445 8.711517
57.450 8.83991
57.455 8.871798
57.460 9.16312
57.465 9.354805
57.470 9.667496
57.475 10.097508
57.480 10.271984
57.485 10.357357
57.490 10.466407
57.495 10.311792
57.500 10.40862
57.505 10.312673
57.510 9.911158
57.515 9.747128
57.520 10.06805
57.525 10.094991
57.530 9.668718
57.535 9.286942
57.540 9.564483
57.545 9.774174
57.550 9.611394
57.555 9.151188
57.560 9.300274
57.565 9.581326
57.570 9.532533
57.575 9.369582
57.580 9.832927
57.585 10.104023
57.590 10.528074
57.595 10.534223
57.600 10.624444
57.605 10.921786
57.610 10.90741
57.615 10.464424
57.620 10.328954
57.625 10.791306
57.630 10.365284
57.635 10.152003
57.640 9.94569
57.645 9.709734
57.650 9.760432
57.655 9.752564
57.660 8.574832
57.665 8.656233
57.670 8.717813
57.675 8.932812
57.680 8.983043
57.685 9.064075
57.690 8.991663
57.695 9.146198
57.700 9.289704
57.705 8.875523
57.710 8.579519
57.715 8.416448
57.720 8.450755
57.725 8.562361
57.730 8.962
57.735 9.220346
57.740 9.835006
57.745 10.082534
57.750 10.199861
57.755 9.953437
57.760 9.803913
57.765 10.242902
57.770 10.254951
57.775 9.963378
57.780 9.8958
57.785 9.814282
57.790 10.273471
57.795 10.937988
57.800 10.457062
57.805 10.074736
57.810 10.006569
57.815 10.21473
57.820 10.464238
57.825 10.10429
57.830 9.453892
57.835 9.478903
57.840 9.383642
57.845 9.139314
57.850 9.083101
57.855 8.949582
57.860 8.832766
57.865 8.88458
57.870 9.176711
57.875 9.376184
57.880 9.464607
57.885 9.121023
57.890 9.228889
57.895 9.522032
57.900 9.557344
57.905 9.730503
57.910 10.126455
57.915 10.256533
57.920 10.208977
57.925 10.310876
57.930 10.425279
57.935 10.310427
57.940 9.813024
57.945 9.684344
57.950 9.721507
57.955 9.727688
57.960 9.442038
57.965 9.2969
57.970 9.278496
57.975 9.289936
57.980 9.419501
57.985 9.435398
57.990 9.538873
57.995 9.631863
58.000 9.748823
58.005 9.741782
58.010 9.521978
58.015 9.42877
58.020 9.447147
58.025 9.526405
58.030 9.76602
58.035 9.453973
58.040 9.697676
58.045 10.002713
58.050 10.296738
58.055 10.433761
58.060 10.337431
58.065 10.524062
58.070 10.844541
58.075 10.538679
58.080 9.800351
58.085 9.127027
58.090 8.970874
58.095 8.827985
58.100 8.529248
58.105 8.549432
58.110 9.009186
58.115 9.551858
58.120 9.635347
58.125 9.843924
58.130 9.765805
58.135 9.549468
58.140 9.644228
58.145 10.11019
58.150 10.167208
58.155 10.094351
58.160 10.040368
58.165 10.433229
58.170 10.527672
58.175 10.11777
58.180 9.256635
58.185 9.355712
58.190 9.439492
58.195 9.06302
58.200 8.609057
58.205 8.44037
58.210 8.380687
58.215 8.399225
58.220 8.363007
58.225 8.605474
58.230 8.794467
58.235 9.201928
58.240 9.477256
58.245 9.714506
58.250 9.852236
58.255 10.260347
58.260 10.841041
58.265 11.129414
58.270 11.171329
58.275 10.745146
58.280 10.757286
58.285 10.34164
58.290 9.797798
58.295 9.720766
58.300 9.553521
58.305 9.371918
58.310 9.232399
58.315 9.275931
58.320 9.52052
58.325 9.396762
58.330 8.95645
58.335 9.146679
58.340 9.335301
58.345 9.627785
58.350 9.447166
58.355 9.280609
58.360 8.886388
58.365 8.921696
58.370 8.709886
58.375 8.899656
58.380 9.076142
58.385 9.391409
58.390 9.19446
58.395 9.835158
58.400 9.937049
58.405 10.183069
58.410 10.11265
58.415 9.868211
58.420 9.6783
58.425 9.856174
58.430 9.595311
58.435 9.266031
58.440 8.939186
58.445 8.641275
58.450 8.530008
58.455 9.008159
58.460 9.049867
58.465 8.86494
58.470 9.19842
58.475 9.589445
58.480 10.243587
58.485 10.310126
58.490 10.393319
58.495 11.356527
58.500 12.051138
58.505 12.034374
58.510 11.718282
58.515 11.335027
58.520 11.491528
58.525 11.118182
58.530 10.189596
58.535 10.260306
58.540 10.407162
58.545 10.98608
58.550 11.535158
58.555 11.684157
58.560 12.188307
58.565 12.166295
58.570 11.92765
58.575 11.649741
58.580 10.957277
58.585 10.660056
58.590 11.02162
58.595 10.744166
58.600 10.61618
58.605 10.574629
58.610 10.281737
58.615 10.331691
58.620 10.016651
58.625 9.421465
58.630 9.422877
58.635 9.391669
58.640 9.451583
