!@!!GADDS PLOTSO FILE: Chi integration type
!@!!Title/SampleName: map-de
!@!!Comment: ?
!@!!User: Bruker Instrument Administrator
!@!!Site: University of Illinois Chicago
!@!!Frame: map-de_01_000.gfrm
!@!!Wavelengths    1.54184   1.54056   1.54439
!@!!Frame angles: 2Theta: 63.000 Omega: 50.000 Phi: 0.000 Chi: 90.000
!@!!Integration range: 2Theta: 53.000 to 73.000  Gamma: -105.000 to -75.000
!@!!Integration method: bin normalized
!@!N
!@!SS
!@!M
!@!L 0.0 0.0 0.0 0.0
!@!XDegrees
!@!YCounts
53.000 6.288645
53.005 6.000828
53.010 6.026277
53.015 6.045081
53.020 5.61376
53.025 5.376929
53.030 5.470659
53.035 5.587497
53.040 5.584303
53.045 5.53162
53.050 5.468648
53.055 5.94153
53.060 6.076671
53.065 6.002071
53.070 6.258372
53.075 6.646683
53.080 6.661885
53.085 6.613419
53.090 6.41383
53.095 6.63379
53.100 6.512033
53.105 6.179471
53.110 6.126107
53.115 6.55633
53.120 7.028381
53.125 7.345671
53.130 7.692197
53.135 7.924289
53.140 7.775182
53.145 7.536295
53.150 7.45751
53.155 7.130135
53.160 6.716617
53.165 6.370029
53.170 6.191332
53.175 6.420453
53.180 6.559385
53.185 6.820971
53.190 7.172765
53.195 7.003735
53.200 6.968296
53.205 7.247628
53.210 7.064355
53.215 6.836358
53.220 6.48286
53.225 6.244773
53.230 6.134002
53.235 6.147432
53.240 6.371214
53.245 6.716846
53.250 6.506999
53.255 6.6372
53.260 6.697824
53.265 6.842429
53.270 6.665393
53.275 6.461767
53.280 6.432342
53.285 6.442057
53.290 6.242467
53.295 6.295857
53.300 6.110838
53.305 5.892564
53.310 5.39755
53.315 4.860731
53.320 4.797716
53.325 4.88389
53.330 5.252023
53.335 6.083578
53.340 7.006745
53.345 7.907176
53.350 8.544868
53.355 8.619144
53.360 8.883224
53.365 9.087029
53.370 8.477015
53.375 7.789783
53.380 7.34766
53.385 7.373884
53.390 7.217623
53.395 6.727397
53.400 6.270917
53.405 6.434604
53.410 6.521198
53.415 6.350952
53.420 6.149507
53.425 6.244178
53.430 6.297882
53.435 6.401139
53.440 6.462937
53.445 6.469279
53.450 6.558349
53.455 7.005594
53.460 7.377592
53.465 7.457621
53.470 7.451532
53.475 7.422355
53.480 8.010264
53.485 8.034865
53.490 7.798916
53.495 7.648053
53.500 7.857139
53.505 7.72843
53.510 7.475307
53.515 7.244217
53.520 7.394568
53.525 7.027883
53.530 6.571343
53.535 6.410569
53.540 6.908399
53.545 6.850289
53.550 6.801844
53.555 6.844922
53.560 6.899305
53.565 7.426487
53.570 7.206895
53.575 7.034926
53.580 7.477101
53.585 7.255588
53.590 6.771907
53.595 6.85669
53.600 6.96671
53.605 6.923016
53.610 6.787519
53.615 6.459497
53.620 6.871706
53.625 7.660117
53.630 7.643515
53.635 7.218898
53.640 7.184869
53.645 7.038372
53.650 7.081006
53.655 6.607533
53.660 6.461074
53.665 6.260926
53.670 6.253614
53.675 6.497379
53.680 6.436337
53.685 6.448187
53.690 6.715733
53.695 6.593168
53.700 6.582
53.705 6.414786
53.710 6.467359
53.715 7.101396
53.720 7.200107
53.725 7.299117
53.730 7.892751
53.735 8.363594
53.740 8.666077
53.745 8.688498
53.750 8.447325
53.755 8.380652
53.760 7.993794
53.765 7.923338
53.770 7.781195
53.775 7.62936
53.780 7.21681
53.785 7.209808
53.790 7.04879
53.795 6.942955
53.800 6.644282
53.805 6.818002
53.810 6.665247
53.815 6.986662
53.820 7.232529
53.825 7.994581
53.830 8.066201
53.835 7.925446
53.840 7.901913
53.845 7.841363
53.850 7.647755
53.855 7.23582
53.860 6.656276
53.865 6.636135
53.870 6.702191
53.875 6.669199
53.880 6.999684
53.885 7.219804
53.890 7.429621
53.895 7.896736
53.900 7.74869
53.905 7.873784
53.910 7.72962
53.915 7.841824
53.920 7.734146
53.925 7.60377
53.930 7.53399
53.935 7.198089
53.940 7.415783
53.945 7.60533
53.950 7.672123
53.955 7.609282
53.960 7.485205
53.965 7.481845
53.970 7.606043
53.975 7.464745
53.980 7.125634
53.985 6.882822
53.990 6.874918
53.995 7.269022
54.000 7.499501
54.005 7.897416
54.010 7.987677
54.015 7.834405
54.020 7.916932
54.025 8.155282
54.030 7.796741
54.035 7.513198
54.040 7.11428
54.045 6.876136
54.050 7.255398
54.055 6.816757
54.060 6.85164
54.065 6.663044
54.070 6.584524
54.075 6.860499
54.080 6.739804
54.085 6.823254
54.090 7.074306
54.095 7.248105
54.100 7.611698
54.105 7.941929
54.110 7.925981
54.115 8.077433
54.120 7.883731
54.125 7.636164
54.130 7.89097
54.135 8.05072
54.140 8.07917
54.145 8.261447
54.150 8.485113
54.155 8.613665
54.160 8.85441
54.165 8.448709
54.170 7.826263
54.175 7.562713
54.180 7.378877
54.185 7.384445
54.190 7.271988
54.195 7.005549
54.200 6.583967
54.205 6.472208
54.210 6.197339
54.215 5.837707
54.220 5.661237
54.225 6.081428
54.230 6.637594
54.235 7.394898
54.240 7.658416
54.245 7.804004
54.250 8.198134
54.255 8.26041
54.260 7.85563
54.265 7.414991
54.270 7.397599
54.275 7.534148
54.280 7.337985
54.285 7.54382
54.290 7.529136
54.295 7.327936
54.300 6.949621
54.305 6.929231
54.310 7.238019
54.315 7.54583
54.320 7.517067
54.325 7.525515
54.330 7.736694
54.335 7.937951
54.340 7.99719
54.345 8.407721
54.350 8.199415
54.355 8.312573
54.360 8.339635
54.365 8.551432
54.370 8.449752
54.375 8.434211
54.380 7.889205
54.385 7.525161
54.390 7.210252
54.395 7.063016
54.400 6.886254
54.405 6.938478
54.410 6.828497
54.415 6.8715
54.420 7.128371
54.425 7.118141
54.430 7.03094
54.435 7.081692
54.440 7.022618
54.445 7.211606
54.450 7.31467
54.455 7.083008
54.460 7.356025
54.465 7.654652
54.470 8.162538
54.475 8.634792
54.480 8.88807
54.485 8.946276
54.490 9.345357
54.495 9.336502
54.500 8.982322
54.505 8.16466
54.510 7.193487
54.515 7.064052
54.520 6.883691
54.525 6.658524
54.530 6.764101
54.535 7.139989
54.540 7.344879
54.545 7.747177
54.550 7.69824
54.555 7.84153
54.560 8.073765
54.565 8.371597
54.570 8.048737
54.575 7.67264
54.580 7.319714
54.585 7.757428
54.590 7.468388
54.595 7.253807
54.600 7.310591
54.605 7.677153
54.610 8.824513
54.615 8.798689
54.620 8.671893
54.625 8.647261
54.630 8.007174
54.635 7.804575
54.640 7.85912
54.645 7.595774
54.650 7.852642
54.655 8.233747
54.660 8.902435
54.665 9.43421
54.670 9.491854
54.675 8.821915
54.680 7.970521
54.685 7.766886
54.690 7.248676
54.695 7.033926
54.700 6.824133
54.705 6.925937
54.710 7.557396
54.715 7.872028
54.720 7.711757
54.725 7.758205
54.730 7.852435
54.735 7.957582
54.740 8.215079
54.745 8.186346
54.750 8.301039
54.755 8.324251
54.760 8.339278
54.765 8.349828
54.770 8.227403
54.775 8.207552
54.780 8.306626
54.785 8.323498
54.790 8.23974
54.795 8.468333
54.800 8.52458
54.805 8.697487
54.810 8.734111
54.815 8.967646
54.820 9.167607
54.825 9.605266
54.830 9.487197
54.835 9.484243
54.840 9.13342
54.845 9.111333
54.850 9.238613
54.855 9.297334
54.860 8.78726
54.865 8.712494
54.870 8.931085
54.875 9.437057
54.880 9.496462
54.885 9.183676
54.890 9.436875
54.895 9.603559
54.900 9.782089
54.905 9.707063
54.910 9.425181
54.915 9.503746
54.920 9.374626
54.925 9.076519
54.930 9.187326
54.935 8.825444
54.940 8.638191
54.945 8.625609
54.950 8.719873
54.955 8.531351
54.960 8.351703
54.965 8.291384
54.970 8.412543
54.975 8.375433
54.980 8.462643
54.985 8.595581
54.990 8.735342
54.995 8.837093
55.000 8.993588
55.005 9.051135
55.010 9.552332
55.015 9.327005
55.020 9.11648
55.025 9.277098
55.030 9.473515
55.035 9.328158
55.040 9.161994
55.045 8.557735
55.050 8.03852
55.055 8.071652
55.060 8.285174
55.065 8.092981
55.070 8.329342
55.075 8.335913
55.080 8.848314
55.085 9.021114
55.090 9.051137
55.095 8.938323
55.100 8.725437
55.105 8.480058
55.110 8.475441
55.115 8.375576
55.120 8.954718
55.125 9.052142
55.130 9.216545
55.135 9.475039
55.140 9.410632
55.145 9.167584
55.150 8.945237
55.155 8.501227
55.160 8.648516
55.165 8.348571
55.170 7.79664
55.175 7.858333
55.180 8.527415
55.185 8.957296
55.190 9.245049
55.195 9.06332
55.200 9.668558
55.205 10.231815
55.210 10.080668
55.215 9.942702
55.220 9.899081
55.225 9.801634
55.230 9.726278
55.235 9.264343
55.240 9.229405
55.245 9.420876
55.250 9.515395
55.255 9.15462
55.260 8.679776
55.265 8.499117
55.270 8.566054
55.275 8.862703
55.280 8.623569
55.285 8.191298
55.290 8.342679
55.295 8.562747
55.300 8.739469
55.305 8.559415
55.310 8.145587
55.315 8.121897
55.320 8.319711
55.325 8.555226
55.330 8.789175
55.335 9.153266
55.340 9.249493
55.345 9.394032
55.350 9.577334
55.355 9.455626
55.360 8.995249
55.365 8.581165
55.370 8.354115
55.375 8.479167
55.380 8.150151
55.385 7.796857
55.390 8.010513
55.395 9.151891
55.400 9.460516
55.405 9.601233
55.410 9.815152
55.415 10.346611
55.420 10.495868
55.425 10.44702
55.430 10.200471
55.435 10.409146
55.440 10.347413
55.445 10.315837
55.450 10.147952
55.455 10.091094
55.460 9.716141
55.465 9.984963
55.470 10.086605
55.475 10.455208
55.480 10.488145
55.485 10.576382
55.490 10.530456
55.495 10.312848
55.500 10.256318
55.505 10.218997
55.510 9.878757
55.515 9.930175
55.520 9.987696
55.525 9.790352
55.530 9.471601
55.535 8.882088
55.540 8.483744
55.545 8.645062
55.550 8.265444
55.555 8.521568
55.560 9.04655
55.565 9.524967
55.570 10.071083
55.575 10.394765
55.580 10.195407
55.585 10.402699
55.590 9.920546
55.595 9.883145
55.600 9.692446
55.605 9.237561
55.610 9.179792
55.615 9.399493
55.620 9.649956
55.625 9.845811
55.630 9.289922
55.635 9.148201
55.640 9.144416
55.645 9.035821
55.650 9.172956
55.655 8.89806
55.660 8.495495
55.665 8.884785
55.670 9.5493
55.675 9.686619
55.680 9.601975
55.685 9.473703
55.690 10.042008
55.695 10.762909
55.700 10.637746
55.705 10.326044
55.710 10.536369
55.715 10.492739
55.720 10.099778
55.725 9.993913
55.730 10.001547
55.735 9.965903
55.740 9.824215
55.745 9.973157
55.750 10.424397
55.755 10.723276
55.760 10.784177
55.765 10.861602
55.770 11.080014
55.775 10.86894
55.780 10.321103
55.785 9.843708
55.790 9.870401
55.795 9.383054
55.800 9.07844
55.805 9.081962
55.810 9.31433
55.815 9.898895
55.820 10.73105
55.825 10.835723
55.830 10.873435
55.835 10.881868
55.840 10.873652
55.845 10.747077
55.850 10.275454
55.855 9.288775
55.860 9.62719
55.865 10.263144
55.870 10.560416
55.875 10.439709
55.880 10.284734
55.885 10.333905
55.890 10.899364
55.895 10.351403
55.900 10.060876
55.905 9.810094
55.910 10.21824
55.915 10.414105
55.920 10.474471
55.925 10.13693
55.930 10.145416
55.935 10.264685
55.940 10.247102
55.945 9.999754
55.950 10.426307
55.955 10.363231
55.960 10.598373
55.965 10.780609
55.970 10.274476
55.975 10.209258
55.980 10.606463
55.985 10.843135
55.990 11.028606
55.995 10.890489
56.000 10.681528
56.005 11.250502
56.010 11.407095
56.015 10.94095
56.020 10.526217
56.025 10.729816
56.030 10.692514
56.035 11.099462
56.040 10.720819
56.045 10.583984
56.050 10.699964
56.055 10.438718
56.060 10.307751
56.065 10.144538
56.070 9.842736
56.075 9.702838
56.080 9.670735
56.085 9.47256
56.090 9.256099
56.095 9.312315
56.100 9.723837
56.105 9.836905
56.110 9.92167
56.115 9.801118
56.120 9.726406
56.125 9.51145
56.130 9.100243
56.135 8.832139
56.140 8.841216
56.145 8.967073
56.150 9.309673
56.155 9.95449
56.160 10.801664
56.165 11.517027
56.170 12.05257
56.175 12.017487
56.180 11.511692
56.185 10.949097
56.190 10.43864
56.195 9.34515
56.200 8.796922
56.205 7.959032
56.210 8.131618
56.215 8.910183
56.220 9.495046
56.225 10.11964
56.230 10.314264
56.235 10.036834
56.240 10.230498
56.245 10.261753
56.250 9.794386
56.255 9.587921
56.260 9.558956
56.265 9.805251
56.270 10.161796
56.275 10.553543
56.280 10.886391
56.285 11.333032
56.290 11.709194
56.295 11.89705
56.300 12.064832
56.305 12.085827
56.310 11.717749
56.315 11.173665
56.320 10.614945
56.325 9.921134
56.330 9.976752
56.335 10.123033
56.340 9.995176
56.345 10.295515
56.350 10.865188
56.355 11.006928
56.360 11.105242
56.365 11.184233
56.370 11.23958
56.375 11.16715
56.380 10.686962
56.385 10.561323
56.390 10.765664
56.395 10.632508
56.400 10.016572
56.405 10.182493
56.410 10.341088
56.415 10.199414
56.420 9.932243
56.425 9.89362
56.430 10.043648
56.435 10.313245
56.440 10.044192
56.445 9.913132
56.450 9.982387
56.455 10.272872
56.460 10.419896
56.465 10.515097
56.470 10.607983
56.475 10.934228
56.480 10.997133
56.485 11.174666
56.490 12.163089
56.495 12.499259
56.500 12.976662
56.505 13.181585
56.510 12.887154
56.515 13.177472
56.520 13.007283
56.525 12.362373
56.530 11.685684
56.535 10.79596
56.540 10.506065
56.545 10.461458
56.550 10.315788
56.555 9.9395
56.560 9.601438
56.565 9.634184
56.570 9.572463
56.575 9.661066
56.580 9.725702
56.585 9.718924
56.590 10.354287
56.595 10.523539
56.600 10.354136
56.605 10.417436
56.610 10.32443
56.615 10.463529
56.620 10.942679
56.625 10.589352
56.630 10.731007
56.635 11.058249
56.640 11.520487
56.645 11.476203
56.650 10.972403
56.655 10.702444
56.660 10.855664
56.665 10.778585
56.670 10.866716
56.675 10.501015
56.680 10.618134
56.685 10.868996
56.690 11.062413
56.695 11.04628
56.700 11.093902
56.705 11.432465
56.710 12.205905
56.715 12.79277
56.720 13.121569
56.725 13.02061
56.730 13.107527
56.735 13.261795
56.740 13.680574
56.745 13.70916
56.750 12.871165
56.755 12.352574
56.760 11.659837
56.765 11.557374
56.770 10.882598
56.775 10.27488
56.780 10.182714
56.785 10.71074
56.790 11.151626
56.795 11.866706
56.800 12.32843
56.805 12.709283
56.810 12.94056
56.815 12.694797
56.820 12.328335
56.825 12.167027
56.830 11.732637
56.835 11.370483
56.840 11.02025
56.845 10.808249
56.850 11.162932
56.855 11.219211
56.860 11.542354
56.865 11.761301
56.870 12.122651
56.875 12.266963
56.880 12.088522
56.885 11.893821
56.890 11.900829
56.895 11.635501
56.900 11.512461
56.905 11.266541
56.910 11.357247
56.915 11.155205
56.920 11.203472
56.925 11.05237
56.930 11.553542
56.935 11.357309
56.940 11.228155
56.945 11.367808
56.950 11.108541
56.955 11.031447
56.960 11.172562
56.965 10.555974
56.970 10.676932
56.975 11.123446
56.980 11.127714
56.985 11.607613
56.990 11.710629
56.995 11.453051
57.000 11.960644
57.005 11.86057
57.010 11.599642
57.015 11.623447
57.020 11.634329
57.025 11.576993
57.030 11.560638
57.035 11.314198
57.040 11.363947
57.045 11.206013
57.050 11.011847
57.055 10.895038
57.060 10.78595
57.065 10.846182
57.070 10.427198
57.075 10.536601
57.080 10.714618
57.085 10.755164
57.090 11.029386
57.095 11.429298
57.100 11.486271
57.105 11.800562
57.110 11.408228
57.115 11.073359
57.120 11.17739
57.125 11.256267
57.130 11.302524
57.135 11.734903
57.140 11.635913
57.145 11.621761
57.150 11.729628
57.155 11.399297
57.160 11.113954
57.165 11.190247
57.170 11.242523
57.175 11.752908
57.180 11.517936
57.185 11.422112
57.190 11.483782
57.195 11.351102
57.200 11.02935
57.205 10.891993
57.210 10.919674
57.215 11.610427
57.220 11.908036
57.225 11.847215
57.230 11.903565
57.235 11.884388
57.240 12.01383
57.245 11.975153
57.250 11.841737
57.255 12.617948
57.260 13.002205
57.265 13.252856
57.270 13.153627
57.275 13.202656
57.280 12.72071
57.285 12.227813
57.290 11.363138
57.295 11.252478
57.300 11.217649
57.305 11.205805
57.310 11.113646
57.315 11.572597
57.320 11.426799
57.325 11.802194
57.330 12.132255
57.335 12.471772
57.340 12.423149
57.345 12.333385
57.350 12.491663
57.355 12.659615
57.360 12.226273
57.365 11.503617
57.370 11.667823
57.375 11.848023
57.380 11.652609
57.385 11.271207
57.390 11.178205
57.395 11.365385
57.400 11.221984
57.405 10.829729
57.410 11.151052
57.415 11.33172
57.420 11.891395
57.425 12.019583
57.430 11.81781
57.435 11.734076
57.440 11.775914
57.445 11.419132
57.450 11.604701
57.455 11.851006
57.460 12.21592
57.465 12.555711
57.470 12.837653
57.475 12.858901
57.480 12.946465
57.485 12.671301
57.490 12.858763
57.495 12.678065
57.500 12.784091
57.505 12.876382
57.510 12.791189
57.515 13.265921
57.520 13.242727
57.525 12.702504
57.530 12.516322
57.535 12.351749
57.540 12.521293
57.545 12.318377
57.550 12.017344
57.555 11.884408
57.560 11.73152
57.565 12.038837
57.570 11.764439
57.575 11.635956
57.580 11.621085
57.585 11.424764
57.590 11.77766
57.595 11.699743
57.600 11.146791
57.605 11.012542
57.610 11.17595
57.615 11.392752
57.620 12.029696
57.625 12.664756
57.630 13.175516
57.635 13.586418
57.640 13.639607
57.645 13.291077
57.650 13.13396
57.655 12.719733
57.660 12.433944
57.665 12.214153
57.670 12.388405
57.675 12.661329
57.680 13.13578
57.685 12.919225
57.690 12.744736
57.695 12.157619
57.700 11.879935
57.705 11.552607
57.710 10.965595
57.715 10.667031
57.720 10.851907
57.725 10.802269
57.730 11.572279
57.735 11.70237
57.740 12.121928
57.745 12.241739
57.750 12.525245
57.755 12.870452
57.760 13.098361
57.765 12.714794
57.770 12.360156
57.775 11.944847
57.780 11.941621
57.785 11.844291
57.790 11.766177
57.795 11.71572
57.800 11.659047
57.805 12.075042
57.810 12.698994
57.815 12.733168
57.820 12.67692
57.825 12.779914
57.830 12.65404
57.835 13.569144
57.840 14.150576
57.845 14.288336
57.850 14.564978
57.855 14.681353
57.860 14.803274
57.865 14.919529
57.870 14.007915
57.875 13.452814
57.880 13.236976
57.885 12.602365
57.890 12.265531
57.895 11.85477
57.900 11.806554
57.905 12.289777
57.910 12.343778
57.915 12.921111
57.920 13.474284
57.925 13.435825
57.930 13.792521
57.935 13.715339
57.940 13.588371
57.945 13.050221
57.950 12.749827
57.955 12.684756
57.960 12.829242
57.965 13.152471
57.970 13.281389
57.975 13.447139
57.980 13.355478
57.985 13.166259
57.990 13.155385
57.995 13.121325
58.000 12.712922
58.005 12.82504
58.010 12.851439
58.015 13.507807
58.020 13.770783
58.025 14.087783
58.030 14.436717
58.035 14.699615
58.040 14.596706
58.045 14.482212
58.050 14.351238
58.055 14.37237
58.060 14.236622
58.065 13.798345
58.070 13.731302
58.075 13.706168
58.080 13.733165
58.085 13.585092
58.090 13.63816
58.095 13.599064
58.100 13.935815
58.105 14.108715
58.110 14.129522
58.115 14.010891
58.120 14.293724
58.125 14.220739
58.130 14.150699
58.135 13.985479
58.140 13.759904
58.145 13.927215
58.150 14.013781
58.155 13.7342
58.160 13.396836
58.165 13.466593
58.170 13.478535
58.175 13.34564
58.180 13.601504
58.185 13.772651
58.190 14.055818
58.195 14.284925
58.200 14.081474
58.205 14.483397
58.210 14.576573
58.215 14.061317
58.220 13.851344
58.225 14.121858
58.230 14.398251
58.235 14.682491
58.240 14.209968
58.245 14.354824
58.250 14.592904
58.255 14.573906
58.260 14.415441
58.265 14.490515
58.270 14.305354
58.275 14.481197
58.280 14.784026
58.285 15.583507
58.290 15.784404
58.295 15.827043
58.300 15.982553
58.305 16.454166
58.310 16.678782
58.315 16.188702
58.320 15.864386
58.325 16.581228
58.330 16.630503
58.335 16.521412
58.340 16.461065
58.345 16.228125
58.350 16.591307
58.355 17.071108
58.360 16.890236
58.365 16.830765
58.370 16.553822
58.375 16.389048
58.380 16.693098
58.385 16.660686
58.390 16.370064
58.395 15.914192
58.400 15.864206
58.405 15.883901
58.410 15.728198
58.415 15.447427
58.420 15.70749
58.425 15.961535
58.430 16.80876
58.435 17.489664
58.440 17.828236
58.445 18.21851
58.450 19.001574
58.455 18.808865
58.460 18.703196
58.465 18.371416
58.470 17.892139
58.475 17.895605
58.480 18.098969
58.485 17.997791
58.490 18.010582
58.495 18.126062
58.500 18.151466
58.505 18.555061
58.510 18.520864
58.515 18.536909
58.520 17.955183
58.525 17.859365
58.530 17.499908
58.535 17.937126
58.540 18.052633
58.545 18.071278
58.550 17.855442
58.555 18.27441
58.560 18.520355
58.565 18.248844
58.570 17.739044
58.575 17.885775
58.580 17.692217
58.585 17.804037
58.590 18.189213
58.595 18.289732
58.600 18.385649
