!@!!GADDS PLOTSO FILE: Chi integration type
!@!!Title/SampleName: map-39
!@!!Comment: ?
!@!!User: Bruker Instrument Administrator
!@!!Site: University of Illinois Chicago
!@!!Frame: map-39_01_000.gfrm
!@!!Wavelengths    1.54184   1.54056   1.54439
!@!!Frame angles: 2Theta: 63.000 Omega: 50.000 Phi: 0.000 Chi: 90.000
!@!!Integration range: 2Theta: 53.000 to 73.000  Gamma: -105.000 to -75.000
!@!!Integration method: bin normalized
!@!N
!@!SS
!@!M
!@!L 0.0 0.0 0.0 0.0
!@!XDegrees
!@!YCounts
53.000 9.303354
53.005 9.569686
53.010 9.660906
53.015 9.821373
53.020 9.822422
53.025 10.257668
53.030 10.084356
53.035 10.211185
53.040 10.310065
53.045 10.251839
53.050 10.01878
53.055 9.958773
53.060 10.002835
53.065 10.555538
53.070 10.342934
53.075 10.248703
53.080 10.561522
53.085 11.226781
53.090 11.640693
53.095 11.397592
53.100 11.068296
53.105 11.189075
53.110 10.919641
53.115 10.692169
53.120 10.009932
53.125 9.413129
53.130 9.441201
53.135 10.007363
53.140 10.337
53.145 10.87928
53.150 10.938647
53.155 10.964959
53.160 11.144479
53.165 11.163845
53.170 10.73815
53.175 9.978009
53.180 9.448539
53.185 9.642994
53.190 9.758941
53.195 9.311427
53.200 9.037091
53.205 9.129269
53.210 9.676184
53.215 9.897861
53.220 10.025878
53.225 10.365344
53.230 10.509444
53.235 10.198433
53.240 9.893249
53.245 9.355335
53.250 9.550082
53.255 9.331204
53.260 9.073507
53.265 9.028054
53.270 9.687145
53.275 9.879428
53.280 10.084153
53.285 9.519994
53.290 9.343259
53.295 9.158351
53.300 8.983891
53.305 9.056347
53.310 9.464455
53.315 9.358556
53.320 9.290784
53.325 9.802683
53.330 10.317766
53.335 10.59328
53.340 10.616208
53.345 10.645642
53.350 11.309979
53.355 11.640517
53.360 11.634974
53.365 11.473682
53.370 11.134219
53.375 10.731662
53.380 10.695386
53.385 10.518882
53.390 10.405067
53.395 10.256128
53.400 10.112492
53.405 10.076344
53.410 9.997749
53.415 10.494415
53.420 10.818093
53.425 11.252831
53.430 11.70149
53.435 11.749739
53.440 11.700559
53.445 11.649059
53.450 10.969073
53.455 10.74752
53.460 10.38983
53.465 10.202308
53.470 10.557919
53.475 10.938876
53.480 11.446271
53.485 12.464468
53.490 12.340524
53.495 12.864343
53.500 12.975842
53.505 12.48271
53.510 12.503898
53.515 12.084781
53.520 11.379149
53.525 11.206953
53.530 10.384976
53.535 10.411526
53.540 10.775696
53.545 10.490174
53.550 10.366606
53.555 10.628551
53.560 10.475383
53.565 10.890832
53.570 10.733603
53.575 10.491121
53.580 10.392323
53.585 10.627337
53.590 10.927257
53.595 11.029275
53.600 11.146503
53.605 11.514348
53.610 11.990635
53.615 11.845701
53.620 11.468113
53.625 11.435696
53.630 11.581185
53.635 11.377006
53.640 11.027554
53.645 11.157499
53.650 11.394311
53.655 11.401478
53.660 11.303808
53.665 11.50325
53.670 11.418547
53.675 11.241308
53.680 10.983498
53.685 11.523837
53.690 11.645828
53.695 11.595506
53.700 11.752575
53.705 12.295045
53.710 12.28962
53.715 11.728395
53.720 11.415484
53.725 10.843501
53.730 10.396538
53.735 9.97818
53.740 9.822181
53.745 9.843851
53.750 10.058776
53.755 9.864415
53.760 10.059052
53.765 10.223985
53.770 10.588093
53.775 10.171494
53.780 10.160247
53.785 10.314223
53.790 10.344043
53.795 10.17472
53.800 10.260299
53.805 10.333969
53.810 10.632227
53.815 10.401957
53.820 10.383363
53.825 10.867969
53.830 10.882325
53.835 10.634855
53.840 10.800673
53.845 11.072664
53.850 11.283529
53.855 10.734576
53.860 10.176315
53.865 10.410687
53.870 10.627532
53.875 10.530408
53.880 10.484409
53.885 10.887886
53.890 11.669179
53.895 12.441789
53.900 12.453282
53.905 12.277208
53.910 12.578202
53.915 12.618696
53.920 12.322628
53.925 11.7221
53.930 11.353904
53.935 11.500117
53.940 11.728634
53.945 11.209322
53.950 11.13678
53.955 11.178776
53.960 11.398299
53.965 11.201464
53.970 11.107229
53.975 10.741152
53.980 11.149616
53.985 11.392078
53.990 11.419837
53.995 11.239396
54.000 10.861654
54.005 10.246715
54.010 10.466787
54.015 10.302661
54.020 9.730408
54.025 9.573839
54.030 9.414222
54.035 10.033479
54.040 10.56618
54.045 10.742586
54.050 10.824583
54.055 11.040957
54.060 11.534373
54.065 12.156672
54.070 11.915372
54.075 11.557106
54.080 11.527555
54.085 11.903507
54.090 11.700859
54.095 11.253924
54.100 11.305538
54.105 11.263088
54.110 10.819216
54.115 10.222076
54.120 10.098969
54.125 10.509667
54.130 10.49968
54.135 10.299066
54.140 10.624614
54.145 11.215964
54.150 11.660372
54.155 11.624354
54.160 11.981537
54.165 11.814959
54.170 11.444353
54.175 11.092962
54.180 11.048462
54.185 10.963457
54.190 10.696737
54.195 10.266083
54.200 10.703074
54.205 10.630227
54.210 10.109171
54.215 9.871683
54.220 9.89816
54.225 9.740221
54.230 9.865803
54.235 10.074448
54.240 10.12706
54.245 10.516135
54.250 10.541504
54.255 10.695171
54.260 11.051105
54.265 10.985647
54.270 10.938796
54.275 11.457574
54.280 11.683733
54.285 12.094748
54.290 12.182034
54.295 12.028968
54.300 12.269851
54.305 12.783541
54.310 12.683299
54.315 12.494191
54.320 12.174587
54.325 12.22753
54.330 12.034487
54.335 12.093632
54.340 12.050206
54.345 12.544271
54.350 12.994757
54.355 13.104059
54.360 13.217644
54.365 13.590858
54.370 13.277202
54.375 12.737861
54.380 12.385146
54.385 12.037151
54.390 12.043319
54.395 11.89547
54.400 11.203329
54.405 10.974279
54.410 10.824584
54.415 11.403554
54.420 11.689426
54.425 11.920995
54.430 12.078162
54.435 12.805317
54.440 13.478177
54.445 13.016001
54.450 12.806848
54.455 12.548111
54.460 12.549319
54.465 12.403989
54.470 12.261522
54.475 12.089284
54.480 12.210029
54.485 12.039827
54.490 12.585732
54.495 12.59136
54.500 12.491776
54.505 12.127742
54.510 12.192571
54.515 12.325685
54.520 12.253962
54.525 11.358317
54.530 11.317756
54.535 11.65905
54.540 12.44775
54.545 13.161345
54.550 13.486386
54.555 13.491668
54.560 14.059501
54.565 14.190574
54.570 14.340349
54.575 14.035172
54.580 13.162006
54.585 12.699195
54.590 12.576545
54.595 12.032288
54.600 11.743883
54.605 10.982404
54.610 10.547808
54.615 11.113389
54.620 11.051409
54.625 10.786246
54.630 11.028432
54.635 10.861364
54.640 11.002615
54.645 11.490715
54.650 11.918914
54.655 12.134468
54.660 12.387649
54.665 12.59355
54.670 12.731431
54.675 12.757639
54.680 12.538211
54.685 12.310474
54.690 12.91626
54.695 13.312476
54.700 13.478523
54.705 13.748132
54.710 13.844098
54.715 14.114403
54.720 13.734452
54.725 13.455638
54.730 13.458391
54.735 13.596589
54.740 13.708892
54.745 13.284484
54.750 12.956574
54.755 13.037215
54.760 13.021772
54.765 12.63734
54.770 12.173374
54.775 11.674073
54.780 11.459058
54.785 11.01617
54.790 11.083814
54.795 10.74087
54.800 10.635657
54.805 10.910242
54.810 11.358484
54.815 11.79422
54.820 11.828445
54.825 11.977249
54.830 12.167812
54.835 12.39843
54.840 12.036597
54.845 11.927923
54.850 11.679847
54.855 12.179092
54.860 11.684752
54.865 11.783239
54.870 12.154035
54.875 12.340548
54.880 12.762431
54.885 13.003651
54.890 13.113975
54.895 13.520877
54.900 13.234335
54.905 12.815862
54.910 13.036038
54.915 12.804961
54.920 12.80696
54.925 12.907434
54.930 13.083145
54.935 13.159935
54.940 13.158705
54.945 13.116123
54.950 13.320184
54.955 13.455561
54.960 13.638017
54.965 13.419555
54.970 13.216146
54.975 13.103805
54.980 12.647769
54.985 12.594673
54.990 12.504907
54.995 11.954059
55.000 12.011642
55.005 12.492869
55.010 12.574503
55.015 13.170302
55.020 12.945931
55.025 12.601715
55.030 12.393397
55.035 12.166199
55.040 11.870822
55.045 11.30391
55.050 10.678448
55.055 10.677838
55.060 11.065709
55.065 11.167223
55.070 10.917418
55.075 11.30998
55.080 11.395103
55.085 11.627069
55.090 11.574283
55.095 11.198099
55.100 11.051687
55.105 11.551105
55.110 11.433161
55.115 11.436868
55.120 11.094766
55.125 11.227066
55.130 11.575627
55.135 12.067111
55.140 12.521021
55.145 12.394912
55.150 12.860337
55.155 13.31947
55.160 13.357464
55.165 13.307596
55.170 12.588387
55.175 12.181828
55.180 13.018624
55.185 12.814391
55.190 12.551538
55.195 12.390297
55.200 12.510527
55.205 12.769272
55.210 12.412759
55.215 12.394066
55.220 12.366489
55.225 12.030618
55.230 12.13754
55.235 12.317714
55.240 12.392491
55.245 12.554394
55.250 12.432452
55.255 12.462344
55.260 12.440741
55.265 12.104313
55.270 12.198436
55.275 12.178394
55.280 12.238229
55.285 12.330189
55.290 12.505815
55.295 12.993583
55.300 12.698668
55.305 12.496009
55.310 12.250329
55.315 12.117166
55.320 11.725543
55.325 12.068161
55.330 12.154101
55.335 12.539286
55.340 12.951527
55.345 13.122283
55.350 13.119515
55.355 13.085939
55.360 13.088712
55.365 12.929522
55.370 12.744986
55.375 12.693992
55.380 12.606611
55.385 12.060351
55.390 11.695605
55.395 11.730465
55.400 12.112967
55.405 11.950983
55.410 11.872829
55.415 12.211519
55.420 12.545315
55.425 12.678253
55.430 12.75183
55.435 12.267529
55.440 12.339176
55.445 11.972779
55.450 11.87771
55.455 11.847883
55.460 11.519881
55.465 11.463138
55.470 12.439231
55.475 12.668355
55.480 12.320555
55.485 12.07908
55.490 12.157796
55.495 12.257019
55.500 12.027058
55.505 11.638421
55.510 12.173335
55.515 12.854495
55.520 13.306787
55.525 13.601348
55.530 13.285209
55.535 13.026755
55.540 12.230686
55.545 11.412689
55.550 11.145949
55.555 11.04922
55.560 10.86849
55.565 11.547757
55.570 11.856276
55.575 12.460052
55.580 13.066588
55.585 13.128225
55.590 13.230076
55.595 13.175922
55.600 12.747163
55.605 12.627745
55.610 12.438944
55.615 12.370327
55.620 12.175142
55.625 12.418375
55.630 12.69615
55.635 13.102731
55.640 13.425861
55.645 13.614299
55.650 13.714334
55.655 13.826527
55.660 13.698483
55.665 13.197904
55.670 12.729851
55.675 12.256554
55.680 12.129292
55.685 11.960242
55.690 12.138015
55.695 12.151811
55.700 12.750686
55.705 12.536923
55.710 12.411123
55.715 12.086691
55.720 12.16564
55.725 11.785175
55.730 11.567852
55.735 11.309615
55.740 12.043092
55.745 12.157581
55.750 12.177298
55.755 11.977388
55.760 11.947072
55.765 12.130507
55.770 12.439806
55.775 12.496631
55.780 12.986992
55.785 13.233406
55.790 13.354767
55.795 13.650088
55.800 13.645016
55.805 13.752348
55.810 13.457501
55.815 13.372288
55.820 13.585503
55.825 13.86885
55.830 13.682965
55.835 13.88708
55.840 13.444212
55.845 13.650829
55.850 13.297025
55.855 13.440737
55.860 13.012732
55.865 13.165334
55.870 13.375746
55.875 13.684058
55.880 13.656326
55.885 13.893983
55.890 13.690643
55.895 13.406857
55.900 13.022923
55.905 12.28159
55.910 12.298175
55.915 12.336382
55.920 12.553041
55.925 12.845797
55.930 13.106716
55.935 13.230564
55.940 13.804429
55.945 14.360386
55.950 15.000171
55.955 14.814998
55.960 14.607627
55.965 14.516271
55.970 15.023718
55.975 14.349337
55.980 13.444841
55.985 13.298203
55.990 13.475943
55.995 13.853044
56.000 13.916563
56.005 13.698191
56.010 13.657716
56.015 13.92347
56.020 13.927766
56.025 13.908488
56.030 13.882382
56.035 14.119071
56.040 14.044013
56.045 14.225401
56.050 14.014441
56.055 13.417474
56.060 13.129607
56.065 12.796492
56.070 12.575811
56.075 12.481445
56.080 12.526819
56.085 12.382482
56.090 12.419268
56.095 12.326681
56.100 12.636765
56.105 13.048969
56.110 13.260763
56.115 13.480038
56.120 13.902307
56.125 14.466224
56.130 14.852406
56.135 14.757277
56.140 14.575752
56.145 14.746997
56.150 15.008954
56.155 15.242636
56.160 14.927175
56.165 14.78235
56.170 14.344665
56.175 14.355383
56.180 14.29507
56.185 13.519203
56.190 12.872141
56.195 13.148025
56.200 13.422328
56.205 14.21225
56.210 13.995384
56.215 13.525312
56.220 14.077001
56.225 14.762049
56.230 14.686685
56.235 14.316799
56.240 13.979026
56.245 14.508772
56.250 14.829926
56.255 14.330942
56.260 14.06319
56.265 14.118918
56.270 13.821507
56.275 13.383636
56.280 13.225288
56.285 13.544903
56.290 13.840219
56.295 13.695548
56.300 13.286317
56.305 13.392484
56.310 13.493358
56.315 13.445006
56.320 13.651434
56.325 13.908731
56.330 13.929214
56.335 14.423427
56.340 14.678744
56.345 14.884379
56.350 14.646312
56.355 14.211837
56.360 14.279947
56.365 13.998955
56.370 13.789351
56.375 13.847017
56.380 14.184987
56.385 14.891077
56.390 14.933525
56.395 14.61218
56.400 14.850963
56.405 14.315516
56.410 13.633479
56.415 13.374867
56.420 13.545418
56.425 14.081468
56.430 14.38767
56.435 14.560272
56.440 15.252144
56.445 15.222265
56.450 14.779219
56.455 13.807848
56.460 13.509089
56.465 13.522519
56.470 13.335685
56.475 13.312069
56.480 14.107147
56.485 14.907342
56.490 15.166899
56.495 15.29275
56.500 15.751513
56.505 15.964281
56.510 15.907905
56.515 15.382312
56.520 15.667418
56.525 15.738016
56.530 15.46724
56.535 15.104121
56.540 15.43816
56.545 15.43253
56.550 15.111039
56.555 14.710581
56.560 15.09614
56.565 14.742783
56.570 14.139376
56.575 13.70449
56.580 13.725692
56.585 13.804232
56.590 13.306105
56.595 12.803969
56.600 13.246688
56.605 13.609236
56.610 13.6528
56.615 13.658417
56.620 13.541421
56.625 13.782155
56.630 14.205327
56.635 14.321582
56.640 14.515669
56.645 14.264625
56.650 14.260257
56.655 14.683034
56.660 14.978647
56.665 15.212991
56.670 15.097616
56.675 15.109112
56.680 15.115216
56.685 15.070004
56.690 14.477433
56.695 14.080143
56.700 13.858813
56.705 13.867555
56.710 14.347007
56.715 15.109172
56.720 15.380441
56.725 16.102671
56.730 16.346718
56.735 16.329102
56.740 16.079613
56.745 15.861542
56.750 15.846871
56.755 15.249804
56.760 14.778788
56.765 14.60343
56.770 14.521573
56.775 14.614767
56.780 14.599718
56.785 14.548593
56.790 14.802148
56.795 14.451236
56.800 14.812718
56.805 15.248429
56.810 15.710015
56.815 16.023096
56.820 15.936352
56.825 16.320621
56.830 16.750143
56.835 16.234076
56.840 15.912947
56.845 14.772932
56.850 14.156846
56.855 14.474582
56.860 14.308372
56.865 14.559216
56.870 15.451557
56.875 15.424202
56.880 16.054522
56.885 16.14588
56.890 16.07148
56.895 16.188063
56.900 15.78158
56.905 15.162014
56.910 15.532908
56.915 15.768696
56.920 15.519669
56.925 15.285655
56.930 15.216381
56.935 15.22511
56.940 14.972112
56.945 14.544532
56.950 14.20463
56.955 14.546763
56.960 15.13891
56.965 15.133649
56.970 14.72562
56.975 14.80128
56.980 14.728787
56.985 14.526648
56.990 14.334657
56.995 13.689163
57.000 13.457721
57.005 14.208353
57.010 14.499206
57.015 14.934057
57.020 14.941211
57.025 14.742722
57.030 14.556285
57.035 14.170021
57.040 13.609298
57.045 13.459475
57.050 13.094232
57.055 13.507645
57.060 13.657086
57.065 13.495128
57.070 14.161316
57.075 14.350893
57.080 14.480027
57.085 14.569794
57.090 14.440225
57.095 14.81051
57.100 15.18803
57.105 15.19318
57.110 15.230634
57.115 14.976374
57.120 14.616177
57.125 15.00954
57.130 15.107542
57.135 15.153833
57.140 14.689035
57.145 14.329385
57.150 14.873591
57.155 14.856464
57.160 14.19901
57.165 14.118365
57.170 13.956302
57.175 14.338905
57.180 13.902279
57.185 13.554656
57.190 13.613789
57.195 13.999232
57.200 13.999648
57.205 13.875463
57.210 13.715685
57.215 14.087008
57.220 14.685946
57.225 14.731687
57.230 14.304832
57.235 14.148663
57.240 14.426611
57.245 14.295894
57.250 13.886351
57.255 13.404756
57.260 13.490313
57.265 13.526283
57.270 14.10212
57.275 13.96444
57.280 14.274913
57.285 14.834662
57.290 14.847805
57.295 14.700667
57.300 14.527566
57.305 14.381103
57.310 14.963113
57.315 15.257092
57.320 14.953739
57.325 15.361032
57.330 15.8234
57.335 15.689944
57.340 15.449331
57.345 15.081339
57.350 15.084928
57.355 14.994765
57.360 14.665198
57.365 14.787169
57.370 15.189609
57.375 15.412591
57.380 15.442425
57.385 15.094632
57.390 15.052946
57.395 14.945556
57.400 14.5858
57.405 14.26716
57.410 14.396939
57.415 14.569641
57.420 15.26508
57.425 15.110466
57.430 15.223924
57.435 15.932911
57.440 15.833577
57.445 15.121727
57.450 14.663353
57.455 14.503456
57.460 14.666322
57.465 14.20257
57.470 13.626808
57.475 13.781345
57.480 14.325494
57.485 14.845407
57.490 15.173211
57.495 15.920693
57.500 16.065098
57.505 16.184795
57.510 16.103224
57.515 15.79146
57.520 14.905643
57.525 14.077249
57.530 13.816921
57.535 14.431795
57.540 14.882721
57.545 15.192595
57.550 15.656446
57.555 15.60271
57.560 15.472283
57.565 15.171005
57.570 14.788739
57.575 14.836473
57.580 14.648676
57.585 15.023453
57.590 15.717175
57.595 15.876952
57.600 16.145407
57.605 15.930688
57.610 15.718213
57.615 15.755763
57.620 15.179584
57.625 16.27717
57.630 17.076881
57.635 17.015041
57.640 16.400871
57.645 16.024342
57.650 16.000111
57.655 16.200985
57.660 14.761295
57.665 14.277428
57.670 14.524633
57.675 15.236024
57.680 16.029997
57.685 16.10153
57.690 16.485161
57.695 17.305895
57.700 16.975277
57.705 16.410694
57.710 16.555641
57.715 15.635165
57.720 15.355992
57.725 15.095557
57.730 14.766125
57.735 15.090105
57.740 15.087763
57.745 14.716096
57.750 14.883181
57.755 14.893117
57.760 14.47823
57.765 14.35834
57.770 14.81123
57.775 15.431883
57.780 15.519314
57.785 16.508554
57.790 16.700562
57.795 16.926273
57.800 17.128586
57.805 16.873325
57.810 16.537519
57.815 16.451674
57.820 15.806766
57.825 15.705261
57.830 15.753787
57.835 15.810068
57.840 15.676716
57.845 15.878641
57.850 16.121197
57.855 15.94571
57.860 16.04353
57.865 15.93069
57.870 16.029448
57.875 16.095835
57.880 16.324146
57.885 16.596214
57.890 17.088457
57.895 17.421539
57.900 17.443855
57.905 17.383854
57.910 17.418808
57.915 16.959785
57.920 16.721033
57.925 16.165203
57.930 15.916162
57.935 15.723914
57.940 15.524209
57.945 15.28976
57.950 15.174566
57.955 15.294849
57.960 15.438224
57.965 14.61249
57.970 14.055148
57.975 13.778918
57.980 14.253237
57.985 14.563974
57.990 14.493707
57.995 14.741039
58.000 15.807471
58.005 16.230642
58.010 16.592672
58.015 16.262722
58.020 16.070698
58.025 15.403666
58.030 15.033904
58.035 15.087169
58.040 15.142292
58.045 15.211796
58.050 15.46432
58.055 15.559427
58.060 16.232378
58.065 15.867116
58.070 15.955868
58.075 16.718298
58.080 16.867805
58.085 16.477308
58.090 16.186867
58.095 16.168091
58.100 16.161213
58.105 16.376719
58.110 15.867018
58.115 15.874964
58.120 16.147552
58.125 15.995513
58.130 15.775539
58.135 16.064844
58.140 15.960651
58.145 15.903408
58.150 15.92096
58.155 15.478769
58.160 15.458334
58.165 15.283269
58.170 14.932223
58.175 14.95268
58.180 14.839676
58.185 14.924414
58.190 15.096875
58.195 15.12954
58.200 15.42476
58.205 15.427722
58.210 15.077459
58.215 15.289521
58.220 14.821107
58.225 15.27425
58.230 15.42191
58.235 15.631701
58.240 15.644233
58.245 15.454668
58.250 14.98869
58.255 15.097989
58.260 15.492036
58.265 15.545785
58.270 15.887353
58.275 15.612651
58.280 15.715815
58.285 15.792172
58.290 15.754172
58.295 15.471318
58.300 15.539157
58.305 15.238827
58.310 15.510094
58.315 15.73273
58.320 15.713437
58.325 15.846041
58.330 15.733123
58.335 15.7212
58.340 15.937844
58.345 15.728747
58.350 15.769613
58.355 15.612704
58.360 15.442983
58.365 15.81356
58.370 16.40867
58.375 16.931381
58.380 17.006857
58.385 16.617542
58.390 16.461601
58.395 16.851257
58.400 17.052544
58.405 16.459078
58.410 16.021669
58.415 16.094322
58.420 16.09436
58.425 16.650106
58.430 16.215696
58.435 15.414193
58.440 15.211927
58.445 15.501991
58.450 15.796526
