!@!!GADDS PLOTSO FILE: Chi integration type
!@!!Title/SampleName: map-63
!@!!Comment: ?
!@!!User: Bruker Instrument Administrator
!@!!Site: University of Illinois Chicago
!@!!Frame: map-63_01_000.gfrm
!@!!Wavelengths    1.54184   1.54056   1.54439
!@!!Frame angles: 2Theta: 63.000 Omega: 50.000 Phi: 0.000 Chi: 90.000
!@!!Integration range: 2Theta: 53.000 to 73.000  Gamma: -105.000 to -75.000
!@!!Integration method: bin normalized
!@!N
!@!SS
!@!M
!@!L 0.0 0.0 0.0 0.0
!@!XDegrees
!@!YCounts
53.000 8.452612
53.005 8.471314
53.010 8.553714
53.015 8.334809
53.020 8.086652
53.025 7.968443
53.030 7.891687
53.035 7.508148
53.040 7.33011
53.045 7.354914
53.050 7.65533
53.055 8.017794
53.060 8.063576
53.065 8.316229
53.070 8.721318
53.075 8.834945
53.080 8.434954
53.085 8.416021
53.090 8.549382
53.095 8.449239
53.100 8.437496
53.105 8.642157
53.110 8.354761
53.115 8.279865
53.120 7.963101
53.125 7.859855
53.130 7.951952
53.135 7.692248
53.140 7.596949
53.145 7.775797
53.150 7.810296
53.155 7.75292
53.160 7.490886
53.165 6.992354
53.170 7.16387
53.175 6.952353
53.180 7.331376
53.185 7.658713
53.190 7.602758
53.195 7.778914
53.200 7.624218
53.205 7.274011
53.210 7.295656
53.215 7.760045
53.220 8.282442
53.225 8.60593
53.230 8.893267
53.235 9.561619
53.240 9.589995
53.245 9.595176
53.250 8.998277
53.255 8.477512
53.260 8.349973
53.265 8.136016
53.270 7.838758
53.275 8.631036
53.280 8.459655
53.285 9.108477
53.290 9.589871
53.295 9.642769
53.300 10.246891
53.305 10.044666
53.310 9.820796
53.315 10.412113
53.320 10.19299
53.325 10.312201
53.330 10.324492
53.335 10.199237
53.340 10.164875
53.345 10.035712
53.350 9.839453
53.355 9.844175
53.360 9.623917
53.365 9.47694
53.370 9.429633
53.375 9.558947
53.380 9.446834
53.385 9.119132
53.390 8.853164
53.395 8.831792
53.400 9.07976
53.405 8.92624
53.410 8.94437
53.415 9.01641
53.420 8.564889
53.425 8.181357
53.430 8.193493
53.435 8.040981
53.440 8.194837
53.445 7.631725
53.450 7.623719
53.455 8.107892
53.460 8.593523
53.465 8.896569
53.470 8.957084
53.475 9.357998
53.480 10.232102
53.485 10.295395
53.490 10.199896
53.495 10.173162
53.500 9.912665
53.505 9.968719
53.510 9.898888
53.515 9.18359
53.520 9.17561
53.525 8.77084
53.530 8.887052
53.535 9.15451
53.540 8.67181
53.545 8.654786
53.550 9.226255
53.555 9.070361
53.560 9.417433
53.565 9.550303
53.570 9.46805
53.575 9.728582
53.580 9.455766
53.585 9.339857
53.590 9.646414
53.595 9.341644
53.600 8.685054
53.605 8.665629
53.610 8.801292
53.615 8.710945
53.620 8.84201
53.625 8.854657
53.630 8.941115
53.635 9.063386
53.640 8.667882
53.645 8.140253
53.650 7.94919
53.655 7.202979
53.660 7.39626
53.665 7.194704
53.670 7.479216
53.675 7.812044
53.680 8.18825
53.685 8.753956
53.690 8.989343
53.695 8.835999
53.700 8.997616
53.705 8.774004
53.710 8.788369
53.715 8.463078
53.720 8.442589
53.725 8.57718
53.730 8.442982
53.735 8.669837
53.740 8.894597
53.745 8.663966
53.750 8.86479
53.755 8.889504
53.760 8.975375
53.765 9.001137
53.770 9.38467
53.775 9.481736
53.780 9.623831
53.785 9.736331
53.790 9.514647
53.795 9.578576
53.800 9.671873
53.805 8.944407
53.810 9.029469
53.815 8.891158
53.820 8.86671
53.825 8.957804
53.830 8.534585
53.835 7.934947
53.840 7.695273
53.845 7.316184
53.850 7.253034
53.855 7.041078
53.860 7.368794
53.865 7.427157
53.870 7.990862
53.875 8.603349
53.880 8.725908
53.885 9.055677
53.890 9.412645
53.895 9.342602
53.900 9.422422
53.905 9.417325
53.910 9.456367
53.915 9.427017
53.920 9.097093
53.925 9.161281
53.930 9.911051
53.935 10.296525
53.940 10.083686
53.945 10.072381
53.950 9.828388
53.955 9.84826
53.960 9.084622
53.965 8.304225
53.970 8.425315
53.975 8.953245
53.980 9.346421
53.985 9.577496
53.990 9.344237
53.995 9.524304
54.000 9.92001
54.005 9.434056
54.010 8.945716
54.015 9.05822
54.020 9.002686
54.025 9.299418
54.030 9.286698
54.035 8.894403
54.040 9.08594
54.045 8.929406
54.050 8.698986
54.055 8.747104
54.060 9.021674
54.065 8.954614
54.070 9.022749
54.075 8.984122
54.080 9.209057
54.085 9.583788
54.090 9.445514
54.095 9.376865
54.100 9.711203
54.105 10.022264
54.110 10.122531
54.115 9.968374
54.120 10.213363
54.125 10.316301
54.130 10.607884
54.135 10.79563
54.140 10.527605
54.145 10.413215
54.150 10.205993
54.155 9.913559
54.160 9.681652
54.165 8.838278
54.170 9.037396
54.175 8.809253
54.180 8.990602
54.185 8.762255
54.190 8.831917
54.195 9.024603
54.200 9.582312
54.205 9.394006
54.210 9.496194
54.215 9.649343
54.220 10.071488
54.225 10.23536
54.230 9.969553
54.235 9.77265
54.240 9.867768
54.245 10.023783
54.250 10.230429
54.255 10.016578
54.260 9.663033
54.265 9.581509
54.270 9.728267
54.275 10.085111
54.280 10.261721
54.285 10.019249
54.290 10.316637
54.295 10.508339
54.300 10.59215
54.305 10.559937
54.310 10.475471
54.315 10.27192
54.320 10.274014
54.325 10.356139
54.330 10.802246
54.335 10.980057
54.340 10.810388
54.345 10.730307
54.350 10.916277
54.355 11.01287
54.360 10.528612
54.365 10.288741
54.370 10.70575
54.375 10.969039
54.380 10.851636
54.385 10.419374
54.390 10.656335
54.395 10.401267
54.400 9.989738
54.405 9.967331
54.410 9.927401
54.415 9.648993
54.420 9.85651
54.425 9.900143
54.430 10.395327
54.435 10.11671
54.440 9.427542
54.445 9.32911
54.450 9.27425
54.455 8.54577
54.460 8.089242
54.465 8.342917
54.470 8.958116
54.475 9.060092
54.480 9.193081
54.485 9.853646
54.490 10.301561
54.495 10.348711
54.500 9.728927
54.505 9.605939
54.510 9.829889
54.515 9.894546
54.520 9.589471
54.525 9.896994
54.530 10.187122
54.535 10.352259
54.540 10.606449
54.545 10.431783
54.550 10.382648
54.555 10.48811
54.560 10.638157
54.565 10.787423
54.570 10.81584
54.575 10.938351
54.580 11.302405
54.585 11.2097
54.590 10.862514
54.595 10.613445
54.600 10.566023
54.605 10.361012
54.610 9.307645
54.615 9.145266
54.620 8.917299
54.625 8.762553
54.630 8.746814
54.635 8.68004
54.640 9.097654
54.645 9.818421
54.650 10.106221
54.655 10.59794
54.660 10.983946
54.665 10.735344
54.670 10.900577
54.675 10.793977
54.680 10.710051
54.685 10.410214
54.690 10.429723
54.695 10.698074
54.700 10.827385
54.705 10.87769
54.710 11.293914
54.715 11.11267
54.720 11.377606
54.725 11.444357
54.730 11.351013
54.735 11.766113
54.740 11.719466
54.745 11.804473
54.750 12.021869
54.755 11.631827
54.760 11.737081
54.765 11.656451
54.770 10.971821
54.775 10.431726
54.780 10.16869
54.785 10.114023
54.790 10.355494
54.795 10.023227
54.800 10.140381
54.805 10.075401
54.810 9.543149
54.815 9.022907
54.820 9.098762
54.825 9.025537
54.830 8.771038
54.835 8.632113
54.840 9.022501
54.845 9.958997
54.850 10.141386
54.855 9.799282
54.860 9.437344
54.865 9.379056
54.870 9.347528
54.875 9.376102
54.880 9.641282
54.885 9.654345
54.890 9.816723
54.895 10.534425
54.900 10.978887
54.905 10.871933
54.910 10.692866
54.915 10.008514
54.920 9.86466
54.925 9.573151
54.930 9.181862
54.935 8.955465
54.940 9.284166
54.945 9.535803
54.950 10.431697
54.955 10.968567
54.960 10.923965
54.965 10.954114
54.970 11.508467
54.975 11.403902
54.980 11.317447
54.985 10.750582
54.990 10.238468
54.995 10.657465
55.000 10.449718
55.005 10.060261
55.010 9.905081
55.015 10.085955
55.020 10.00674
55.025 10.602289
55.030 10.473454
55.035 10.604462
55.040 10.703093
55.045 10.77634
55.050 10.287109
55.055 10.197253
55.060 10.071939
55.065 10.407633
55.070 9.903405
55.075 9.731807
55.080 9.735204
55.085 10.455237
55.090 10.991079
55.095 10.630313
55.100 10.766781
55.105 11.210791
55.110 11.378734
55.115 11.691797
55.120 11.112308
55.125 10.714595
55.130 10.733541
55.135 11.197254
55.140 11.2259
55.145 10.85379
55.150 10.258625
55.155 10.480749
55.160 10.45817
55.165 10.511013
55.170 10.113614
55.175 10.242387
55.180 10.835423
55.185 11.391195
55.190 11.90121
55.195 12.225127
55.200 12.142009
55.205 12.216753
55.210 12.364841
55.215 12.069103
55.220 11.516647
55.225 11.316519
55.230 11.068268
55.235 11.191807
55.240 11.022202
55.245 10.693111
55.250 10.304148
55.255 10.501992
55.260 10.391965
55.265 10.431014
55.270 10.80892
55.275 11.122327
55.280 11.494344
55.285 12.159885
55.290 12.549118
55.295 12.925714
55.300 12.439337
55.305 11.729584
55.310 11.16749
55.315 10.226228
55.320 10.025576
55.325 9.546139
55.330 9.4962
55.335 9.923626
55.340 10.029985
55.345 10.746617
55.350 11.480555
55.355 11.628514
55.360 11.471887
55.365 11.666591
55.370 11.769825
55.375 11.891746
55.380 11.772779
55.385 11.549192
55.390 11.440008
55.395 11.435857
55.400 10.961204
55.405 10.69983
55.410 10.515813
55.415 10.240115
55.420 10.092233
55.425 10.100676
55.430 9.787074
55.435 10.001516
55.440 10.611949
55.445 10.878553
55.450 11.140072
55.455 11.075623
55.460 10.807231
55.465 10.701632
55.470 10.077722
55.475 9.378697
55.480 9.454466
55.485 9.594574
55.490 9.831944
55.495 10.284504
55.500 10.56741
55.505 10.76795
55.510 11.243754
55.515 11.182852
55.520 10.974016
55.525 10.673577
55.530 10.592237
55.535 10.566939
55.540 11.103662
55.545 10.88391
55.550 11.05342
55.555 11.607795
55.560 11.471369
55.565 11.711798
55.570 12.107211
55.575 11.751664
55.580 11.872127
55.585 11.941875
55.590 11.54634
55.595 11.466931
55.600 11.199465
55.605 10.750763
55.610 10.638915
55.615 10.572538
55.620 9.960436
55.625 9.804601
55.630 10.008201
55.635 10.788016
55.640 10.798548
55.645 10.807556
55.650 10.725851
55.655 10.915285
55.660 11.196142
55.665 11.387399
55.670 10.785883
55.675 11.04964
55.680 11.369602
55.685 11.441331
55.690 11.654761
55.695 11.323757
55.700 10.938452
55.705 10.804132
55.710 10.069956
55.715 9.869977
55.720 9.868071
55.725 10.351682
55.730 10.429247
55.735 10.462933
55.740 10.662468
55.745 11.28406
55.750 11.274308
55.755 11.41363
55.760 10.892499
55.765 10.962076
55.770 10.822798
55.775 10.887179
55.780 11.221702
55.785 11.531259
55.790 11.278392
55.795 11.343719
55.800 11.341431
55.805 11.522082
55.810 10.90893
55.815 10.360696
55.820 10.308306
55.825 10.275683
55.830 10.22078
55.835 10.277205
55.840 10.72771
55.845 11.89695
55.850 11.792486
55.855 11.703269
55.860 11.838249
55.865 11.869564
55.870 11.885038
55.875 11.708942
55.880 11.296726
55.885 11.707348
55.890 11.747003
55.895 11.698783
55.900 12.016131
55.905 12.172665
55.910 11.491736
55.915 11.519415
55.920 11.443844
55.925 11.522399
55.930 11.742959
55.935 11.665287
55.940 11.618505
55.945 12.079927
55.950 11.897837
55.955 11.962064
55.960 12.064588
55.965 12.114883
55.970 12.047207
55.975 11.895995
55.980 11.618099
55.985 12.078062
55.990 12.090314
55.995 11.843528
56.000 11.133303
56.005 11.333486
56.010 11.466481
56.015 11.391448
56.020 10.962391
56.025 11.36396
56.030 11.884245
56.035 12.411783
56.040 12.471995
56.045 12.667775
56.050 13.000228
56.055 12.914947
56.060 12.414235
56.065 12.127181
56.070 11.726871
56.075 11.801682
56.080 11.845744
56.085 11.553529
56.090 11.357428
56.095 11.4544
56.100 11.73942
56.105 12.084521
56.110 11.587928
56.115 11.573809
56.120 11.737591
56.125 11.988093
56.130 11.868414
56.135 11.631548
56.140 11.508034
56.145 11.690328
56.150 11.779815
56.155 11.777232
56.160 12.228963
56.165 12.482309
56.170 12.263463
56.175 12.614403
56.180 12.309757
56.185 12.565319
56.190 12.764843
56.195 12.493661
56.200 12.590702
56.205 12.963916
56.210 12.859653
56.215 13.269605
56.220 13.358582
56.225 13.600101
56.230 13.719628
56.235 13.708462
56.240 13.410895
56.245 13.948501
56.250 14.104964
56.255 13.870048
56.260 13.164676
56.265 12.95671
56.270 12.987113
56.275 13.102272
56.280 12.584162
56.285 12.218239
56.290 12.380174
56.295 12.499224
56.300 12.313313
56.305 12.277061
56.310 12.171161
56.315 12.135681
56.320 12.259266
56.325 11.827416
56.330 11.879674
56.335 12.354241
56.340 13.144249
56.345 13.53467
56.350 13.772706
56.355 13.777606
56.360 13.743551
56.365 13.440161
56.370 13.056765
56.375 12.582137
56.380 12.583945
56.385 12.02087
56.390 11.779104
56.395 12.061823
56.400 12.446445
56.405 12.560365
56.410 12.266118
56.415 11.903082
56.420 12.170342
56.425 12.580627
56.430 12.925595
56.435 12.329379
56.440 12.195115
56.445 12.338964
56.450 13.0971
56.455 13.561193
56.460 13.104023
56.465 12.662854
56.470 12.626067
56.475 12.488671
56.480 12.404325
56.485 11.857565
56.490 11.577538
56.495 12.234355
56.500 13.088115
56.505 13.475743
56.510 13.500631
56.515 13.235166
56.520 13.470009
56.525 14.162643
56.530 14.113249
56.535 14.157258
56.540 14.440262
56.545 14.327948
56.550 14.353261
56.555 14.056378
56.560 13.412522
56.565 13.126127
56.570 12.595823
56.575 12.513134
56.580 12.515576
56.585 12.467587
56.590 12.837433
56.595 12.693116
56.600 12.316495
56.605 11.798013
56.610 11.47089
56.615 12.076043
56.620 12.197984
56.625 12.391155
56.630 13.051723
56.635 13.493253
56.640 13.830826
56.645 13.951563
56.650 13.371829
56.655 13.017363
56.660 12.729546
56.665 12.230296
56.670 11.933733
56.675 12.066999
56.680 12.266394
56.685 12.676479
56.690 12.504092
56.695 12.467685
56.700 12.352983
56.705 12.671454
56.710 12.284907
56.715 11.945531
56.720 12.004076
56.725 12.24053
56.730 12.381275
56.735 12.609453
56.740 12.789279
56.745 12.906246
56.750 13.209623
56.755 12.871791
56.760 12.979848
56.765 12.743066
56.770 12.901957
56.775 13.087818
56.780 13.224628
56.785 13.08704
56.790 12.781965
56.795 12.487227
56.800 12.166142
56.805 11.314799
56.810 10.78192
56.815 11.121242
56.820 10.877904
56.825 10.977661
56.830 11.186063
56.835 11.588254
56.840 12.300013
56.845 12.590039
56.850 12.501038
56.855 13.158264
56.860 13.14184
56.865 12.922219
56.870 13.032839
56.875 12.71758
56.880 12.585896
56.885 12.206034
56.890 12.117651
56.895 12.132961
56.900 12.365848
56.905 12.651955
56.910 12.870707
56.915 12.960474
56.920 13.055186
56.925 13.054219
56.930 13.190549
56.935 13.245733
56.940 12.659564
56.945 12.734908
56.950 12.841771
56.955 12.931473
56.960 13.017818
56.965 12.493333
56.970 13.250918
56.975 13.914434
56.980 13.918488
56.985 13.843048
56.990 13.912994
56.995 13.894517
57.000 13.853705
57.005 13.023518
57.010 12.767146
57.015 12.836346
57.020 12.507215
57.025 12.291371
57.030 12.579701
57.035 12.717016
57.040 13.181251
57.045 12.827389
57.050 12.857967
57.055 13.516945
57.060 13.302365
57.065 13.147117
57.070 13.028333
57.075 12.571276
57.080 12.949088
57.085 12.711135
57.090 12.303265
57.095 12.826731
57.100 13.114573
57.105 13.167594
57.110 13.429098
57.115 13.190475
57.120 13.278599
57.125 13.230517
57.130 12.54003
57.135 12.175878
57.140 11.930221
57.145 11.461475
57.150 11.584253
57.155 12.139998
57.160 11.976723
57.165 12.203935
57.170 12.519864
57.175 12.889991
57.180 12.944738
57.185 12.676765
57.190 12.241356
57.195 12.849703
57.200 12.857467
57.205 12.53476
57.210 12.714615
57.215 13.089407
57.220 13.403147
57.225 13.520661
57.230 13.702535
57.235 14.064582
57.240 14.023144
57.245 13.598181
57.250 13.635083
57.255 13.733002
57.260 13.642693
57.265 13.49794
57.270 13.382438
57.275 13.527108
57.280 13.634759
57.285 13.513209
57.290 12.939141
57.295 13.227383
57.300 13.135842
57.305 13.30922
57.310 13.479562
57.315 13.247886
57.320 13.646712
57.325 13.973843
57.330 14.014786
57.335 13.725434
57.340 13.575945
57.345 13.689771
57.350 14.020586
57.355 13.605201
57.360 13.480786
57.365 13.068728
57.370 12.966286
57.375 12.920516
57.380 12.884962
57.385 13.189001
57.390 13.551882
57.395 13.780375
57.400 14.022525
57.405 14.044826
57.410 14.044232
57.415 14.150771
57.420 14.054902
57.425 13.678123
57.430 13.459287
57.435 13.30972
57.440 13.707508
57.445 13.32528
57.450 12.789648
57.455 12.454685
57.460 12.567574
57.465 12.341933
57.470 12.659522
57.475 12.396776
57.480 12.313386
57.485 12.418538
57.490 12.372987
57.495 12.523259
57.500 12.765315
57.505 12.724953
57.510 12.916939
57.515 13.22309
57.520 12.636111
57.525 12.965489
57.530 13.644883
57.535 14.201484
57.540 14.291425
57.545 14.690596
57.550 15.376748
57.555 16.952597
57.560 16.614519
57.565 16.073101
57.570 15.688204
57.575 15.502606
57.580 14.979417
57.585 14.121983
57.590 13.285566
57.595 13.448931
57.600 13.24682
57.605 12.99222
57.610 12.775581
57.615 12.983405
57.620 13.147088
57.625 13.357601
57.630 13.69362
57.635 13.993955
57.640 14.078499
57.645 14.299802
57.650 14.668223
57.655 14.697005
57.660 14.405956
57.665 14.230918
57.670 14.006866
57.675 14.131288
57.680 14.173053
57.685 14.041604
57.690 14.439602
57.695 14.673208
57.700 14.690998
57.705 15.14676
57.710 15.115479
57.715 14.811739
57.720 14.393491
57.725 14.251818
57.730 13.681586
57.735 13.632627
57.740 13.711801
57.745 14.025951
57.750 14.632936
57.755 15.06762
57.760 15.288732
57.765 15.63868
57.770 15.389812
57.775 15.451432
57.780 15.399871
57.785 15.087532
57.790 14.825003
57.795 14.455625
57.800 14.308824
57.805 14.65852
57.810 14.446283
57.815 14.33604
57.820 14.367432
57.825 14.23068
57.830 13.913635
57.835 13.641404
57.840 13.3074
57.845 13.427975
57.850 13.461366
57.855 13.685805
57.860 13.982689
57.865 14.421927
57.870 14.714134
57.875 14.794892
57.880 14.621702
57.885 14.399839
57.890 14.257481
57.895 14.388918
57.900 14.131628
57.905 13.991317
57.910 14.1612
57.915 13.973869
57.920 13.642548
57.925 13.3091
57.930 12.8018
57.935 12.839614
57.940 12.688527
57.945 12.241557
57.950 12.298321
57.955 12.704221
57.960 13.467985
57.965 13.737402
57.970 13.672976
57.975 13.644827
57.980 13.961013
57.985 14.546093
57.990 14.844729
57.995 14.573512
58.000 14.412495
58.005 14.857221
58.010 14.767982
58.015 14.656337
58.020 14.130745
58.025 13.64486
58.030 13.756585
58.035 13.881529
58.040 13.808077
58.045 13.901479
58.050 14.297964
58.055 14.802982
58.060 14.790194
58.065 14.242117
58.070 14.406993
58.075 14.614479
58.080 14.642292
58.085 14.488581
58.090 14.080171
58.095 14.054169
58.100 14.438492
58.105 14.261042
58.110 14.186755
58.115 14.079902
58.120 13.856692
58.125 14.015608
58.130 14.513597
58.135 14.876209
58.140 15.16134
58.145 14.62664
58.150 14.853587
58.155 15.215574
58.160 15.489264
58.165 15.604836
58.170 15.480794
58.175 15.234249
58.180 15.527506
58.185 15.290166
58.190 14.859968
58.195 14.247652
58.200 13.882393
58.205 14.315389
58.210 14.978805
58.215 15.280185
58.220 15.20242
58.225 15.264362
58.230 15.872337
58.235 15.897894
58.240 15.391887
58.245 14.881756
58.250 14.273771
58.255 14.572329
58.260 14.685528
58.265 14.11397
58.270 13.955194
58.275 13.874635
58.280 14.267761
58.285 14.834653
58.290 14.516407
58.295 14.338037
58.300 14.450263
58.305 14.455635
58.310 14.205108
58.315 13.18105
58.320 12.984331
58.325 13.481629
58.330 13.532296
58.335 13.370897
58.340 13.191597
58.345 12.927895
58.350 12.952957
58.355 12.989455
58.360 12.926753
58.365 13.218679
58.370 13.146082
58.375 13.169558
58.380 14.169281
58.385 14.862
58.390 14.5206
58.395 13.774186
58.400 13.478211
58.405 13.252397
58.410 13.202925
58.415 12.731941
58.420 12.571893
58.425 13.194643
58.430 14.064599
58.435 14.806032
58.440 15.195679
58.445 15.153883
58.450 15.025513
58.455 15.101275
58.460 15.045626
58.465 15.070256
58.470 14.982279
58.475 15.522286
58.480 15.571873
58.485 14.808598
58.490 14.522222
58.495 14.28658
58.500 13.469682
58.505 13.1958
58.510 13.221055
58.515 13.7251
58.520 14.594502
58.525 15.059048
