!@!!GADDS PLOTSO FILE: Chi integration type
!@!!Title/SampleName: map-68
!@!!Comment: ?
!@!!User: Bruker Instrument Administrator
!@!!Site: University of Illinois Chicago
!@!!Frame: map-68_01_000.gfrm
!@!!Wavelengths    1.54184   1.54056   1.54439
!@!!Frame angles: 2Theta: 63.000 Omega: 50.000 Phi: 0.000 Chi: 90.000
!@!!Integration range: 2Theta: 53.000 to 73.000  Gamma: -105.000 to -75.000
!@!!Integration method: bin normalized
!@!N
!@!SS
!@!M
!@!L 0.0 0.0 0.0 0.0
!@!XDegrees
!@!YCounts
53.000 8.251073
53.005 8.626317
53.010 8.839938
53.015 8.681472
53.020 9.128521
53.025 9.289923
53.030 9.317451
53.035 8.989357
53.040 8.779263
53.045 9.048461
53.050 8.662226
53.055 8.465422
53.060 8.541503
53.065 8.649929
53.070 8.983696
53.075 9.241269
53.080 9.245191
53.085 9.624166
53.090 9.545403
53.095 9.620962
53.100 9.545295
53.105 9.334435
53.110 9.092229
53.115 9.331116
53.120 9.123692
53.125 9.320316
53.130 9.155704
53.135 9.065175
53.140 8.700576
53.145 8.433196
53.150 7.873144
53.155 7.920346
53.160 7.776696
53.165 7.882461
53.170 7.926155
53.175 8.222513
53.180 8.38505
53.185 8.469971
53.190 8.652377
53.195 8.946712
53.200 8.888371
53.205 8.513528
53.210 8.359678
53.215 8.553074
53.220 8.736739
53.225 8.408801
53.230 8.200722
53.235 8.267158
53.240 8.328793
53.245 8.05947
53.250 7.79445
53.255 8.084394
53.260 8.094437
53.265 7.939773
53.270 7.964513
53.275 8.143321
53.280 8.258383
53.285 8.049479
53.290 7.703292
53.295 7.804
53.300 8.465295
53.305 9.182502
53.310 9.477073
53.315 9.848137
53.320 9.927297
53.325 10.354884
53.330 10.707084
53.335 9.996927
53.340 9.712159
53.345 9.813685
53.350 10.081267
53.355 9.912348
53.360 9.581
53.365 9.559658
53.370 9.872924
53.375 9.813273
53.380 9.302653
53.385 9.338834
53.390 9.230243
53.395 9.154864
53.400 9.068512
53.405 8.727147
53.410 8.747438
53.415 9.189611
53.420 9.403399
53.425 9.581374
53.430 9.730684
53.435 9.623963
53.440 9.460959
53.445 9.045565
53.450 8.908629
53.455 8.890417
53.460 9.106228
53.465 9.242652
53.470 9.475446
53.475 9.828047
53.480 10.108248
53.485 10.049006
53.490 10.165516
53.495 10.052499
53.500 10.059887
53.505 10.067862
53.510 9.929875
53.515 9.592781
53.520 9.706805
53.525 9.42197
53.530 9.286042
53.535 9.197401
53.540 9.191341
53.545 9.169967
53.550 9.330741
53.555 9.211928
53.560 9.075443
53.565 8.969843
53.570 9.217282
53.575 9.404352
53.580 9.768023
53.585 9.919504
53.590 10.016026
53.595 10.08223
53.600 10.06796
53.605 10.254908
53.610 10.419534
53.615 9.958308
53.620 9.503695
53.625 9.964208
53.630 10.021725
53.635 9.762038
53.640 9.586167
53.645 9.473949
53.650 9.415846
53.655 9.395529
53.660 8.937799
53.665 8.587909
53.670 8.490361
53.675 8.593329
53.680 9.068372
53.685 9.534838
53.690 9.330959
53.695 9.733415
53.700 10.048256
53.705 9.964128
53.710 9.721961
53.715 9.149295
53.720 9.222879
53.725 9.48292
53.730 9.248128
53.735 9.692687
53.740 10.065288
53.745 10.350773
53.750 10.391815
53.755 10.525379
53.760 10.633807
53.765 10.791217
53.770 10.409384
53.775 9.817651
53.780 9.433884
53.785 9.210879
53.790 8.997211
53.795 8.639436
53.800 8.824053
53.805 9.250973
53.810 9.678455
53.815 9.741452
53.820 9.819793
53.825 9.993051
53.830 10.056313
53.835 9.716065
53.840 9.607117
53.845 9.513681
53.850 9.643206
53.855 9.654457
53.860 9.928989
53.865 9.845512
53.870 10.06862
53.875 10.050059
53.880 9.957821
53.885 9.971652
53.890 9.394165
53.895 8.91135
53.900 8.676324
53.905 8.332505
53.910 8.191975
53.915 8.216161
53.920 8.242501
53.925 8.652236
53.930 9.195404
53.935 9.253487
53.940 9.28353
53.945 9.336351
53.950 9.345913
53.955 9.508023
53.960 9.666136
53.965 9.571161
53.970 9.892833
53.975 10.370975
53.980 10.288393
53.985 10.449172
53.990 10.212769
53.995 9.886629
54.000 9.993614
54.005 9.464639
54.010 9.36778
54.015 9.246739
54.020 9.507943
54.025 10.058435
54.030 10.34175
54.035 10.288647
54.040 10.136556
54.045 9.809013
54.050 9.256731
54.055 8.654888
54.060 8.185456
54.065 8.887312
54.070 9.160209
54.075 9.645599
54.080 10.240973
54.085 10.961795
54.090 11.27424
54.095 11.224043
54.100 10.570015
54.105 10.252102
54.110 10.04186
54.115 9.964151
54.120 10.096089
54.125 10.367773
54.130 10.579664
54.135 10.846062
54.140 10.659102
54.145 10.410206
54.150 10.271137
54.155 10.592752
54.160 10.456933
54.165 10.469063
54.170 10.5485
54.175 10.76328
54.180 11.710897
54.185 11.927637
54.190 11.666685
54.195 11.867369
54.200 12.271833
54.205 12.376865
54.210 12.392279
54.215 11.638202
54.220 11.446189
54.225 11.708449
54.230 11.256361
54.235 11.190732
54.240 11.328149
54.245 11.203718
54.250 11.074553
54.255 10.668875
54.260 10.204393
54.265 10.27335
54.270 10.678684
54.275 10.558886
54.280 10.612081
54.285 10.953551
54.290 11.114092
54.295 11.586576
54.300 11.758006
54.305 11.36108
54.310 11.303555
54.315 11.233675
54.320 10.781299
54.325 10.466763
54.330 10.249441
54.335 9.887196
54.340 9.94417
54.345 9.963601
54.350 10.354897
54.355 10.713924
54.360 10.59533
54.365 10.790066
54.370 10.526494
54.375 10.693212
54.380 10.603067
54.385 10.034157
54.390 9.926731
54.395 9.775285
54.400 9.318446
54.405 9.400463
54.410 9.141983
54.415 9.276725
54.420 9.475096
54.425 9.855962
54.430 10.021341
54.435 10.219617
54.440 10.194173
54.445 10.392356
54.450 10.31927
54.455 10.443268
54.460 10.312534
54.465 10.447929
54.470 10.481323
54.475 10.809686
54.480 10.929281
54.485 10.868284
54.490 10.903302
54.495 10.936397
54.500 10.844334
54.505 10.749904
54.510 10.543453
54.515 10.222888
54.520 10.480232
54.525 10.201766
54.530 10.100997
54.535 10.234385
54.540 10.06222
54.545 9.805016
54.550 9.824756
54.555 9.497883
54.560 9.620486
54.565 9.726734
54.570 10.116585
54.575 10.630656
54.580 11.186916
54.585 11.246903
54.590 11.460097
54.595 11.591859
54.600 11.46437
54.605 11.29117
54.610 10.777227
54.615 10.660165
54.620 11.209873
54.625 11.151128
54.630 10.34968
54.635 9.768713
54.640 9.536562
54.645 9.347368
54.650 9.003055
54.655 8.689538
54.660 8.993295
54.665 9.726908
54.670 10.174685
54.675 10.671011
54.680 11.162916
54.685 11.509325
54.690 11.280707
54.695 11.330946
54.700 11.316669
54.705 11.31516
54.710 10.81917
54.715 10.804235
54.720 10.871284
54.725 10.959947
54.730 10.956991
54.735 10.642972
54.740 10.824981
54.745 10.92885
54.750 10.520396
54.755 10.458106
54.760 10.38721
54.765 10.324985
54.770 10.661899
54.775 10.53184
54.780 10.782651
54.785 10.951235
54.790 11.20715
54.795 11.354758
54.800 11.511583
54.805 11.23737
54.810 11.529433
54.815 11.304205
54.820 11.416953
54.825 11.381085
54.830 11.507153
54.835 11.578261
54.840 11.84337
54.845 11.356445
54.850 11.599775
54.855 11.598653
54.860 11.386147
54.865 10.903578
54.870 10.909602
54.875 10.561984
54.880 10.483774
54.885 10.061489
54.890 10.422477
54.895 10.649617
54.900 10.816531
54.905 10.604902
54.910 11.110919
54.915 11.802588
54.920 11.970864
54.925 11.521261
54.930 11.865296
54.935 11.893615
54.940 12.10174
54.945 11.822045
54.950 11.124234
54.955 11.200841
54.960 11.175885
54.965 11.203361
54.970 11.552537
54.975 11.370078
54.980 11.250074
54.985 11.411007
54.990 11.418784
54.995 11.253487
55.000 10.744942
55.005 10.538722
55.010 10.815861
55.015 10.989845
55.020 11.319799
55.025 11.103848
55.030 11.107634
55.035 11.471021
55.040 11.18893
55.045 11.005729
55.050 11.023992
55.055 10.676614
55.060 10.595223
55.065 10.333359
55.070 10.070893
55.075 10.172665
55.080 9.878997
55.085 9.274868
55.090 9.172812
55.095 9.230539
55.100 9.336584
55.105 9.554419
55.110 9.913462
55.115 10.65699
55.120 11.31581
55.125 11.396679
55.130 11.841218
55.135 11.796027
55.140 11.687813
55.145 11.462502
55.150 11.119304
55.155 11.183918
55.160 10.609066
55.165 10.043365
55.170 9.996215
55.175 9.934605
55.180 9.849044
55.185 9.430319
55.190 9.833081
55.195 9.949658
55.200 9.680996
55.205 9.445619
55.210 9.320786
55.215 9.409979
55.220 9.604383
55.225 9.367333
55.230 9.720548
55.235 10.174204
55.240 10.447828
55.245 10.655457
55.250 10.237344
55.255 10.472321
55.260 9.985288
55.265 10.441942
55.270 11.003398
55.275 11.138548
55.280 11.321707
55.285 11.649939
55.290 12.046669
55.295 12.486891
55.300 12.319465
55.305 11.815322
55.310 11.709485
55.315 11.776914
55.320 11.319101
55.325 11.220741
55.330 11.467134
55.335 11.498897
55.340 11.281244
55.345 11.005665
55.350 10.816994
55.355 10.829389
55.360 10.628922
55.365 10.084123
55.370 9.73111
55.375 9.986069
55.380 10.514404
55.385 10.67616
55.390 10.825547
55.395 11.20066
55.400 11.569931
55.405 12.021874
55.410 12.076669
55.415 12.017463
55.420 12.453962
55.425 12.263456
55.430 11.551146
55.435 11.013967
55.440 10.585149
55.445 10.412419
55.450 9.920698
55.455 9.575699
55.460 10.032758
55.465 10.571498
55.470 10.773298
55.475 10.927164
55.480 11.157361
55.485 11.17557
55.490 11.487948
55.495 11.182818
55.500 11.594392
55.505 11.933577
55.510 12.186411
55.515 11.891015
55.520 11.897633
55.525 11.886389
55.530 12.062719
55.535 11.577984
55.540 11.269485
55.545 11.00711
55.550 11.590664
55.555 11.770793
55.560 11.365368
55.565 11.147529
55.570 10.85481
55.575 10.579035
55.580 10.347527
55.585 10.03264
55.590 10.09043
55.595 10.070086
55.600 9.880125
55.605 9.725859
55.610 10.215987
55.615 10.538171
55.620 10.411415
55.625 10.401285
55.630 10.910868
55.635 11.156619
55.640 11.369094
55.645 11.326203
55.650 11.562413
55.655 11.258176
55.660 11.185069
55.665 10.870235
55.670 10.914094
55.675 11.422447
55.680 11.793368
55.685 11.635833
55.690 11.887034
55.695 11.833603
55.700 11.950156
55.705 12.128353
55.710 11.52231
55.715 11.767207
55.720 12.026032
55.725 12.574357
55.730 12.85358
55.735 12.761392
55.740 12.496785
55.745 12.833701
55.750 12.341002
55.755 12.186658
55.760 11.538641
55.765 11.708939
55.770 11.420535
55.775 11.34441
55.780 10.897089
55.785 10.974325
55.790 10.77876
55.795 10.829449
55.800 10.407495
55.805 10.506402
55.810 10.733029
55.815 11.366858
55.820 11.734088
55.825 11.82296
55.830 11.470307
55.835 11.561929
55.840 11.990051
55.845 12.105059
55.850 11.975286
55.855 11.719995
55.860 12.408596
55.865 13.041526
55.870 13.792771
55.875 14.003523
55.880 13.735692
55.885 13.741055
55.890 13.915224
55.895 13.141811
55.900 13.059919
55.905 12.328526
55.910 12.488382
55.915 12.817487
55.920 12.621764
55.925 12.390676
55.930 13.137081
55.935 12.991779
55.940 13.031412
55.945 13.105658
55.950 12.753745
55.955 12.882007
55.960 12.811507
55.965 12.424163
55.970 12.796178
55.975 12.948277
55.980 12.553812
55.985 12.740414
55.990 12.633439
55.995 12.755686
56.000 12.81188
56.005 12.388924
56.010 12.114626
56.015 12.25232
56.020 12.21394
56.025 11.855337
56.030 11.458401
56.035 11.343867
56.040 11.801085
56.045 12.292863
56.050 12.504136
56.055 12.672682
56.060 12.825988
56.065 13.204093
56.070 13.148227
56.075 12.692302
56.080 12.466854
56.085 12.421151
56.090 12.516796
56.095 13.000678
56.100 12.956458
56.105 12.853697
56.110 12.7076
56.115 12.860855
56.120 12.80648
56.125 12.836584
56.130 12.850247
56.135 12.632639
56.140 13.164554
56.145 13.002275
56.150 12.814848
56.155 12.457203
56.160 12.520197
56.165 12.193475
56.170 12.898225
56.175 12.746822
56.180 12.555307
56.185 12.539314
56.190 12.467512
56.195 12.118505
56.200 11.824489
56.205 11.858837
56.210 11.648335
56.215 11.530486
56.220 11.508519
56.225 11.883451
56.230 11.836464
56.235 12.33849
56.240 12.382439
56.245 12.201443
56.250 12.085084
56.255 11.77802
56.260 11.646073
56.265 11.923519
56.270 11.106045
56.275 10.488579
56.280 10.675521
56.285 10.804271
56.290 11.31399
56.295 11.512573
56.300 12.120896
56.305 12.699344
56.310 12.849195
56.315 12.949185
56.320 12.719609
56.325 12.548588
56.330 12.063848
56.335 11.44443
56.340 11.362095
56.345 11.582927
56.350 11.335316
56.355 11.744464
56.360 11.570974
56.365 11.681583
56.370 11.839107
56.375 12.01315
56.380 11.873174
56.385 12.356039
56.390 12.308301
56.395 12.79217
56.400 12.835569
56.405 12.911982
56.410 12.675494
56.415 13.298958
56.420 13.418767
56.425 13.3255
56.430 13.414485
56.435 13.440276
56.440 13.113008
56.445 12.78072
56.450 12.230781
56.455 11.718802
56.460 11.91228
56.465 11.87905
56.470 11.706983
56.475 12.005336
56.480 12.467115
56.485 12.863429
56.490 13.386506
56.495 13.335917
56.500 13.238282
56.505 13.276757
56.510 13.59773
56.515 13.549392
56.520 13.705567
56.525 13.695723
56.530 13.926028
56.535 14.025934
56.540 14.087968
56.545 13.962418
56.550 13.419722
56.555 12.744102
56.560 12.334528
56.565 11.805571
56.570 11.751756
56.575 11.734865
56.580 11.812052
56.585 12.465878
56.590 13.253695
56.595 12.927031
56.600 13.148731
56.605 13.161156
56.610 13.266669
56.615 13.58812
56.620 13.690641
56.625 13.431108
56.630 13.772167
56.635 13.670453
56.640 13.854509
56.645 13.594594
56.650 12.707093
56.655 12.124352
56.660 11.681355
56.665 11.882748
56.670 11.8805
56.675 11.857454
56.680 11.580391
56.685 12.214544
56.690 12.478472
56.695 12.311821
56.700 11.935511
56.705 11.765801
56.710 11.405961
56.715 11.398952
56.720 11.416919
56.725 11.549112
56.730 11.787971
56.735 12.08407
56.740 11.966849
56.745 11.783742
56.750 11.944886
56.755 12.291053
56.760 13.222065
56.765 13.577438
56.770 13.85288
56.775 14.495232
56.780 14.912409
56.785 15.263709
56.790 14.751506
56.795 14.434499
56.800 14.065728
56.805 13.658655
56.810 13.772979
56.815 13.79601
56.820 12.998353
56.825 12.903197
56.830 12.802733
56.835 13.198483
56.840 12.952512
56.845 12.877897
56.850 12.436806
56.855 12.318437
56.860 12.172495
56.865 11.974509
56.870 12.050245
56.875 11.987984
56.880 11.307202
56.885 11.46783
56.890 11.486755
56.895 11.673577
56.900 12.103786
56.905 12.295247
56.910 12.574605
56.915 13.05859
56.920 13.923385
56.925 14.558533
56.930 14.740623
56.935 14.227744
56.940 14.340161
56.945 14.727352
56.950 15.015556
56.955 15.086424
56.960 15.003987
56.965 14.69765
56.970 14.716576
56.975 14.50623
56.980 14.28221
56.985 13.859867
56.990 13.544589
56.995 13.187222
57.000 13.254398
57.005 13.41519
57.010 13.342347
57.015 13.680105
57.020 13.418613
57.025 13.24012
57.030 13.48451
57.035 13.419852
57.040 13.14426
57.045 13.146037
57.050 13.136168
57.055 13.172067
57.060 13.409466
57.065 13.235229
57.070 12.973662
57.075 12.899137
57.080 12.478404
57.085 12.167298
57.090 12.242014
57.095 11.842224
57.100 12.047814
57.105 12.60034
57.110 12.827096
57.115 12.895927
57.120 12.734357
57.125 12.5803
57.130 13.070505
57.135 13.231208
57.140 13.153069
57.145 13.109298
57.150 13.389521
57.155 13.899685
57.160 13.934658
57.165 13.65738
57.170 13.388499
57.175 13.402641
57.180 13.832875
57.185 13.980573
57.190 13.938715
57.195 13.982838
57.200 14.299587
57.205 14.320702
57.210 14.496488
57.215 14.439154
57.220 14.32248
57.225 14.396445
57.230 13.827887
57.235 13.655871
57.240 13.414673
57.245 12.75901
57.250 12.73307
57.255 12.886055
57.260 13.164399
57.265 13.774521
57.270 13.844499
57.275 13.927966
57.280 14.37569
57.285 14.089623
57.290 14.260489
57.295 14.644117
57.300 14.716133
57.305 15.49109
57.310 15.910718
57.315 16.229574
57.320 17.171825
57.325 16.860117
57.330 16.3925
57.335 16.393
57.340 15.71441
57.345 15.530121
57.350 15.069924
57.355 14.35869
57.360 14.072783
57.365 14.210235
57.370 13.986905
57.375 13.752826
57.380 14.048474
57.385 14.121861
57.390 14.196152
57.395 14.798881
57.400 14.754909
57.405 14.660282
57.410 14.281096
57.415 13.766067
57.420 13.323875
57.425 13.308966
57.430 12.656673
57.435 12.375347
57.440 12.389968
57.445 13.088311
57.450 13.039618
57.455 12.898844
57.460 13.195949
57.465 13.543718
57.470 13.83256
57.475 14.094108
57.480 14.073853
57.485 14.145082
57.490 14.354218
57.495 14.200971
57.500 14.22703
57.505 14.237758
57.510 13.99146
57.515 13.700381
57.520 13.481809
57.525 13.190683
57.530 12.700527
57.535 12.540388
57.540 12.521464
57.545 13.12495
57.550 13.248065
57.555 13.890712
57.560 14.331367
57.565 14.90949
57.570 15.048872
57.575 15.119452
57.580 14.630386
57.585 14.399456
57.590 14.315883
57.595 14.205204
57.600 14.238604
57.605 13.972776
57.610 13.631214
57.615 14.079491
57.620 14.224648
57.625 13.983711
57.630 13.951327
57.635 13.577374
57.640 13.757598
57.645 13.498914
57.650 13.022637
57.655 13.239878
57.660 13.378068
57.665 12.730669
57.670 12.760784
57.675 12.96551
57.680 13.390871
57.685 13.367237
57.690 13.421031
57.695 13.729523
57.700 14.315076
57.705 14.593485
57.710 14.302807
57.715 14.466696
57.720 14.79652
57.725 14.535728
57.730 14.262856
57.735 13.895495
57.740 14.082952
57.745 13.880392
57.750 13.673211
57.755 13.626269
57.760 13.297586
57.765 13.911159
57.770 14.263754
57.775 14.692722
57.780 15.389229
57.785 15.316567
57.790 15.21929
57.795 15.798621
57.800 15.204975
57.805 15.144323
57.810 14.975021
57.815 15.426372
57.820 15.905096
57.825 16.071474
57.830 15.701571
57.835 16.064913
57.840 16.121054
57.845 15.667381
57.850 14.751331
57.855 14.418327
57.860 14.408238
57.865 15.100148
57.870 15.53489
57.875 15.501487
57.880 15.614417
57.885 15.755543
57.890 15.987374
57.895 16.173586
57.900 15.380333
57.905 14.742723
57.910 14.561267
57.915 14.189891
57.920 14.045539
57.925 13.682437
57.930 13.382206
57.935 14.191772
57.940 14.418975
57.945 14.803995
57.950 15.405301
57.955 15.548985
57.960 15.707819
57.965 15.920575
57.970 15.990902
57.975 16.103792
57.980 15.650631
57.985 15.749243
57.990 16.069729
57.995 15.815149
58.000 15.660485
58.005 15.114376
58.010 15.217761
58.015 15.52655
58.020 15.348062
58.025 15.108441
58.030 15.660861
58.035 15.8768
58.040 15.872803
58.045 16.406469
58.050 16.115255
58.055 16.242668
58.060 16.874357
58.065 16.740355
58.070 16.50901
58.075 16.165743
58.080 15.894663
58.085 16.495087
58.090 16.958435
58.095 16.840477
58.100 16.955074
58.105 17.542566
58.110 17.909081
58.115 18.027348
58.120 18.095533
58.125 17.218218
58.130 16.724197
58.135 16.215271
58.140 16.086704
58.145 16.536999
58.150 16.964048
58.155 16.805336
58.160 17.209484
58.165 17.603029
58.170 18.026054
58.175 17.856192
58.180 17.720911
58.185 16.73028
58.190 17.016514
58.195 17.149776
58.200 17.331469
58.205 17.698856
58.210 17.879103
58.215 17.409334
58.220 17.366001
58.225 16.989618
58.230 17.291748
58.235 17.317755
58.240 16.868217
58.245 16.574493
58.250 17.255247
58.255 17.624222
58.260 17.443375
58.265 17.215635
58.270 16.80743
58.275 16.663887
58.280 16.645687
58.285 16.523235
58.290 16.623409
58.295 16.392412
58.300 16.237062
58.305 17.260201
58.310 17.638403
58.315 17.357561
58.320 17.135469
58.325 17.265535
58.330 17.927666
58.335 18.352854
58.340 18.169106
58.345 18.514851
58.350 19.036457
58.355 19.495754
58.360 19.785179
58.365 19.958212
58.370 20.099272
58.375 20.012716
58.380 19.642572
58.385 19.878281
58.390 20.104544
58.395 20.169147
58.400 20.289352
58.405 20.046127
58.410 20.520414
58.415 21.456411
58.420 21.89957
58.425 22.121647
58.430 22.504984
58.435 22.966736
58.440 23.023165
58.445 23.015682
58.450 23.334164
58.455 23.095718
58.460 23.159851
58.465 23.013577
58.470 23.610573
58.475 24.517353
58.480 24.811136
58.485 24.910004
58.490 26.401922
58.495 27.054548
58.500 27.369226
58.505 27.549326
