!@!!GADDS PLOTSO FILE: Chi integration type
!@!!Title/SampleName: map-a0
!@!!Comment: ?
!@!!User: Bruker Instrument Administrator
!@!!Site: University of Illinois Chicago
!@!!Frame: map-a0_01_000.gfrm
!@!!Wavelengths    1.54184   1.54056   1.54439
!@!!Frame angles: 2Theta: 63.000 Omega: 50.000 Phi: 0.000 Chi: 90.000
!@!!Integration range: 2Theta: 53.000 to 73.000  Gamma: -105.000 to -75.000
!@!!Integration method: bin normalized
!@!N
!@!SS
!@!M
!@!L 0.0 0.0 0.0 0.0
!@!XDegrees
!@!YCounts
53.000 8.64222
53.005 9.045321
53.010 9.208688
53.015 9.171069
53.020 8.986336
53.025 8.922159
53.030 9.380378
53.035 9.446352
53.040 8.990364
53.045 8.834263
53.050 8.959143
53.055 9.22463
53.060 9.023345
53.065 8.136136
53.070 8.040606
53.075 8.481479
53.080 8.169679
53.085 8.109283
53.090 7.93431
53.095 7.8375
53.100 8.223934
53.105 8.62566
53.110 8.908894
53.115 9.071095
53.120 9.082892
53.125 9.237143
53.130 9.38475
53.135 9.205662
53.140 8.528815
53.145 8.387775
53.150 8.174072
53.155 8.0684
53.160 8.14966
53.165 8.255342
53.170 8.232475
53.175 8.656589
53.180 8.360152
53.185 8.437778
53.190 8.52381
53.195 8.367837
53.200 8.222011
53.205 8.399461
53.210 8.273335
53.215 8.214375
53.220 8.115738
53.225 8.157785
53.230 8.106804
53.235 8.24648
53.240 8.396562
53.245 8.798447
53.250 9.169294
53.255 9.067724
53.260 9.253529
53.265 9.487933
53.270 8.921584
53.275 8.475544
53.280 8.09064
53.285 7.840774
53.290 7.628959
53.295 7.072303
53.300 6.740715
53.305 6.967319
53.310 7.07563
53.315 7.253092
53.320 7.554935
53.325 7.529376
53.330 8.023438
53.335 8.248607
53.340 8.027428
53.345 7.970256
53.350 7.986696
53.355 7.835923
53.360 7.784831
53.365 7.708685
53.370 7.922998
53.375 8.333829
53.380 8.659954
53.385 9.140806
53.390 9.441914
53.395 9.379672
53.400 9.414142
53.405 9.106012
53.410 9.028299
53.415 8.757979
53.420 8.931857
53.425 8.902002
53.430 8.764893
53.435 8.715522
53.440 8.869949
53.445 9.083133
53.450 8.860419
53.455 8.607452
53.460 8.515998
53.465 8.476901
53.470 8.208729
53.475 7.884084
53.480 7.752424
53.485 7.718207
53.490 8.011316
53.495 8.262573
53.500 8.24845
53.505 8.339848
53.510 8.424677
53.515 8.509502
53.520 8.673624
53.525 8.426763
53.530 8.719831
53.535 9.042736
53.540 8.968487
53.545 8.887287
53.550 8.670949
53.555 8.564628
53.560 8.440194
53.565 8.549714
53.570 8.982152
53.575 9.364879
53.580 9.375881
53.585 9.519681
53.590 9.543991
53.595 9.251184
53.600 8.689282
53.605 8.211386
53.610 8.528502
53.615 8.464241
53.620 8.46176
53.625 8.420912
53.630 8.920076
53.635 9.327287
53.640 9.346239
53.645 9.22701
53.650 9.443772
53.655 10.041463
53.660 10.077387
53.665 9.642936
53.670 9.09474
53.675 8.942414
53.680 8.661521
53.685 8.287452
53.690 7.598577
53.695 7.813047
53.700 8.714815
53.705 9.115698
53.710 9.659556
53.715 9.988036
53.720 10.059308
53.725 10.426977
53.730 10.159507
53.735 9.550212
53.740 9.508726
53.745 9.129261
53.750 9.17436
53.755 9.422611
53.760 9.326321
53.765 8.996941
53.770 9.359622
53.775 9.376271
53.780 9.289342
53.785 9.459406
53.790 9.5467
53.795 9.68189
53.800 10.015059
53.805 9.845142
53.810 9.937513
53.815 9.788189
53.820 9.600765
53.825 9.473206
53.830 9.30605
53.835 9.277875
53.840 9.567425
53.845 9.624155
53.850 9.716362
53.855 9.783526
53.860 9.971161
53.865 10.124773
53.870 9.890081
53.875 9.459399
53.880 9.083545
53.885 8.57515
53.890 7.688854
53.895 7.149586
53.900 7.257438
53.905 7.457549
53.910 7.476436
53.915 7.506047
53.920 7.665159
53.925 8.219831
53.930 8.266772
53.935 7.720624
53.940 7.511045
53.945 7.368571
53.950 7.349958
53.955 7.768515
53.960 7.957177
53.965 8.56761
53.970 8.648253
53.975 9.113997
53.980 10.009578
53.985 10.18854
53.990 9.93001
53.995 9.716179
54.000 9.758002
54.005 10.050724
54.010 9.644825
54.015 9.432207
54.020 9.577357
54.025 9.920923
54.030 9.754212
54.035 9.555087
54.040 9.339501
54.045 8.93473
54.050 8.477198
54.055 8.183831
54.060 8.056728
54.065 8.258302
54.070 8.033142
54.075 8.26845
54.080 8.862265
54.085 9.254678
54.090 9.513698
54.095 9.70361
54.100 9.328755
54.105 9.295133
54.110 9.168846
54.115 8.730758
54.120 8.412582
54.125 8.187109
54.130 8.438852
54.135 8.825044
54.140 9.028673
54.145 9.160143
54.150 9.765248
54.155 9.99954
54.160 9.967024
54.165 9.831124
54.170 9.754309
54.175 9.692506
54.180 9.473766
54.185 9.56479
54.190 9.899042
54.195 10.357328
54.200 10.613325
54.205 10.869685
54.210 11.018831
54.215 11.108209
54.220 10.876262
54.225 10.406233
54.230 10.820438
54.235 10.701297
54.240 11.028711
54.245 11.295861
54.250 11.432553
54.255 11.728629
54.260 11.793086
54.265 11.197255
54.270 11.079362
54.275 10.526992
54.280 10.084386
54.285 9.802685
54.290 9.672432
54.295 9.650818
54.300 9.669625
54.305 9.796101
54.310 9.698034
54.315 9.833045
54.320 9.98075
54.325 9.878604
54.330 9.912727
54.335 9.738406
54.340 10.108512
54.345 10.300635
54.350 9.818181
54.355 9.610909
54.360 9.413734
54.365 9.162336
54.370 8.921624
54.375 9.086874
54.380 9.336162
54.385 10.255077
54.390 10.291592
54.395 10.596944
54.400 10.603513
54.405 10.493694
54.410 10.163394
54.415 10.351467
54.420 10.056981
54.425 9.92315
54.430 9.5864
54.435 9.732553
54.440 9.628309
54.445 9.547954
54.450 9.250852
54.455 9.393111
54.460 9.553731
54.465 9.406649
54.470 9.0407
54.475 8.925223
54.480 9.10428
54.485 8.789522
54.490 8.553429
54.495 8.833274
54.500 9.196143
54.505 9.763034
54.510 9.763641
54.515 9.400944
54.520 9.700408
54.525 9.715978
54.530 9.558932
54.535 9.668315
54.540 10.049199
54.545 9.990923
54.550 9.67055
54.555 9.232105
54.560 9.48991
54.565 9.438623
54.570 9.153267
54.575 8.846355
54.580 9.454248
54.585 10.278386
54.590 11.0028
54.595 10.861559
54.600 10.952502
54.605 11.040002
54.610 11.255113
54.615 11.209876
54.620 11.248659
54.625 10.700735
54.630 10.898366
54.635 10.622719
54.640 10.560274
54.645 10.47865
54.650 10.080248
54.655 10.003404
54.660 9.834203
54.665 9.543336
54.670 9.909001
54.675 10.432281
54.680 10.778067
54.685 10.823599
54.690 10.756523
54.695 11.16338
54.700 11.189815
54.705 10.885671
54.710 10.608315
54.715 10.23525
54.720 9.757841
54.725 9.60393
54.730 9.598368
54.735 9.568505
54.740 9.127415
54.745 8.585355
54.750 8.741692
54.755 9.274196
54.760 9.153888
54.765 9.393917
54.770 9.408697
54.775 9.713916
54.780 10.219085
54.785 9.967159
54.790 9.883824
54.795 10.059261
54.800 10.132614
54.805 10.282468
54.810 10.426927
54.815 10.706069
54.820 11.285798
54.825 11.361414
54.830 11.217116
54.835 10.864408
54.840 10.792156
54.845 10.477659
54.850 10.475224
54.855 10.213008
54.860 10.206469
54.865 10.164706
54.870 10.028586
54.875 10.212001
54.880 9.992638
54.885 10.243349
54.890 10.172805
54.895 9.999516
54.900 10.264832
54.905 10.318813
54.910 10.605121
54.915 10.456945
54.920 9.953783
54.925 9.943
54.930 9.875287
54.935 9.884733
54.940 10.091909
54.945 9.901947
54.950 9.961402
54.955 10.30964
54.960 10.66384
54.965 10.737498
54.970 10.499606
54.975 10.008675
54.980 9.908262
54.985 10.398213
54.990 9.973229
54.995 9.738935
55.000 9.509684
55.005 9.433502
55.010 9.97384
55.015 10.030063
55.020 9.810806
55.025 10.005666
55.030 10.271217
55.035 10.817901
55.040 10.634374
55.045 10.497596
55.050 10.670769
55.055 10.480492
55.060 10.264696
55.065 9.996647
55.070 9.935289
55.075 10.23696
55.080 10.132723
55.085 9.778244
55.090 10.020913
55.095 9.994625
55.100 9.740747
55.105 9.507236
55.110 9.167672
55.115 8.89926
55.120 9.139179
55.125 9.48486
55.130 9.851486
55.135 10.367324
55.140 10.39303
55.145 10.44808
55.150 10.749775
55.155 10.694613
55.160 10.388976
55.165 10.344904
55.170 10.576098
55.175 11.017097
55.180 10.977459
55.185 10.841189
55.190 11.032812
55.195 10.612922
55.200 10.2044
55.205 9.949237
55.210 9.971373
55.215 10.33968
55.220 10.36824
55.225 10.118164
55.230 10.637029
55.235 10.914144
55.240 10.89673
55.245 11.130944
55.250 10.898292
55.255 10.400235
55.260 10.01862
55.265 9.597976
55.270 9.309306
55.275 9.026103
55.280 8.957258
55.285 9.115816
55.290 9.759779
55.295 10.132654
55.300 10.597437
55.305 10.796137
55.310 11.044016
55.315 10.63725
55.320 10.684208
55.325 10.438701
55.330 11.111492
55.335 11.247658
55.340 10.567975
55.345 10.622205
55.350 10.744928
55.355 10.770325
55.360 11.192812
55.365 10.348351
55.370 10.307777
55.375 10.649784
55.380 10.39233
55.385 10.523609
55.390 10.736526
55.395 10.704302
55.400 11.066576
55.405 11.408289
55.410 11.267327
55.415 11.044312
55.420 11.063003
55.425 10.573215
55.430 10.810115
55.435 9.999637
55.440 9.903575
55.445 10.363957
55.450 10.710985
55.455 10.473614
55.460 10.283313
55.465 10.117619
55.470 10.547927
55.475 10.577223
55.480 10.095188
55.485 10.409206
55.490 10.351975
55.495 10.579363
55.500 10.450045
55.505 10.643373
55.510 10.414509
55.515 10.322193
55.520 10.236093
55.525 10.620233
55.530 11.063102
55.535 11.64977
55.540 11.434765
55.545 11.907232
55.550 12.093588
55.555 12.285502
55.560 11.960253
55.565 11.302648
55.570 10.855757
55.575 10.779723
55.580 11.004676
55.585 11.59899
55.590 11.927554
55.595 12.559466
55.600 12.526327
55.605 12.565512
55.610 12.730741
55.615 12.245198
55.620 11.62943
55.625 11.094179
55.630 10.682014
55.635 10.423491
55.640 10.317878
55.645 10.146214
55.650 10.024146
55.655 10.013667
55.660 10.144075
55.665 10.210019
55.670 10.22673
55.675 10.097136
55.680 9.791075
55.685 9.808444
55.690 9.784013
55.695 9.702791
55.700 10.160464
55.705 10.048269
55.710 10.410979
55.715 10.807246
55.720 10.609843
55.725 10.189428
55.730 10.143841
55.735 10.094824
55.740 10.300749
55.745 10.154123
55.750 10.00211
55.755 10.179716
55.760 10.498468
55.765 10.292177
55.770 10.415548
55.775 10.484128
55.780 10.750314
55.785 11.005189
55.790 10.912756
55.795 11.115186
55.800 11.680553
55.805 11.595995
55.810 11.414347
55.815 11.681216
55.820 12.167237
55.825 12.507765
55.830 12.531426
55.835 11.996804
55.840 11.829843
55.845 12.167548
55.850 11.977474
55.855 11.584167
55.860 11.161731
55.865 10.625022
55.870 11.00622
55.875 11.409574
55.880 11.276992
55.885 11.696825
55.890 11.917764
55.895 12.108429
55.900 12.175487
55.905 12.25331
55.910 12.124732
55.915 12.356498
55.920 11.903711
55.925 11.90864
55.930 12.031912
55.935 11.934959
55.940 12.230353
55.945 12.414013
55.950 11.797326
55.955 11.675195
55.960 11.421302
55.965 11.330729
55.970 11.798181
55.975 12.018038
55.980 12.314289
55.985 12.483339
55.990 12.331315
55.995 12.933403
56.000 13.366179
56.005 13.06705
56.010 12.377466
56.015 11.991458
56.020 11.788262
56.025 12.116088
56.030 12.142558
56.035 11.959942
56.040 12.376792
56.045 12.182183
56.050 12.140821
56.055 12.129001
56.060 11.874411
56.065 11.37402
56.070 11.079822
56.075 10.786598
56.080 11.125574
56.085 11.605375
56.090 11.914783
56.095 12.212785
56.100 12.200569
56.105 12.161944
56.110 11.848153
56.115 11.649915
56.120 11.558097
56.125 11.239855
56.130 10.683442
56.135 10.61499
56.140 10.84395
56.145 10.748139
56.150 10.457998
56.155 10.587607
56.160 10.45537
56.165 10.501735
56.170 10.835923
56.175 10.596857
56.180 10.805582
56.185 10.159204
56.190 9.559081
56.195 9.926179
56.200 10.518323
56.205 10.126907
56.210 10.007222
56.215 10.565499
56.220 11.490991
56.225 11.914655
56.230 12.11759
56.235 12.227682
56.240 12.542883
56.245 13.200204
56.250 12.979015
56.255 12.816538
56.260 12.950209
56.265 13.015748
56.270 12.948603
56.275 12.649276
56.280 11.994393
56.285 12.305971
56.290 12.8407
56.295 13.315494
56.300 13.093741
56.305 12.883815
56.310 13.305475
56.315 13.566939
56.320 13.379786
56.325 12.577678
56.330 12.123186
56.335 12.187008
56.340 12.192971
56.345 11.70529
56.350 11.087545
56.355 10.658265
56.360 10.576486
56.365 10.320452
56.370 10.149972
56.375 9.946566
56.380 9.553548
56.385 10.151031
56.390 10.350508
56.395 10.489682
56.400 10.82834
56.405 11.154247
56.410 11.532608
56.415 12.252149
56.420 12.498711
56.425 12.709237
56.430 12.975483
56.435 13.137826
56.440 12.881392
56.445 13.310508
56.450 12.710971
56.455 12.692058
56.460 12.720685
56.465 12.522241
56.470 12.457498
56.475 12.593063
56.480 11.870696
56.485 11.94186
56.490 12.156724
56.495 12.140602
56.500 12.113218
56.505 11.900828
56.510 11.727152
56.515 12.081026
56.520 11.961964
56.525 11.3374
56.530 11.276917
56.535 11.552776
56.540 11.78255
56.545 12.100463
56.550 12.268735
56.555 12.195976
56.560 12.422591
56.565 12.85903
56.570 12.79976
56.575 12.411635
56.580 12.747518
56.585 12.845271
56.590 13.43325
56.595 12.836085
56.600 12.14138
56.605 12.223007
56.610 12.811508
56.615 12.785301
56.620 12.462072
56.625 12.63719
56.630 12.794375
56.635 12.336442
56.640 12.190566
56.645 12.089095
56.650 11.887531
56.655 11.713592
56.660 11.206516
56.665 11.324503
56.670 11.811998
56.675 11.890824
56.680 12.035402
56.685 12.15946
56.690 12.323729
56.695 12.784069
56.700 13.446369
56.705 13.628623
56.710 13.461432
56.715 13.153579
56.720 13.465073
56.725 14.034947
56.730 13.8942
56.735 13.297665
56.740 12.816487
56.745 12.612281
56.750 12.782862
56.755 12.866585
56.760 12.68753
56.765 12.946733
56.770 12.815599
56.775 13.441334
56.780 13.640714
56.785 13.230652
56.790 13.114457
56.795 13.486162
56.800 14.130668
56.805 14.607365
56.810 14.248638
56.815 14.199507
56.820 14.162456
56.825 13.874793
56.830 13.530485
56.835 13.25995
56.840 13.047874
56.845 13.033516
56.850 12.883221
56.855 12.970612
56.860 12.773509
56.865 12.161619
56.870 11.372716
56.875 10.785993
56.880 10.946801
56.885 11.128954
56.890 10.914688
56.895 10.912884
56.900 11.466162
56.905 12.448548
56.910 13.54869
56.915 13.480286
56.920 13.312778
56.925 13.582747
56.930 13.94365
56.935 13.544923
56.940 13.245333
56.945 13.023884
56.950 13.062329
56.955 13.468518
56.960 13.437048
56.965 12.732151
56.970 12.465743
56.975 12.563231
56.980 12.086083
56.985 12.028411
56.990 12.139945
56.995 12.183123
57.000 12.746336
57.005 13.258919
57.010 13.029799
57.015 13.572018
57.020 13.312344
57.025 13.088176
57.030 12.968795
57.035 12.387683
57.040 11.975489
57.045 12.507576
57.050 12.901577
57.055 12.906509
57.060 12.966675
57.065 13.51946
57.070 14.291165
57.075 14.341572
57.080 13.718166
57.085 13.148551
57.090 13.198077
57.095 12.8786
57.100 12.30848
57.105 12.019942
57.110 12.064725
57.115 11.992916
57.120 12.017145
57.125 11.75898
57.130 11.737516
57.135 11.707732
57.140 11.84663
57.145 12.039001
57.150 11.809501
57.155 12.289745
57.160 12.566723
57.165 12.814354
57.170 12.858844
57.175 12.409555
57.180 12.479218
57.185 12.693298
57.190 12.348164
57.195 12.481012
57.200 12.746198
57.205 12.718421
57.210 12.806443
57.215 12.123541
57.220 11.788511
57.225 11.569027
57.230 11.672719
57.235 11.754248
57.240 11.891794
57.245 12.010873
57.250 12.744245
57.255 13.382055
57.260 13.88282
57.265 13.359598
57.270 13.446389
57.275 13.433664
57.280 14.030149
57.285 14.419077
57.290 14.832982
57.295 15.328218
57.300 15.616193
57.305 15.129204
57.310 15.036448
57.315 14.513637
57.320 13.917475
57.325 13.255385
57.330 13.032529
57.335 13.499602
57.340 13.820493
57.345 13.607839
57.350 13.322212
57.355 13.128052
57.360 13.068079
57.365 12.95884
57.370 12.783955
57.375 13.003386
57.380 13.729374
57.385 14.121325
57.390 14.281447
57.395 14.185172
57.400 14.105852
57.405 14.021164
57.410 13.880612
57.415 13.440112
57.420 13.120906
57.425 12.647003
57.430 12.428847
57.435 12.402494
57.440 12.316105
57.445 12.035749
57.450 11.730994
57.455 11.527149
57.460 12.111533
57.465 12.377707
57.470 12.818646
57.475 12.720018
57.480 12.363492
57.485 12.774499
57.490 13.554118
57.495 13.427111
57.500 13.640018
57.505 13.304994
57.510 13.561468
57.515 14.162585
57.520 13.670814
57.525 13.329668
57.530 13.072564
57.535 12.73292
57.540 13.073864
57.545 13.184556
57.550 13.23915
57.555 13.119662
57.560 13.14076
57.565 13.52331
57.570 13.207875
57.575 12.578765
57.580 12.641728
57.585 12.671824
57.590 13.16767
57.595 13.045991
57.600 13.10055
57.605 13.494796
57.610 13.982132
57.615 13.669762
57.620 14.068054
57.625 14.019524
57.630 13.620739
57.635 13.097809
57.640 12.795978
57.645 12.922894
57.650 13.217875
57.655 13.119002
57.660 13.506853
57.665 13.641091
57.670 13.876864
57.675 14.186344
57.680 13.950223
57.685 14.320701
57.690 13.99966
57.695 13.722358
57.700 13.902495
57.705 14.117843
57.710 13.662652
57.715 13.901728
57.720 13.718479
57.725 13.667736
57.730 13.390224
57.735 13.244495
57.740 13.242488
57.745 13.584412
57.750 13.575717
57.755 13.565634
57.760 13.852901
57.765 14.470915
57.770 14.2307
57.775 14.254973
57.780 14.363188
57.785 13.934931
57.790 14.01822
57.795 13.770436
57.800 13.426093
57.805 13.874269
57.810 13.627685
57.815 13.082966
57.820 12.751689
57.825 12.97934
57.830 12.494061
57.835 12.5151
57.840 12.616712
57.845 12.635826
57.850 13.483263
57.855 14.020148
57.860 13.846666
57.865 14.706293
57.870 14.510777
57.875 14.114552
57.880 14.207314
57.885 13.692864
57.890 13.811352
57.895 13.980757
57.900 13.694961
57.905 13.812525
57.910 13.774278
57.915 13.450586
57.920 12.963291
57.925 12.489211
57.930 12.498883
57.935 12.543042
57.940 12.764018
57.945 13.467969
57.950 13.932369
57.955 14.237791
57.960 13.826729
57.965 13.698228
57.970 14.145792
57.975 14.271934
57.980 14.085861
57.985 14.248663
57.990 14.164584
57.995 14.549674
58.000 14.737633
58.005 14.429213
58.010 14.152746
58.015 13.74078
58.020 13.46188
58.025 13.828431
58.030 14.459858
58.035 14.994694
58.040 15.043822
58.045 14.838738
58.050 14.903714
58.055 14.713137
58.060 14.560002
58.065 14.159767
58.070 13.625932
58.075 13.461079
58.080 13.752687
58.085 13.524727
58.090 13.563334
58.095 13.745719
58.100 13.672952
58.105 13.361326
58.110 13.650829
58.115 13.734977
58.120 13.916908
58.125 14.132871
58.130 13.790731
58.135 13.940907
58.140 14.009104
58.145 14.031318
58.150 13.918298
58.155 13.905643
58.160 13.714361
58.165 13.78265
58.170 13.548877
58.175 13.553625
58.180 13.180652
58.185 13.432557
58.190 13.424438
58.195 13.208852
58.200 13.538594
58.205 13.888515
58.210 14.159795
58.215 14.176177
58.220 14.120015
58.225 14.352533
58.230 14.899681
58.235 14.858642
58.240 14.339691
58.245 14.057775
58.250 14.059041
58.255 14.281194
58.260 13.8744
58.265 13.831344
58.270 13.806587
58.275 14.266295
58.280 14.141905
58.285 14.010942
58.290 14.421245
58.295 14.874663
58.300 14.609951
58.305 14.573532
58.310 14.228144
58.315 14.678124
58.320 14.65356
58.325 14.183167
58.330 13.863707
58.335 13.895431
58.340 13.994006
58.345 14.57249
58.350 14.290814
58.355 14.348429
58.360 14.360058
58.365 15.030479
58.370 15.163949
58.375 15.279737
58.380 15.166482
58.385 15.89153
58.390 15.768632
58.395 15.805054
58.400 15.340971
58.405 15.16013
58.410 14.972173
58.415 14.911338
58.420 14.736094
58.425 14.698829
58.430 14.137732
58.435 13.455507
58.440 13.704658
58.445 13.489057
58.450 13.269736
58.455 13.097403
58.460 13.405177
58.465 14.019071
58.470 14.25794
58.475 13.962741
58.480 14.174129
58.485 14.281091
58.490 14.113578
58.495 14.696781
58.500 14.548062
58.505 14.69468
58.510 14.778584
58.515 14.718705
58.520 14.617884
58.525 14.642845
58.530 14.38051
58.535 14.706574
58.540 14.949135
