!@!!GADDS PLOTSO FILE: Chi integration type
!@!!Title/SampleName: map-92
!@!!Comment: ?
!@!!User: Bruker Instrument Administrator
!@!!Site: University of Illinois Chicago
!@!!Frame: map-92_01_000.gfrm
!@!!Wavelengths    1.54184   1.54056   1.54439
!@!!Frame angles: 2Theta: 63.000 Omega: 50.000 Phi: 0.000 Chi: 90.000
!@!!Integration range: 2Theta: 53.000 to 73.000  Gamma: -105.000 to -75.000
!@!!Integration method: bin normalized
!@!N
!@!SS
!@!M
!@!L 0.0 0.0 0.0 0.0
!@!XDegrees
!@!YCounts
53.000 6.820762
53.005 7.215191
53.010 7.611508
53.015 8.061729
53.020 8.566581
53.025 9.119333
53.030 8.992245
53.035 8.999636
53.040 8.752774
53.045 8.294708
53.050 8.00545
53.055 7.873012
53.060 7.731103
53.065 7.698741
53.070 7.528455
53.075 7.585942
53.080 7.333526
53.085 7.765329
53.090 8.111497
53.095 8.791585
53.100 8.768128
53.105 8.761703
53.110 8.857908
53.115 9.0549
53.120 9.192089
53.125 8.670568
53.130 8.301777
53.135 8.398326
53.140 8.394432
53.145 8.577538
53.150 8.859109
53.155 8.556105
53.160 8.816749
53.165 9.137162
53.170 9.206176
53.175 9.211283
53.180 9.059569
53.185 9.224077
53.190 9.172029
53.195 9.075866
53.200 8.833889
53.205 8.739834
53.210 8.966743
53.215 9.122844
53.220 8.565867
53.225 8.481905
53.230 8.618022
53.235 8.650325
53.240 8.929815
53.245 8.782568
53.250 8.968355
53.255 9.48249
53.260 9.619407
53.265 9.600839
53.270 9.472435
53.275 9.353132
53.280 9.343745
53.285 9.015834
53.290 8.88326
53.295 8.523371
53.300 8.345031
53.305 8.465399
53.310 8.242037
53.315 8.266857
53.320 8.342365
53.325 8.730721
53.330 9.443632
53.335 9.257968
53.340 9.110212
53.345 8.804158
53.350 8.764535
53.355 8.842524
53.360 8.286243
53.365 8.187907
53.370 8.576387
53.375 8.696241
53.380 8.895657
53.385 8.653817
53.390 8.770926
53.395 8.769154
53.400 8.404314
53.405 8.078732
53.410 8.111314
53.415 7.942123
53.420 7.820043
53.425 7.96414
53.430 8.169149
53.435 8.354826
53.440 8.922232
53.445 9.135876
53.450 9.253042
53.455 9.458521
53.460 9.291424
53.465 9.113179
53.470 9.271195
53.475 9.32708
53.480 9.117367
53.485 8.805427
53.490 8.69066
53.495 8.574511
53.500 8.46771
53.505 8.303052
53.510 8.512487
53.515 8.796485
53.520 8.820679
53.525 8.999104
53.530 9.525548
53.535 9.645275
53.540 9.411659
53.545 9.253817
53.550 9.673352
53.555 9.592855
53.560 9.147416
53.565 8.574137
53.570 8.775516
53.575 9.021973
53.580 9.000716
53.585 8.986867
53.590 9.630928
53.595 10.070039
53.600 10.118924
53.605 9.743101
53.610 9.422045
53.615 9.188576
53.620 8.897734
53.625 8.626227
53.630 8.766274
53.635 9.1116
53.640 8.999608
53.645 9.112239
53.650 9.481684
53.655 9.59783
53.660 10.114235
53.665 9.998498
53.670 10.052551
53.675 10.084742
53.680 9.818548
53.685 9.716633
53.690 9.089572
53.695 8.575553
53.700 8.291986
53.705 8.434437
53.710 8.952646
53.715 9.454186
53.720 9.46853
53.725 9.494022
53.730 9.463844
53.735 9.870984
53.740 9.650403
53.745 9.692481
53.750 9.401483
53.755 9.411333
53.760 9.366945
53.765 8.955595
53.770 8.483228
53.775 8.290907
53.780 8.300184
53.785 8.730561
53.790 8.801625
53.795 9.032894
53.800 9.387218
53.805 9.397786
53.810 9.412051
53.815 9.379008
53.820 9.162619
53.825 9.579459
53.830 9.404431
53.835 9.350607
53.840 9.537202
53.845 9.444011
53.850 9.316641
53.855 9.392487
53.860 9.615874
53.865 9.293251
53.870 9.493198
53.875 9.277375
53.880 9.01442
53.885 8.876857
53.890 9.291641
53.895 9.696315
53.900 10.434769
53.905 10.73944
53.910 10.886459
53.915 11.345539
53.920 11.504005
53.925 11.079965
53.930 10.523336
53.935 9.857914
53.940 9.544221
53.945 9.316483
53.950 8.978457
53.955 8.934856
53.960 8.810048
53.965 8.859845
53.970 8.810863
53.975 9.193785
53.980 8.862409
53.985 8.912504
53.990 8.92392
53.995 9.053087
54.000 8.945244
54.005 9.090376
54.010 9.27452
54.015 9.790148
54.020 9.552771
54.025 8.985747
54.030 9.096977
54.035 9.329416
54.040 9.061811
54.045 9.105271
54.050 9.241459
54.055 9.741029
54.060 10.230475
54.065 10.116794
54.070 10.295961
54.075 10.041367
54.080 9.676857
54.085 9.46002
54.090 9.261064
54.095 9.159431
54.100 9.05068
54.105 9.075431
54.110 9.531972
54.115 9.474658
54.120 9.174136
54.125 8.971806
54.130 9.247334
54.135 9.229963
54.140 9.523247
54.145 9.603661
54.150 9.803091
54.155 10.763083
54.160 10.880508
54.165 10.85464
54.170 10.927371
54.175 10.714583
54.180 10.591277
54.185 10.457922
54.190 10.203532
54.195 10.327935
54.200 10.111506
54.205 9.705638
54.210 9.436633
54.215 9.451092
54.220 9.597045
54.225 9.44077
54.230 9.65458
54.235 10.258173
54.240 10.776947
54.245 11.094584
54.250 11.007461
54.255 10.70813
54.260 11.031883
54.265 10.634319
54.270 10.492239
54.275 10.274443
54.280 10.5343
54.285 10.358986
54.290 10.268572
54.295 10.04254
54.300 9.944218
54.305 9.81321
54.310 9.633199
54.315 9.245771
54.320 9.489017
54.325 9.155551
54.330 9.109705
54.335 9.293426
54.340 9.135677
54.345 9.248776
54.350 9.043079
54.355 9.080837
54.360 9.519526
54.365 9.4176
54.370 9.361877
54.375 9.63224
54.380 9.667529
54.385 9.827242
54.390 10.009017
54.395 10.141618
54.400 10.16192
54.405 10.526807
54.410 10.544021
54.415 10.685757
54.420 10.842282
54.425 10.593679
54.430 10.127031
54.435 9.994771
54.440 9.82585
54.445 9.695936
54.450 9.502317
54.455 9.710569
54.460 9.977668
54.465 10.289941
54.470 10.544019
54.475 10.584081
54.480 10.392696
54.485 10.347533
54.490 10.297745
54.495 10.247964
54.500 10.423571
54.505 10.150568
54.510 9.950851
54.515 10.128531
54.520 10.197509
54.525 9.5595
54.530 9.519718
54.535 9.644745
54.540 9.90973
54.545 9.941283
54.550 9.763391
54.555 9.349049
54.560 9.935885
54.565 9.978285
54.570 10.049132
54.575 10.010676
54.580 10.178629
54.585 10.565776
54.590 11.183018
54.595 10.770617
54.600 10.740216
54.605 10.592125
54.610 10.918625
54.615 11.211857
54.620 10.939818
54.625 10.519547
54.630 10.53336
54.635 10.455038
54.640 10.338647
54.645 10.331334
54.650 10.136542
54.655 9.974257
54.660 10.172756
54.665 10.168332
54.670 10.361619
54.675 9.862807
54.680 9.36454
54.685 9.172092
54.690 9.314501
54.695 9.60218
54.700 9.57932
54.705 9.968035
54.710 10.421991
54.715 10.726288
54.720 10.978652
54.725 11.094423
54.730 11.525016
54.735 11.601686
54.740 11.4394
54.745 11.963114
54.750 11.876421
54.755 11.925709
54.760 11.732974
54.765 11.45727
54.770 11.149038
54.775 11.239724
54.780 10.887428
54.785 10.932705
54.790 10.759646
54.795 10.687632
54.800 10.917354
54.805 10.890346
54.810 10.768551
54.815 10.612665
54.820 10.623588
54.825 10.872539
54.830 10.746263
54.835 10.840636
54.840 10.371684
54.845 10.328532
54.850 10.675215
54.855 10.590981
54.860 10.746471
54.865 10.595952
54.870 10.667689
54.875 10.944069
54.880 10.704295
54.885 10.406075
54.890 10.306212
54.895 10.195346
54.900 9.894192
54.905 9.815265
54.910 10.102407
54.915 10.54694
54.920 10.878804
54.925 10.759865
54.930 10.815753
54.935 11.446362
54.940 11.814631
54.945 11.80851
54.950 11.676796
54.955 11.388394
54.960 11.320616
54.965 11.118669
54.970 10.501901
54.975 10.225112
54.980 10.517251
54.985 11.011898
54.990 11.412144
54.995 11.425854
55.000 11.331101
55.005 11.327055
55.010 11.241072
55.015 10.635466
55.020 9.878267
55.025 10.016813
55.030 10.100834
55.035 10.068731
55.040 10.18356
55.045 10.384869
55.050 10.740452
55.055 10.832744
55.060 10.822184
55.065 10.966619
55.070 10.819122
55.075 10.516136
55.080 10.428047
55.085 10.447504
55.090 10.239326
55.095 10.179439
55.100 10.460276
55.105 10.674738
55.110 11.099717
55.115 10.656042
55.120 9.837354
55.125 9.475135
55.130 9.292412
55.135 9.699537
55.140 9.990487
55.145 9.81619
55.150 10.333229
55.155 10.753944
55.160 11.44363
55.165 11.501896
55.170 11.133723
55.175 10.991259
55.180 11.26514
55.185 11.493337
55.190 11.604952
55.195 11.54983
55.200 11.580678
55.205 11.505575
55.210 11.328099
55.215 11.417484
55.220 12.171086
55.225 12.462766
55.230 11.873593
55.235 11.656907
55.240 11.637094
55.245 11.662279
55.250 11.339311
55.255 10.988773
55.260 11.265898
55.265 11.86513
55.270 12.110569
55.275 12.174431
55.280 12.177114
55.285 12.265385
55.290 11.369473
55.295 11.362178
55.300 11.396927
55.305 11.341669
55.310 11.17648
55.315 10.920211
55.320 10.807113
55.325 11.472443
55.330 10.734163
55.335 10.71693
55.340 11.122761
55.345 11.865568
55.350 11.853654
55.355 11.717327
55.360 11.562451
55.365 11.478705
55.370 10.941148
55.375 10.77112
55.380 10.199121
55.385 10.629044
55.390 10.818839
55.395 10.91886
55.400 11.258357
55.405 11.394689
55.410 11.119911
55.415 11.486919
55.420 11.106001
55.425 10.924482
55.430 11.244036
55.435 11.039842
55.440 10.686088
55.445 10.85122
55.450 10.780725
55.455 10.764656
55.460 10.928289
55.465 11.034441
55.470 11.323077
55.475 11.703499
55.480 11.562461
55.485 11.274881
55.490 11.465106
55.495 11.506972
55.500 11.483557
55.505 11.845053
55.510 11.6259
55.515 11.796081
55.520 11.984393
55.525 11.658981
55.530 11.223145
55.535 11.119214
55.540 10.457372
55.545 10.122012
55.550 10.167715
55.555 9.980423
55.560 10.452277
55.565 10.884071
55.570 10.453993
55.575 10.878584
55.580 11.22701
55.585 11.40239
55.590 11.562022
55.595 11.447043
55.600 11.148858
55.605 11.763449
55.610 11.815503
55.615 11.974569
55.620 11.806584
55.625 11.904782
55.630 11.780532
55.635 11.405661
55.640 11.069839
55.645 10.886956
55.650 11.01342
55.655 11.253177
55.660 10.944132
55.665 10.804314
55.670 10.653597
55.675 10.824514
55.680 11.107786
55.685 10.731668
55.690 10.88986
55.695 11.500929
55.700 12.392075
55.705 12.716756
55.710 12.709377
55.715 12.986694
55.720 13.079073
55.725 12.906403
55.730 12.185851
55.735 11.613511
55.740 11.421092
55.745 10.986147
55.750 10.940057
55.755 10.966599
55.760 10.686155
55.765 10.965297
55.770 11.238552
55.775 11.723353
55.780 11.702123
55.785 11.527013
55.790 11.192527
55.795 11.623884
55.800 11.557055
55.805 11.044576
55.810 10.598409
55.815 10.476572
55.820 10.606676
55.825 10.957046
55.830 10.646401
55.835 10.960809
55.840 10.800577
55.845 11.148152
55.850 11.601413
55.855 11.730742
55.860 11.830429
55.865 11.808381
55.870 11.779502
55.875 12.420293
55.880 12.002568
55.885 11.792771
55.890 11.718723
55.895 11.516507
55.900 11.333567
55.905 11.556445
55.910 11.688875
55.915 11.867479
55.920 11.861578
55.925 11.795362
55.930 11.890775
55.935 12.103097
55.940 11.550011
55.945 11.231984
55.950 11.229298
55.955 11.551692
55.960 12.025613
55.965 11.870374
55.970 11.840401
55.975 12.4069
55.980 12.491706
55.985 12.152948
55.990 11.585061
55.995 11.497685
56.000 11.63713
56.005 11.441138
56.010 10.998453
56.015 11.423385
56.020 11.692142
56.025 11.597743
56.030 11.806165
56.035 11.816524
56.040 12.310471
56.045 12.687602
56.050 12.544425
56.055 12.904696
56.060 12.395433
56.065 12.007777
56.070 11.937829
56.075 12.116453
56.080 12.217815
56.085 12.555071
56.090 12.563325
56.095 12.985746
56.100 13.067965
56.105 12.832186
56.110 12.630497
56.115 12.94979
56.120 12.231016
56.125 11.916304
56.130 11.932775
56.135 12.41563
56.140 12.923124
56.145 12.933574
56.150 12.756169
56.155 13.314353
56.160 13.393776
56.165 13.548548
56.170 13.534297
56.175 12.741792
56.180 12.037054
56.185 11.539054
56.190 11.545697
56.195 11.57181
56.200 11.235583
56.205 11.275454
56.210 12.040292
56.215 13.036242
56.220 13.099852
56.225 12.328322
56.230 12.133599
56.235 12.219007
56.240 11.969789
56.245 11.76127
56.250 11.007981
56.255 11.339187
56.260 11.819813
56.265 11.868192
56.270 11.462134
56.275 11.608626
56.280 11.378601
56.285 12.103332
56.290 11.904832
56.295 11.431071
56.300 11.508571
56.305 11.75437
56.310 11.525553
56.315 11.885982
56.320 11.089253
56.325 11.105707
56.330 11.643187
56.335 11.909039
56.340 12.416402
56.345 12.407632
56.350 12.224231
56.355 12.791747
56.360 12.808931
56.365 12.368649
56.370 11.740399
56.375 10.930386
56.380 10.488695
56.385 10.73512
56.390 10.401711
56.395 10.947854
56.400 11.083677
56.405 11.153062
56.410 11.520375
56.415 11.910131
56.420 12.302211
56.425 12.444606
56.430 12.240849
56.435 12.47031
56.440 12.866838
56.445 13.063408
56.450 12.824515
56.455 12.330117
56.460 12.627965
56.465 12.494471
56.470 12.553816
56.475 12.667407
56.480 12.447678
56.485 12.609426
56.490 12.867478
56.495 12.654345
56.500 12.489277
56.505 12.439471
56.510 11.99148
56.515 11.751316
56.520 12.138945
56.525 11.888167
56.530 12.095548
56.535 12.441963
56.540 12.57199
56.545 13.169517
56.550 13.229362
56.555 12.96427
56.560 12.835002
56.565 12.121335
56.570 11.720736
56.575 11.851265
56.580 12.114945
56.585 11.764366
56.590 11.490602
56.595 11.405389
56.600 11.707008
56.605 11.781806
56.610 11.461351
56.615 11.325542
56.620 12.086576
56.625 12.449677
56.630 12.560879
56.635 12.829737
56.640 13.051153
56.645 13.083968
56.650 12.692692
56.655 12.710422
56.660 13.141382
56.665 13.579983
56.670 13.548408
56.675 13.074105
56.680 13.142356
56.685 12.984667
56.690 12.372251
56.695 12.428423
56.700 12.033566
56.705 11.9926
56.710 12.348349
56.715 12.199662
56.720 12.331421
56.725 11.899718
56.730 11.456763
56.735 11.932764
56.740 11.876792
56.745 11.933666
56.750 12.469605
56.755 13.327161
56.760 13.95381
56.765 14.265635
56.770 14.279725
56.775 14.089566
56.780 14.001597
56.785 13.565293
56.790 13.482409
56.795 13.425417
56.800 13.490096
56.805 13.624496
56.810 14.060575
56.815 14.266047
56.820 14.359646
56.825 13.86096
56.830 13.671356
56.835 13.187867
56.840 13.568006
56.845 13.771944
56.850 13.634604
56.855 13.48124
56.860 13.425164
56.865 13.359792
56.870 13.843693
56.875 13.628616
56.880 13.431714
56.885 13.042648
56.890 13.11218
56.895 13.417279
56.900 13.658413
56.905 13.052595
56.910 12.968102
56.915 12.995084
56.920 13.23227
56.925 13.388097
56.930 13.516568
56.935 13.389997
56.940 13.59368
56.945 13.618201
56.950 13.899179
56.955 14.04845
56.960 13.689163
56.965 12.911014
56.970 12.872894
56.975 13.041826
56.980 13.028117
56.985 12.663821
56.990 12.804381
56.995 13.200808
57.000 13.558349
57.005 13.427438
57.010 12.712805
57.015 12.670296
57.020 12.533588
57.025 12.541825
57.030 12.253707
57.035 12.454881
57.040 12.589755
57.045 12.656651
57.050 12.732355
57.055 12.729991
57.060 12.123267
57.065 12.39702
57.070 12.429708
57.075 11.844463
57.080 11.958043
57.085 11.533195
57.090 12.169524
57.095 12.517559
57.100 12.271575
57.105 12.196034
57.110 12.818544
57.115 12.885839
57.120 12.985936
57.125 12.980377
57.130 12.843254
57.135 12.854238
57.140 12.987259
57.145 13.118356
57.150 13.069268
57.155 12.894918
57.160 12.625108
57.165 12.735739
57.170 13.162694
57.175 12.990878
57.180 12.44988
57.185 12.281452
57.190 12.105391
57.195 12.077691
57.200 12.480464
57.205 12.44588
57.210 13.107139
57.215 13.548564
57.220 13.802889
57.225 13.895243
57.230 13.73229
57.235 13.60686
57.240 13.45669
57.245 13.081358
57.250 12.586555
57.255 12.255121
57.260 12.673589
57.265 13.007357
57.270 12.763761
57.275 12.543748
57.280 12.214401
57.285 12.193695
57.290 12.347765
57.295 11.838303
57.300 11.50274
57.305 11.439496
57.310 11.598985
57.315 11.538286
57.320 11.908306
57.325 11.722965
57.330 11.869928
57.335 12.054875
57.340 11.947143
57.345 11.888905
57.350 12.561927
57.355 12.692818
57.360 13.129231
57.365 13.070979
57.370 13.22568
57.375 13.552812
57.380 13.639195
57.385 13.444537
57.390 13.198547
57.395 13.293204
57.400 13.472074
57.405 13.148838
57.410 12.714002
57.415 12.94909
57.420 12.906441
57.425 12.744354
57.430 12.322526
57.435 12.505014
57.440 12.690247
57.445 12.903242
57.450 13.055848
57.455 13.836287
57.460 14.217607
57.465 14.389394
57.470 14.776779
57.475 14.734692
57.480 14.833314
57.485 15.092719
57.490 14.49379
57.495 14.921206
57.500 15.107476
57.505 14.822533
57.510 14.6583
57.515 14.16371
57.520 13.366994
57.525 13.320066
57.530 13.170052
57.535 13.083447
57.540 12.866462
57.545 12.877627
57.550 12.990466
57.555 13.634665
57.560 13.967872
57.565 14.012533
57.570 13.884281
57.575 13.879192
57.580 14.171059
57.585 14.028456
57.590 13.918744
57.595 14.055833
57.600 13.853806
57.605 13.666862
57.610 13.732191
57.615 13.475379
57.620 13.568398
57.625 13.531716
57.630 13.561481
57.635 13.56484
57.640 13.338629
57.645 13.324893
57.650 13.592434
57.655 13.542914
57.660 12.996339
57.665 12.388518
57.670 12.619241
57.675 13.338705
57.680 13.364728
57.685 13.180039
57.690 13.577166
57.695 13.962526
57.700 13.85234
57.705 13.590212
57.710 13.498629
57.715 13.679001
57.720 13.813492
57.725 13.576769
57.730 14.00932
57.735 14.498259
57.740 14.597544
57.745 14.629792
57.750 14.418499
57.755 14.46839
57.760 14.67595
57.765 14.500364
57.770 14.197448
57.775 13.905646
57.780 13.749743
57.785 14.065317
57.790 14.080449
57.795 14.083649
57.800 13.913315
57.805 14.54763
57.810 14.938429
57.815 14.869116
57.820 14.915109
57.825 14.574413
57.830 14.490272
57.835 14.860308
57.840 14.733802
57.845 14.527564
57.850 14.544553
57.855 14.70003
57.860 14.760484
57.865 14.486509
57.870 14.657423
57.875 15.2362
57.880 15.563572
57.885 15.505512
57.890 14.818753
57.895 14.506112
57.900 14.903497
57.905 14.809605
57.910 13.98709
57.915 13.976727
57.920 14.177466
57.925 14.298528
57.930 14.258678
57.935 14.066276
57.940 13.647358
57.945 13.994406
57.950 13.978215
57.955 14.295872
57.960 15.345299
57.965 15.990564
57.970 16.625626
57.975 17.232624
57.980 17.705389
57.985 18.142138
57.990 17.90752
57.995 17.146389
58.000 16.63983
58.005 16.141382
58.010 15.967542
58.015 15.470123
58.020 14.74359
58.025 14.660213
58.030 14.72401
58.035 15.209334
58.040 15.177988
58.045 14.969809
58.050 15.562234
58.055 15.861094
58.060 15.670342
58.065 16.129025
58.070 15.971398
58.075 15.555689
58.080 15.055193
58.085 14.957203
58.090 15.39281
58.095 15.862622
58.100 15.724512
58.105 15.873948
58.110 16.180397
58.115 16.245228
58.120 15.961086
58.125 15.811214
58.130 15.595058
58.135 15.711309
58.140 15.825458
58.145 16.442253
58.150 17.022959
58.155 16.965019
58.160 16.792566
58.165 16.955444
58.170 16.919794
58.175 16.452072
58.180 15.922936
58.185 15.518069
58.190 15.25184
58.195 15.521643
58.200 15.429074
58.205 15.822767
58.210 16.357416
58.215 16.414284
58.220 16.377922
58.225 16.212299
58.230 16.452456
58.235 16.634659
58.240 16.413198
58.245 16.308247
58.250 16.482191
58.255 16.772568
58.260 16.967381
58.265 16.246502
58.270 15.716501
58.275 15.975353
58.280 15.789493
58.285 15.81247
58.290 15.566605
58.295 15.706614
58.300 15.906174
58.305 16.14356
58.310 16.137119
58.315 16.824982
58.320 17.18981
58.325 17.650139
58.330 17.975702
58.335 18.601391
58.340 19.01396
58.345 18.776615
58.350 18.479935
58.355 18.32905
58.360 18.178375
58.365 18.065834
58.370 17.377802
58.375 16.829819
58.380 16.523344
58.385 16.205931
58.390 16.652098
58.395 16.517338
58.400 16.947046
58.405 17.728233
58.410 17.976643
58.415 18.060085
58.420 18.636801
58.425 18.943617
58.430 19.019487
58.435 19.257153
58.440 19.897326
58.445 20.858669
58.450 21.643669
58.455 21.953287
58.460 22.259604
58.465 22.657833
58.470 21.840437
58.475 20.977453
58.480 20.866615
58.485 20.804073
58.490 21.537657
58.495 21.860079
58.500 22.689604
58.505 23.912941
58.510 24.84602
58.515 25.259848
