!@!!GADDS PLOTSO FILE: Chi integration type
!@!!Title/SampleName: map-32
!@!!Comment: ?
!@!!User: Bruker Instrument Administrator
!@!!Site: University of Illinois Chicago
!@!!Frame: map-32_01_000.gfrm
!@!!Wavelengths    1.54184   1.54056   1.54439
!@!!Frame angles: 2Theta: 63.000 Omega: 50.000 Phi: 0.000 Chi: 90.000
!@!!Integration range: 2Theta: 53.000 to 73.000  Gamma: -105.000 to -75.000
!@!!Integration method: bin normalized
!@!N
!@!SS
!@!M
!@!L 0.0 0.0 0.0 0.0
!@!XDegrees
!@!YCounts
53.000 9.116201
53.005 8.801966
53.010 9.103482
53.015 9.21412
53.020 9.521747
53.025 9.605778
53.030 9.914927
53.035 9.821458
53.040 9.609144
53.045 9.513648
53.050 9.083407
53.055 8.734741
53.060 8.487841
53.065 8.565702
53.070 9.081777
53.075 9.759387
53.080 10.218644
53.085 10.910365
53.090 11.156393
53.095 11.276253
53.100 11.531099
53.105 11.805745
53.110 11.577385
53.115 11.504328
53.120 11.497686
53.125 11.560546
53.130 11.19211
53.135 10.862882
53.140 10.984275
53.145 11.181199
53.150 11.144968
53.155 11.479652
53.160 12.157406
53.165 12.351407
53.170 11.893284
53.175 11.547036
53.180 11.81006
53.185 11.917078
53.190 11.487264
53.195 11.027911
53.200 11.448805
53.205 11.834551
53.210 11.766405
53.215 11.813355
53.220 12.102595
53.225 12.244184
53.230 12.22532
53.235 11.797137
53.240 11.657772
53.245 11.588176
53.250 11.46974
53.255 10.945387
53.260 11.00972
53.265 10.907428
53.270 10.929503
53.275 10.89992
53.280 10.624637
53.285 11.061879
53.290 11.212063
53.295 11.438526
53.300 11.312249
53.305 10.525579
53.310 10.42382
53.315 10.439621
53.320 10.203806
53.325 10.267688
53.330 9.988544
53.335 10.306452
53.340 11.043193
53.345 11.509201
53.350 11.575392
53.355 11.429708
53.360 11.176172
53.365 10.9838
53.370 10.869961
53.375 10.780117
53.380 10.63759
53.385 10.482914
53.390 10.473561
53.395 10.908468
53.400 11.236798
53.405 11.441519
53.410 11.274096
53.415 11.061276
53.420 11.272235
53.425 11.443555
53.430 11.098077
53.435 11.171821
53.440 11.003292
53.445 10.795674
53.450 10.990026
53.455 10.773413
53.460 10.30734
53.465 10.161007
53.470 10.145658
53.475 10.180387
53.480 10.429743
53.485 10.356158
53.490 10.41551
53.495 10.417737
53.500 10.244334
53.505 9.969029
53.510 9.812051
53.515 9.520942
53.520 9.527419
53.525 10.075588
53.530 11.216762
53.535 11.84357
53.540 12.192381
53.545 11.90632
53.550 12.47109
53.555 12.034218
53.560 11.427174
53.565 11.152774
53.570 11.148505
53.575 11.193348
53.580 11.108265
53.585 11.012115
53.590 11.289205
53.595 10.961194
53.600 10.221768
53.605 10.246671
53.610 10.582294
53.615 11.329675
53.620 11.718569
53.625 11.947535
53.630 12.681646
53.635 12.916291
53.640 12.217369
53.645 11.557154
53.650 10.904138
53.655 10.653851
53.660 10.506521
53.665 10.338546
53.670 10.636788
53.675 11.098397
53.680 11.220641
53.685 11.673596
53.690 11.516529
53.695 11.316701
53.700 11.062255
53.705 11.091087
53.710 11.032423
53.715 11.311473
53.720 10.808803
53.725 10.981978
53.730 10.950872
53.735 11.054626
53.740 11.024763
53.745 11.407028
53.750 11.807736
53.755 11.6472
53.760 11.335045
53.765 11.345517
53.770 11.206891
53.775 11.055243
53.780 10.245116
53.785 9.917193
53.790 10.385029
53.795 10.727746
53.800 11.127217
53.805 11.705574
53.810 12.260337
53.815 12.373491
53.820 12.364352
53.825 12.41409
53.830 12.402449
53.835 12.26299
53.840 11.753686
53.845 11.136506
53.850 10.843102
53.855 11.0724
53.860 11.315022
53.865 11.116297
53.870 10.811757
53.875 10.431554
53.880 10.490365
53.885 10.596895
53.890 10.289791
53.895 10.230968
53.900 10.233974
53.905 10.383149
53.910 11.26371
53.915 11.560502
53.920 11.962781
53.925 11.766003
53.930 11.828447
53.935 11.906826
53.940 11.900873
53.945 11.844324
53.950 12.0468
53.955 11.991626
53.960 11.621148
53.965 11.159126
53.970 11.018773
53.975 10.812805
53.980 10.523921
53.985 10.162864
53.990 9.680523
53.995 9.816536
54.000 9.858693
54.005 10.138594
54.010 10.402493
54.015 10.362913
54.020 10.840048
54.025 11.384068
54.030 11.582477
54.035 11.876515
54.040 11.982935
54.045 11.893452
54.050 11.780176
54.055 11.192162
54.060 10.891408
54.065 10.5748
54.070 10.370424
54.075 9.969934
54.080 10.301438
54.085 10.424764
54.090 10.940237
54.095 11.688697
54.100 12.090239
54.105 12.102953
54.110 12.474788
54.115 12.161336
54.120 11.81752
54.125 11.660382
54.130 11.377189
54.135 11.894682
54.140 12.171007
54.145 12.022236
54.150 12.108657
54.155 12.341934
54.160 12.1766
54.165 12.166317
54.170 11.736824
54.175 11.318941
54.180 11.52942
54.185 11.671087
54.190 11.917474
54.195 11.722015
54.200 11.375076
54.205 11.031755
54.210 11.263378
54.215 11.591748
54.220 11.716183
54.225 11.915111
54.230 12.553928
54.235 12.997235
54.240 13.477149
54.245 13.476813
54.250 13.136363
54.255 13.073746
54.260 12.952886
54.265 12.670861
54.270 12.645623
54.275 12.45919
54.280 11.745737
54.285 11.31422
54.290 10.916606
54.295 10.801847
54.300 10.695826
54.305 10.980916
54.310 11.10349
54.315 11.767486
54.320 12.234315
54.325 12.402136
54.330 12.52984
54.335 12.309804
54.340 12.25011
54.345 12.468454
54.350 12.346146
54.355 12.156403
54.360 12.167189
54.365 12.245894
54.370 12.807037
54.375 12.639117
54.380 12.245088
54.385 12.208193
54.390 12.207178
54.395 12.132928
54.400 12.208404
54.405 11.778201
54.410 11.705232
54.415 11.878801
54.420 11.857283
54.425 11.405063
54.430 11.296803
54.435 11.215021
54.440 11.200963
54.445 11.613467
54.450 11.557823
54.455 11.96054
54.460 12.422981
54.465 12.352614
54.470 12.456276
54.475 12.594656
54.480 12.493085
54.485 12.683807
54.490 12.803817
54.495 12.742212
54.500 12.750878
54.505 12.446972
54.510 12.122854
54.515 12.259846
54.520 12.407323
54.525 12.616708
54.530 12.581784
54.535 12.391617
54.540 11.973786
54.545 11.845458
54.550 11.618991
54.555 11.639262
54.560 11.427578
54.565 11.428371
54.570 11.632035
54.575 12.355074
54.580 12.209432
54.585 11.887525
54.590 11.429263
54.595 11.041143
54.600 10.753586
54.605 10.190611
54.610 9.9894
54.615 10.372072
54.620 10.5054
54.625 11.187379
54.630 11.770773
54.635 11.908515
54.640 11.927598
54.645 11.417053
54.650 11.42183
54.655 11.200186
54.660 10.703725
54.665 11.009803
54.670 11.602961
54.675 12.594881
54.680 12.988329
54.685 13.296952
54.690 13.244933
54.695 12.983697
54.700 12.7552
54.705 12.349798
54.710 11.781379
54.715 11.532745
54.720 11.212253
54.725 11.442632
54.730 11.30026
54.735 11.130385
54.740 11.452974
54.745 11.587713
54.750 11.565553
54.755 12.04814
54.760 12.692103
54.765 13.017583
54.770 13.093448
54.775 12.915306
54.780 12.967868
54.785 12.632876
54.790 11.749212
54.795 10.995586
54.800 10.917448
54.805 10.675119
54.810 10.44547
54.815 10.554073
54.820 11.107081
54.825 11.549658
54.830 11.735884
54.835 11.382093
54.840 11.308475
54.845 11.291183
54.850 11.557487
54.855 11.614299
54.860 11.690317
54.865 11.989286
54.870 12.760082
54.875 13.264413
54.880 13.403422
54.885 12.997638
54.890 12.700459
54.895 12.640375
54.900 12.60345
54.905 12.317784
54.910 12.204922
54.915 11.916473
54.920 11.746438
54.925 11.971929
54.930 12.139024
54.935 12.098468
54.940 11.755852
54.945 11.711979
54.950 11.899802
54.955 11.691894
54.960 11.123608
54.965 10.830304
54.970 10.964874
54.975 11.18155
54.980 11.567616
54.985 11.728233
54.990 11.829314
54.995 11.887151
55.000 12.08908
55.005 11.632712
55.010 11.272177
55.015 11.003456
55.020 11.538319
55.025 12.499463
55.030 12.792572
55.035 13.027766
55.040 13.27236
55.045 13.490433
55.050 13.462743
55.055 13.329063
55.060 13.077958
55.065 12.960108
55.070 13.117384
55.075 13.303883
55.080 13.434805
55.085 13.038028
55.090 12.648513
55.095 12.354294
55.100 12.404245
55.105 12.48397
55.110 12.883596
55.115 13.037511
55.120 13.139761
55.125 13.662906
55.130 13.81667
55.135 14.043633
55.140 13.784701
55.145 12.894975
55.150 12.956955
55.155 12.699551
55.160 12.396152
55.165 12.527863
55.170 12.122425
55.175 12.331643
55.180 12.572622
55.185 12.251886
55.190 12.705611
55.195 12.734344
55.200 12.486179
55.205 12.17639
55.210 11.953111
55.215 11.569881
55.220 11.37525
55.225 10.704222
55.230 10.226914
55.235 10.161921
55.240 10.284948
55.245 10.970596
55.250 11.624142
55.255 11.788223
55.260 12.380094
55.265 13.009809
55.270 13.269002
55.275 13.227981
55.280 12.606105
55.285 12.759122
55.290 13.17533
55.295 13.118685
55.300 12.444672
55.305 12.391476
55.310 12.370767
55.315 12.412615
55.320 12.099432
55.325 11.859955
55.330 11.478197
55.335 11.858455
55.340 12.044074
55.345 12.190739
55.350 12.478419
55.355 12.608997
55.360 12.985352
55.365 13.379297
55.370 13.191757
55.375 13.147588
55.380 12.926173
55.385 13.094716
55.390 13.113328
55.395 12.966921
55.400 12.631627
55.405 12.648251
55.410 12.570371
55.415 12.515457
55.420 12.584973
55.425 12.67776
55.430 12.421827
55.435 12.958435
55.440 13.192893
55.445 13.494401
55.450 14.364459
55.455 14.372749
55.460 14.602224
55.465 14.857563
55.470 14.440333
55.475 14.04435
55.480 13.730408
55.485 12.8996
55.490 12.529126
55.495 12.406428
55.500 12.53478
55.505 12.88225
55.510 13.437133
55.515 13.531026
55.520 13.900166
55.525 14.059837
55.530 13.654191
55.535 13.784501
55.540 13.861493
55.545 13.465014
55.550 13.388693
55.555 13.000112
55.560 12.964386
55.565 13.204119
55.570 13.451255
55.575 13.659223
55.580 14.311548
55.585 14.80959
55.590 14.936201
55.595 15.226092
55.600 15.328019
55.605 14.453729
55.610 13.878724
55.615 13.335585
55.620 12.604499
55.625 12.664383
55.630 12.489266
55.635 12.572163
55.640 12.917407
55.645 13.020045
55.650 13.054446
55.655 13.024939
55.660 12.978261
55.665 12.045809
55.670 11.6484
55.675 11.57373
55.680 11.819206
55.685 12.3673
55.690 12.629831
55.695 12.789233
55.700 13.464991
55.705 13.551819
55.710 13.882806
55.715 13.583427
55.720 13.522121
55.725 13.403823
55.730 13.497617
55.735 13.213124
55.740 12.794701
55.745 12.069379
55.750 12.064332
55.755 11.979712
55.760 12.200742
55.765 12.212521
55.770 12.306002
55.775 12.393329
55.780 12.613479
55.785 12.122501
55.790 11.704679
55.795 11.323651
55.800 11.531348
55.805 11.978796
55.810 12.151307
55.815 12.396069
55.820 13.089683
55.825 13.820755
55.830 14.109962
55.835 14.434577
55.840 15.108135
55.845 15.413797
55.850 15.182678
55.855 15.037298
55.860 14.970599
55.865 15.267289
55.870 14.399797
55.875 13.94872
55.880 13.804332
55.885 13.855211
55.890 13.907103
55.895 13.594471
55.900 13.547707
55.905 13.812485
55.910 13.978261
55.915 14.054376
55.920 13.550064
55.925 12.992746
55.930 12.730117
55.935 12.614271
55.940 12.720241
55.945 12.774059
55.950 12.971374
55.955 13.081347
55.960 13.372249
55.965 13.242778
55.970 13.380238
55.975 13.569461
55.980 13.596081
55.985 13.541611
55.990 14.000699
55.995 14.214272
56.000 14.56822
56.005 14.458764
56.010 14.023812
56.015 13.537566
56.020 13.451006
56.025 13.292349
56.030 13.004235
56.035 13.006648
56.040 12.650661
56.045 12.871068
56.050 12.865396
56.055 12.831395
56.060 12.685342
56.065 13.183495
56.070 12.941089
56.075 12.925082
56.080 13.122353
56.085 13.490675
56.090 13.456305
56.095 13.384592
56.100 12.818666
56.105 12.391383
56.110 12.25692
56.115 12.199294
56.120 12.229272
56.125 12.82972
56.130 13.269493
56.135 13.202477
56.140 13.439446
56.145 13.812337
56.150 13.614461
56.155 13.356538
56.160 12.713146
56.165 12.930103
56.170 13.660847
56.175 13.775938
56.180 13.419694
56.185 13.35767
56.190 13.582968
56.195 13.647581
56.200 13.789101
56.205 13.660938
56.210 13.715168
56.215 14.515121
56.220 14.285905
56.225 14.431258
56.230 14.986095
56.235 14.607689
56.240 15.005569
56.245 15.17269
56.250 15.209105
56.255 15.68806
56.260 15.224624
56.265 14.648285
56.270 14.963799
56.275 15.042068
56.280 14.891227
56.285 14.520061
56.290 14.647041
56.295 14.717552
56.300 14.866737
56.305 14.449955
56.310 13.85033
56.315 14.489381
56.320 14.662929
56.325 14.285746
56.330 14.400009
56.335 14.088286
56.340 14.476049
56.345 14.387052
56.350 13.867888
56.355 13.594012
56.360 13.808377
56.365 13.812067
56.370 13.83776
56.375 13.873406
56.380 14.175434
56.385 14.18177
56.390 14.068011
56.395 14.196914
56.400 13.67721
56.405 13.454874
56.410 12.978506
56.415 12.591554
56.420 12.398907
56.425 12.835963
56.430 13.570479
56.435 14.351288
56.440 14.041132
56.445 14.205488
56.450 14.471744
56.455 14.513476
56.460 14.441458
56.465 13.555688
56.470 13.708991
56.475 13.997184
56.480 13.889542
56.485 13.794275
56.490 13.95623
56.495 13.680186
56.500 13.815865
56.505 13.890891
56.510 14.161582
56.515 14.003908
56.520 14.281407
56.525 14.12857
56.530 14.257932
56.535 14.124738
56.540 13.691777
56.545 13.679396
56.550 13.976734
56.555 13.830931
56.560 13.672098
56.565 14.083123
56.570 14.257279
56.575 14.678785
56.580 14.57315
56.585 13.705953
56.590 13.749337
56.595 14.143798
56.600 13.908668
56.605 13.758965
56.610 13.508314
56.615 13.540334
56.620 14.49918
56.625 13.977167
56.630 13.698233
56.635 13.891188
56.640 13.815079
56.645 13.817179
56.650 14.503568
56.655 14.448464
56.660 15.01736
56.665 15.570244
56.670 15.543162
56.675 15.50713
56.680 15.193805
56.685 14.82332
56.690 15.163756
56.695 14.847349
56.700 14.746128
56.705 14.429762
56.710 14.674434
56.715 14.711246
56.720 14.910838
56.725 15.028558
56.730 14.693425
56.735 14.58713
56.740 14.575489
56.745 14.818584
56.750 15.237535
56.755 14.41755
56.760 13.995332
56.765 14.779375
56.770 15.148691
56.775 15.600597
56.780 15.367182
56.785 15.136716
56.790 15.852199
56.795 16.702818
56.800 16.387032
56.805 15.93085
56.810 15.542409
56.815 15.511382
56.820 15.757716
56.825 15.665536
56.830 14.795631
56.835 14.711758
56.840 14.59842
56.845 14.528163
56.850 14.710032
56.855 14.420792
56.860 14.485602
56.865 14.724065
56.870 15.287539
56.875 15.663167
56.880 15.846319
56.885 16.055725
56.890 16.335051
56.895 16.447733
56.900 16.719496
56.905 16.211126
56.910 15.877206
56.915 16.071827
56.920 15.791416
56.925 15.136361
56.930 14.858079
56.935 14.657841
56.940 14.747946
56.945 14.728831
56.950 14.439383
56.955 13.906753
56.960 13.972406
56.965 14.377083
56.970 14.130351
56.975 14.17244
56.980 13.962813
56.985 13.756163
56.990 14.508754
56.995 14.804938
57.000 14.329369
57.005 14.685695
57.010 15.079927
57.015 15.776362
57.020 16.089355
57.025 15.892259
57.030 15.662449
57.035 15.669827
57.040 15.398496
57.045 15.353941
57.050 15.032393
57.055 14.891031
57.060 14.857295
57.065 14.921474
57.070 15.094357
57.075 14.969984
57.080 14.690824
57.085 14.648874
57.090 14.972753
57.095 14.923442
57.100 15.102006
57.105 14.700521
57.110 14.696163
57.115 14.924898
57.120 14.713262
57.125 14.522216
57.130 14.279645
57.135 14.097798
57.140 14.275979
57.145 14.43854
57.150 14.634582
57.155 15.082712
57.160 15.178006
57.165 15.385946
57.170 15.260381
57.175 15.143446
57.180 15.480139
57.185 15.08711
57.190 14.940813
57.195 14.732377
57.200 14.645116
57.205 14.974096
57.210 15.439407
57.215 14.676012
57.220 14.80409
57.225 14.491335
57.230 14.588211
57.235 14.596003
57.240 14.816902
57.245 14.013534
57.250 14.710546
57.255 14.832018
57.260 14.923157
57.265 14.843603
57.270 14.754078
57.275 14.513656
57.280 14.576837
57.285 14.712839
57.290 15.147297
57.295 15.34553
57.300 15.19926
57.305 15.35738
57.310 15.709727
57.315 15.911247
57.320 15.537561
57.325 15.728964
57.330 16.023718
57.335 15.940685
57.340 15.887298
57.345 15.892146
57.350 15.613178
57.355 15.62933
57.360 15.033556
57.365 14.652441
57.370 15.234726
57.375 15.347899
57.380 15.235102
57.385 15.02832
57.390 15.136054
57.395 15.207463
57.400 15.645374
57.405 15.489311
57.410 15.324962
57.415 15.49842
57.420 15.873176
57.425 15.806069
57.430 15.516459
57.435 15.496193
57.440 15.430072
57.445 15.714959
57.450 15.594529
57.455 15.317198
57.460 15.021277
57.465 14.86533
57.470 15.00065
57.475 14.945736
57.480 14.662989
57.485 14.873002
57.490 15.267989
57.495 15.825729
57.500 16.0774
57.505 16.003714
57.510 16.437517
57.515 17.064911
57.520 16.931023
57.525 16.595633
57.530 16.025362
57.535 15.615222
57.540 14.781802
57.545 14.268961
57.550 13.934616
57.555 14.39893
57.560 14.727548
57.565 15.095451
57.570 15.769095
57.575 16.045898
57.580 16.048994
57.585 15.867772
57.590 16.084784
57.595 16.297138
57.600 16.843756
57.605 16.772966
57.610 17.053257
57.615 17.073467
57.620 17.45499
57.625 17.433311
57.630 17.336168
57.635 15.973959
57.640 15.778237
57.645 15.632997
57.650 15.4436
57.655 15.513363
57.660 15.599828
57.665 16.153837
57.670 16.99597
57.675 17.237156
57.680 17.416199
57.685 17.500645
57.690 17.0732
57.695 16.716118
57.700 16.554071
57.705 16.457766
57.710 16.45978
57.715 16.462622
57.720 16.667633
57.725 16.992193
57.730 16.822363
57.735 16.609564
57.740 16.692165
57.745 16.642776
57.750 16.662344
57.755 16.278915
57.760 15.974848
57.765 15.875971
57.770 15.736383
57.775 16.161316
57.780 16.188608
57.785 16.378023
57.790 16.808037
57.795 16.76615
57.800 16.537647
57.805 16.609993
57.810 16.614573
57.815 16.808952
57.820 17.521944
57.825 17.493837
57.830 17.83959
57.835 18.248905
57.840 18.181398
57.845 17.985031
57.850 17.69837
57.855 17.147303
57.860 16.861895
57.865 16.953825
57.870 16.825724
57.875 17.27417
57.880 17.24637
57.885 17.274052
57.890 17.230051
57.895 17.02117
57.900 16.541578
57.905 17.21241
57.910 17.28208
57.915 17.469086
57.920 17.462784
57.925 17.200178
57.930 17.362827
57.935 17.621958
57.940 17.471256
57.945 17.221363
57.950 16.864637
57.955 16.846701
57.960 16.94644
57.965 17.021255
57.970 16.906155
57.975 16.251627
57.980 16.175682
57.985 16.784185
57.990 17.105625
57.995 17.16852
58.000 17.267191
58.005 17.097383
58.010 17.565182
58.015 17.552197
58.020 16.970003
58.025 16.82987
58.030 17.563482
58.035 17.343328
58.040 17.606676
58.045 17.602732
58.050 17.714514
58.055 17.797575
58.060 18.292377
58.065 17.447161
58.070 17.63236
58.075 17.497448
58.080 16.991047
58.085 17.216297
58.090 17.624821
58.095 17.406597
58.100 17.912668
58.105 18.446449
58.110 18.901176
58.115 19.491261
58.120 19.226398
58.125 19.33877
58.130 19.138248
58.135 18.958611
58.140 18.845961
58.145 18.848694
58.150 19.451214
58.155 19.002928
58.160 18.899242
58.165 19.782963
58.170 20.113655
58.175 19.837288
58.180 19.914051
58.185 19.721367
58.190 19.86898
58.195 19.970882
58.200 19.713987
58.205 20.097767
58.210 20.449478
58.215 19.786388
58.220 19.553225
58.225 19.294464
58.230 18.763863
58.235 18.425011
58.240 18.489008
58.245 19.259474
58.250 19.879271
58.255 20.344654
58.260 20.287779
58.265 20.566803
58.270 20.786932
58.275 20.497328
58.280 20.897961
58.285 20.724728
58.290 20.540564
58.295 21.096006
58.300 21.273636
58.305 21.312702
58.310 21.089809
58.315 20.228424
58.320 20.43409
58.325 20.912695
58.330 21.922361
58.335 22.630379
58.340 22.47776
58.345 21.994387
58.350 23.007534
58.355 23.565079
58.360 23.980465
58.365 23.025532
58.370 22.491692
58.375 22.616943
58.380 23.21394
58.385 22.74087
58.390 23.32729
58.395 23.213072
58.400 23.881525
58.405 24.840969
58.410 25.686541
58.415 26.72551
58.420 27.127859
58.425 27.134926
58.430 27.868347
58.435 28.30266
58.440 28.694565
58.445 28.1915
58.450 27.617085
