!@!!GADDS PLOTSO FILE: Chi integration type
!@!!Title/SampleName: map-13b
!@!!Comment: ?
!@!!User: Bruker Instrument Administrator
!@!!Site: University of Illinois Chicago
!@!!Frame: map-13b_01_000.gfrm
!@!!Wavelengths    1.54184   1.54056   1.54439
!@!!Frame angles: 2Theta: 63.000 Omega: 50.000 Phi: 0.000 Chi: 90.000
!@!!Integration range: 2Theta: 53.000 to 73.000  Gamma: -105.000 to -75.000
!@!!Integration method: bin normalized
!@!N
!@!SS
!@!M
!@!L 0.0 0.0 0.0 0.0
!@!XDegrees
!@!YCounts
53.000 9.148933
53.005 9.191412
53.010 9.109552
53.015 8.998874
53.020 8.985912
53.025 8.895477
53.030 9.030616
53.035 9.286222
53.040 9.75126
53.045 10.255974
53.050 10.555786
53.055 10.791
53.060 11.173875
53.065 10.818521
53.070 10.471887
53.075 9.946222
53.080 10.142248
53.085 10.349884
53.090 10.232726
53.095 9.994607
53.100 10.10434
53.105 10.449398
53.110 10.82959
53.115 10.250072
53.120 9.932817
53.125 9.696485
53.130 9.804096
53.135 9.706972
53.140 9.373521
53.145 9.185831
53.150 9.689232
53.155 10.007874
53.160 10.806105
53.165 10.705594
53.170 10.644219
53.175 10.473957
53.180 10.475755
53.185 10.271802
53.190 9.775034
53.195 9.233699
53.200 9.331735
53.205 9.037175
53.210 8.80442
53.215 8.386722
53.220 8.137012
53.225 8.428055
53.230 8.515405
53.235 8.635542
53.240 9.461914
53.245 9.619624
53.250 9.323392
53.255 9.605119
53.260 9.181241
53.265 9.206963
53.270 9.126513
53.275 8.410643
53.280 8.438181
53.285 8.580129
53.290 8.544879
53.295 8.866843
53.300 8.635705
53.305 8.607562
53.310 8.830276
53.315 9.277207
53.320 9.785855
53.325 10.155817
53.330 10.014739
53.335 10.344454
53.340 10.562236
53.345 10.76813
53.350 10.832174
53.355 10.405718
53.360 10.504904
53.365 10.441433
53.370 10.260741
53.375 9.675595
53.380 10.197762
53.385 10.254398
53.390 10.568348
53.395 10.588993
53.400 10.45072
53.405 10.85618
53.410 10.961625
53.415 10.24323
53.420 10.124244
53.425 9.749185
53.430 10.063665
53.435 10.044621
53.440 10.082025
53.445 10.785135
53.450 10.982558
53.455 10.677065
53.460 10.660146
53.465 10.181325
53.470 9.907855
53.475 9.595869
53.480 9.171499
53.485 9.259618
53.490 9.585551
53.495 9.808524
53.500 10.233167
53.505 10.290742
53.510 10.089106
53.515 10.331875
53.520 10.614954
53.525 10.6227
53.530 10.627136
53.535 10.436336
53.540 10.656591
53.545 10.602001
53.550 10.52304
53.555 10.140738
53.560 9.743929
53.565 9.805013
53.570 10.293674
53.575 10.405788
53.580 10.590558
53.585 10.782228
53.590 11.628261
53.595 11.801442
53.600 11.571897
53.605 11.210479
53.610 10.789476
53.615 10.30674
53.620 10.109092
53.625 9.690057
53.630 9.274043
53.635 9.337178
53.640 9.62697
53.645 10.123978
53.650 10.053032
53.655 9.868935
53.660 10.121633
53.665 10.592054
53.670 10.611586
53.675 10.589354
53.680 10.600698
53.685 10.782139
53.690 10.641169
53.695 9.940377
53.700 9.945146
53.705 9.825956
53.710 9.46116
53.715 9.603615
53.720 9.488396
53.725 9.701925
53.730 9.873582
53.735 9.494517
53.740 9.904099
53.745 9.924907
53.750 9.866642
53.755 9.647386
53.760 9.688013
53.765 10.083612
53.770 10.674176
53.775 10.515672
53.780 10.358631
53.785 10.412947
53.790 10.69013
53.795 10.635957
53.800 10.171171
53.805 9.97652
53.810 10.185027
53.815 10.310401
53.820 10.485572
53.825 10.451365
53.830 10.499722
53.835 10.631724
53.840 10.113051
53.845 9.843183
53.850 9.766618
53.855 9.880785
53.860 10.074329
53.865 10.170492
53.870 10.400114
53.875 10.75725
53.880 10.723237
53.885 10.30668
53.890 9.972165
53.895 9.804599
53.900 9.947435
53.905 10.206071
53.910 10.538446
53.915 11.107266
53.920 11.38349
53.925 11.084424
53.930 10.786277
53.935 10.941015
53.940 10.712733
53.945 10.496417
53.950 10.249877
53.955 10.167976
53.960 10.62865
53.965 10.763917
53.970 10.272472
53.975 10.366444
53.980 10.413765
53.985 10.609137
53.990 10.541224
53.995 10.286099
54.000 10.474072
54.005 10.75531
54.010 10.666272
54.015 10.917966
54.020 11.754218
54.025 12.506551
54.030 12.963668
54.035 13.099933
54.040 12.695601
54.045 12.067394
54.050 11.556439
54.055 10.855498
54.060 10.574557
54.065 9.796322
54.070 9.693025
54.075 10.095903
54.080 11.11342
54.085 10.855688
54.090 10.665343
54.095 10.259174
54.100 10.110782
54.105 10.041744
54.110 10.209188
54.115 9.976386
54.120 10.497059
54.125 10.922034
54.130 11.290794
54.135 11.897011
54.140 11.917734
54.145 11.580593
54.150 11.421079
54.155 11.186214
54.160 11.065197
54.165 10.97776
54.170 10.849056
54.175 11.015382
54.180 11.327957
54.185 11.12608
54.190 10.656581
54.195 10.47001
54.200 11.018274
54.205 10.719316
54.210 10.259198
54.215 9.854094
54.220 10.277621
54.225 10.659027
54.230 10.29367
54.235 10.255239
54.240 10.453589
54.245 10.919852
54.250 11.018743
54.255 11.074966
54.260 11.346637
54.265 11.261426
54.270 11.285189
54.275 11.485359
54.280 11.014933
54.285 10.829978
54.290 10.745394
54.295 10.76341
54.300 10.637426
54.305 10.497117
54.310 10.177773
54.315 10.604205
54.320 11.087389
54.325 10.891273
54.330 10.90121
54.335 11.067908
54.340 10.810021
54.345 11.096109
54.350 11.122273
54.355 10.925211
54.360 11.504224
54.365 11.594022
54.370 12.138627
54.375 12.586712
54.380 12.483563
54.385 12.653504
54.390 12.203551
54.395 11.73603
54.400 11.65688
54.405 11.229626
54.410 11.051567
54.415 11.330715
54.420 11.427887
54.425 11.727959
54.430 12.076022
54.435 12.45764
54.440 12.083174
54.445 11.923247
54.450 11.791485
54.455 11.125283
54.460 10.617545
54.465 10.424313
54.470 10.159638
54.475 10.256248
54.480 9.831176
54.485 10.096427
54.490 10.684374
54.495 10.883589
54.500 10.639157
54.505 10.707531
54.510 11.397437
54.515 12.584543
54.520 12.216917
54.525 11.77406
54.530 11.859697
54.535 11.959525
54.540 11.643838
54.545 11.282275
54.550 10.57537
54.555 10.698429
54.560 10.522818
54.565 10.3382
54.570 10.292871
54.575 10.740073
54.580 10.650469
54.585 10.730233
54.590 10.682117
54.595 11.239732
54.600 11.196074
54.605 11.292611
54.610 11.329995
54.615 11.184934
54.620 11.47305
54.625 11.432755
54.630 11.100435
54.635 11.451031
54.640 11.403659
54.645 10.820606
54.650 10.486699
54.655 10.687495
54.660 10.951599
54.665 11.10545
54.670 10.927691
54.675 10.877747
54.680 11.391692
54.685 11.784196
54.690 11.916946
54.695 12.271427
54.700 11.749557
54.705 11.520247
54.710 11.364755
54.715 10.958077
54.720 10.547243
54.725 10.631879
54.730 11.373662
54.735 12.134022
54.740 12.906374
54.745 13.209033
54.750 13.374533
54.755 13.860173
54.760 13.30028
54.765 12.942508
54.770 12.980469
54.775 12.397166
54.780 12.524076
54.785 12.23958
54.790 11.763452
54.795 11.627092
54.800 11.20079
54.805 11.137442
54.810 10.735034
54.815 10.635501
54.820 10.966654
54.825 11.403956
54.830 11.57131
54.835 11.596372
54.840 11.238448
54.845 11.88188
54.850 11.994194
54.855 11.808091
54.860 11.22808
54.865 11.051077
54.870 10.967235
54.875 10.618979
54.880 10.824287
54.885 11.152718
54.890 11.886632
54.895 12.192599
54.900 11.827791
54.905 12.021643
54.910 12.127537
54.915 11.618122
54.920 10.854661
54.925 11.011056
54.930 11.753066
54.935 12.143863
54.940 12.064716
54.945 12.11449
54.950 12.358729
54.955 12.117037
54.960 11.220041
54.965 10.415252
54.970 10.493041
54.975 10.597612
54.980 10.666081
54.985 11.233862
54.990 11.53628
54.995 11.854002
55.000 11.911521
55.005 12.016954
55.010 12.236043
55.015 12.194844
55.020 11.579678
55.025 11.393756
55.030 11.296225
55.035 11.436337
55.040 11.662654
55.045 11.036737
55.050 11.24906
55.055 11.63346
55.060 11.663902
55.065 11.455918
55.070 11.076927
55.075 10.643058
55.080 10.768995
55.085 10.314899
55.090 9.9585
55.095 10.586384
55.100 10.882754
55.105 11.123346
55.110 11.483319
55.115 11.417915
55.120 11.466145
55.125 11.631006
55.130 11.844419
55.135 11.999093
55.140 11.693136
55.145 11.786838
55.150 12.375069
55.155 12.589965
55.160 12.223806
55.165 11.695573
55.170 12.211315
55.175 13.057947
55.180 13.160521
55.185 12.605124
55.190 12.491973
55.195 12.575736
55.200 12.530158
55.205 11.93045
55.210 11.350127
55.215 11.655371
55.220 11.873668
55.225 12.039724
55.230 12.151126
55.235 12.401085
55.240 12.720418
55.245 13.042819
55.250 12.778174
55.255 13.123687
55.260 13.172466
55.265 12.774607
55.270 12.671895
55.275 12.427653
55.280 12.038532
55.285 11.883357
55.290 11.314317
55.295 10.948826
55.300 10.71121
55.305 10.641721
55.310 10.562983
55.315 10.916866
55.320 10.950101
55.325 11.173566
55.330 11.817826
55.335 12.235443
55.340 12.336837
55.345 12.151823
55.350 11.861544
55.355 11.871943
55.360 12.06116
55.365 12.097882
55.370 11.675897
55.375 11.623384
55.380 11.494205
55.385 11.580763
55.390 11.555177
55.395 11.219661
55.400 10.546503
55.405 10.866475
55.410 11.174443
55.415 11.617023
55.420 11.519079
55.425 11.671404
55.430 11.481351
55.435 11.715567
55.440 11.582739
55.445 11.385479
55.450 11.43372
55.455 11.362573
55.460 11.227389
55.465 11.373585
55.470 11.615236
55.475 11.680957
55.480 11.438877
55.485 11.29234
55.490 11.549193
55.495 11.905761
55.500 11.80232
55.505 11.240403
55.510 11.275147
55.515 11.577118
55.520 11.32198
55.525 10.843524
55.530 10.810022
55.535 11.513736
55.540 11.990586
55.545 12.128087
55.550 12.409673
55.555 13.048255
55.560 13.247366
55.565 12.722767
55.570 12.204403
55.575 11.890529
55.580 11.796769
55.585 11.232812
55.590 11.182235
55.595 11.460612
55.600 11.892299
55.605 12.302517
55.610 12.248477
55.615 11.980571
55.620 12.267702
55.625 12.329645
55.630 12.535394
55.635 12.180735
55.640 11.828525
55.645 12.299818
55.650 12.709838
55.655 12.725504
55.660 12.355691
55.665 12.281013
55.670 12.777446
55.675 12.386737
55.680 11.818993
55.685 11.612355
55.690 11.117023
55.695 10.926104
55.700 10.670616
55.705 10.828951
55.710 11.137308
55.715 11.580401
55.720 11.898897
55.725 12.56638
55.730 12.888401
55.735 12.690594
55.740 12.318696
55.745 12.409248
55.750 12.250982
55.755 11.732972
55.760 11.77973
55.765 12.188541
55.770 12.458951
55.775 12.609038
55.780 12.464724
55.785 13.000057
55.790 13.051361
55.795 12.949685
55.800 12.753449
55.805 12.808702
55.810 13.064224
55.815 13.285569
55.820 13.067646
55.825 12.913997
55.830 12.682181
55.835 12.945912
55.840 13.059554
55.845 13.076428
55.850 13.003793
55.855 12.487883
55.860 12.194128
55.865 11.941445
55.870 11.515974
55.875 10.983373
55.880 10.524066
55.885 10.672351
55.890 11.302439
55.895 11.61314
55.900 11.686784
55.905 11.891921
55.910 12.740499
55.915 13.052148
55.920 13.009772
55.925 12.933681
55.930 13.061818
55.935 13.349604
55.940 13.963382
55.945 13.8504
55.950 13.616967
55.955 13.400942
55.960 13.274597
55.965 13.238495
55.970 12.848071
55.975 11.963726
55.980 12.222283
55.985 12.424026
55.990 12.299902
55.995 12.506567
56.000 12.818106
56.005 13.206016
56.010 13.184906
56.015 12.407232
56.020 12.209342
56.025 12.218722
56.030 11.963498
56.035 11.972642
56.040 12.224027
56.045 12.782482
56.050 13.090314
56.055 13.469371
56.060 13.303107
56.065 13.194229
56.070 12.805235
56.075 12.177657
56.080 11.585232
56.085 10.838505
56.090 10.764926
56.095 11.113939
56.100 11.237473
56.105 11.450375
56.110 11.3286
56.115 12.112455
56.120 12.695856
56.125 12.679944
56.130 12.697095
56.135 13.269853
56.140 13.687749
56.145 14.091617
56.150 13.745361
56.155 13.718349
56.160 13.896644
56.165 14.007492
56.170 13.139044
56.175 12.758302
56.180 13.450404
56.185 13.724484
56.190 13.905994
56.195 13.634102
56.200 13.5091
56.205 13.442001
56.210 13.632515
56.215 13.043541
56.220 13.188174
56.225 13.294588
56.230 13.799212
56.235 14.359138
56.240 14.760229
56.245 14.68089
56.250 14.398826
56.255 14.419644
56.260 14.18958
56.265 14.155622
56.270 13.57658
56.275 13.713514
56.280 13.47704
56.285 13.018587
56.290 12.602801
56.295 12.829082
56.300 12.847509
56.305 12.773936
56.310 12.571626
56.315 12.528035
56.320 13.106864
56.325 13.218593
56.330 12.790597
56.335 12.551028
56.340 12.663289
56.345 12.806526
56.350 12.641274
56.355 12.565514
56.360 12.836343
56.365 12.905257
56.370 13.082627
56.375 12.698254
56.380 12.404394
56.385 12.882191
56.390 12.488686
56.395 11.938241
56.400 12.051125
56.405 12.00256
56.410 12.391375
56.415 12.627612
56.420 12.773277
56.425 12.917212
56.430 13.196252
56.435 13.115509
56.440 13.40861
56.445 13.271235
56.450 13.149128
56.455 12.857315
56.460 13.151473
56.465 13.287905
56.470 13.330771
56.475 13.000362
56.480 12.916104
56.485 12.77316
56.490 12.920503
56.495 12.673569
56.500 12.548359
56.505 12.049909
56.510 12.142882
56.515 12.199739
56.520 12.47889
56.525 12.753061
56.530 12.819388
56.535 12.828582
56.540 13.61115
56.545 13.654519
56.550 13.395353
56.555 13.145885
56.560 12.507915
56.565 12.060345
56.570 12.105231
56.575 11.726583
56.580 12.249153
56.585 12.701931
56.590 12.424027
56.595 13.011213
56.600 12.935699
56.605 12.544982
56.610 12.562239
56.615 12.027336
56.620 12.167469
56.625 12.302925
56.630 12.508666
56.635 13.350927
56.640 13.84741
56.645 13.442228
56.650 12.884603
56.655 12.53146
56.660 12.91736
56.665 12.775871
56.670 12.43082
56.675 12.320971
56.680 12.944559
56.685 13.723508
56.690 13.639731
56.695 13.328409
56.700 13.367556
56.705 13.269301
56.710 13.143018
56.715 12.814454
56.720 12.722799
56.725 13.274612
56.730 13.3478
56.735 12.964273
56.740 12.565073
56.745 12.205336
56.750 12.170538
56.755 11.946274
56.760 11.859389
56.765 11.80562
56.770 12.43719
56.775 13.199177
56.780 13.480295
56.785 13.642323
56.790 13.896518
56.795 14.0225
56.800 14.024471
56.805 13.998276
56.810 14.048917
56.815 14.469189
56.820 14.601794
56.825 14.422536
56.830 14.616257
56.835 14.989743
56.840 15.117726
56.845 15.127362
56.850 14.477488
56.855 14.450767
56.860 14.335435
56.865 13.674544
56.870 12.723512
56.875 12.347107
56.880 12.359385
56.885 12.758675
56.890 12.444747
56.895 12.358619
56.900 12.043762
56.905 12.265405
56.910 13.042249
56.915 13.282539
56.920 12.9491
56.925 12.997707
56.930 13.521879
56.935 14.663479
56.940 15.02312
56.945 14.310975
56.950 13.972488
56.955 14.321469
56.960 14.470787
56.965 14.270957
56.970 13.943734
56.975 13.489843
56.980 13.1469
56.985 13.170015
56.990 13.534789
56.995 13.902241
57.000 13.852238
57.005 13.564857
57.010 13.362901
57.015 13.558677
57.020 13.814397
57.025 13.763676
57.030 13.357198
57.035 13.588537
57.040 14.046404
57.045 14.564017
57.050 15.079865
57.055 14.888563
57.060 14.817876
57.065 15.085261
57.070 15.079341
57.075 15.063757
57.080 15.330166
57.085 14.844358
57.090 14.616987
57.095 14.403623
57.100 13.807109
57.105 13.533119
57.110 13.572883
57.115 12.774505
57.120 12.80967
57.125 12.84977
57.130 13.185059
57.135 14.474361
57.140 14.557092
57.145 14.752246
57.150 15.27777
57.155 16.062382
57.160 16.141554
57.165 16.123362
57.170 15.273229
57.175 14.974087
57.180 14.876861
57.185 14.232391
57.190 14.059421
57.195 14.102459
57.200 13.528563
57.205 13.612573
57.210 14.215234
57.215 14.112225
57.220 13.967074
57.225 13.640014
57.230 13.864307
57.235 14.277486
57.240 14.421281
57.245 14.347727
57.250 14.509567
57.255 14.883025
57.260 14.857647
57.265 14.914296
57.270 14.759442
57.275 14.388566
57.280 14.691118
57.285 14.974368
57.290 14.925542
57.295 14.881784
57.300 15.301937
57.305 16.01013
57.310 16.007071
57.315 15.748328
57.320 15.763063
57.325 15.987043
57.330 16.242035
57.335 15.62364
57.340 15.369006
57.345 15.167255
57.350 15.364378
57.355 15.711414
57.360 15.684033
57.365 15.509192
57.370 15.513675
57.375 15.677437
57.380 15.943456
57.385 15.125281
57.390 14.848472
57.395 14.61432
57.400 14.577256
57.405 14.275646
57.410 13.830931
57.415 13.491278
57.420 13.751622
57.425 13.949522
57.430 14.243578
57.435 14.278461
57.440 14.636276
57.445 14.797305
57.450 14.722326
57.455 15.043793
57.460 14.869357
57.465 15.150487
57.470 15.301769
57.475 15.263557
57.480 15.348139
57.485 15.50475
57.490 15.081427
57.495 15.434944
57.500 14.810116
57.505 14.639459
57.510 14.361869
57.515 14.364009
57.520 14.034073
57.525 13.958275
57.530 13.266804
57.535 13.54742
57.540 13.808896
57.545 14.384462
57.550 14.95439
57.555 15.014916
57.560 15.59987
57.565 15.836258
57.570 15.876727
57.575 15.588671
57.580 15.338831
57.585 15.034116
57.590 15.537922
57.595 15.554645
57.600 15.79024
57.605 15.685684
57.610 16.026983
57.615 16.28002
57.620 16.177588
57.625 16.720629
57.630 17.067179
57.635 17.190378
57.640 17.307194
57.645 16.767282
57.650 16.675856
57.655 16.820583
57.660 16.460276
57.665 15.986343
57.670 15.567657
57.675 15.327356
57.680 15.130773
57.685 15.066889
57.690 15.208583
57.695 15.538913
57.700 15.765759
57.705 16.194397
57.710 16.585627
57.715 16.696642
57.720 16.458261
57.725 15.929951
57.730 15.739854
57.735 15.440616
57.740 15.106363
57.745 15.107511
57.750 15.222795
57.755 15.053033
57.760 14.301655
57.765 14.198521
57.770 14.716751
57.775 14.731383
57.780 14.724662
57.785 14.6746
57.790 15.052853
57.795 15.898616
57.800 15.644445
57.805 15.344501
57.810 15.261129
57.815 15.771507
57.820 16.208933
57.825 15.87395
57.830 15.974498
57.835 15.961745
57.840 15.635515
57.845 15.812693
57.850 15.525259
57.855 15.472495
57.860 15.382495
57.865 15.595149
57.870 15.592854
57.875 15.547934
57.880 15.154189
57.885 15.082617
57.890 14.424797
57.895 14.821969
57.900 14.697399
57.905 14.876538
57.910 15.147926
57.915 15.153525
57.920 14.652378
57.925 15.06071
57.930 15.097342
57.935 15.495675
57.940 15.898579
57.945 15.897414
57.950 16.256584
57.955 16.567156
57.960 16.385529
57.965 16.011042
57.970 15.565277
57.975 15.06831
57.980 15.378143
57.985 15.736203
57.990 15.703343
57.995 15.730877
58.000 15.734087
58.005 15.8829
58.010 16.588993
58.015 16.553524
58.020 16.289066
58.025 16.859787
58.030 17.566069
58.035 17.674019
58.040 17.396494
58.045 17.07238
58.050 16.911985
58.055 17.416471
58.060 17.115072
58.065 16.76502
58.070 16.791445
58.075 16.837721
58.080 16.620638
58.085 16.650145
58.090 16.490187
58.095 16.644253
58.100 16.469597
58.105 16.743721
58.110 17.226841
58.115 17.213554
58.120 17.075592
58.125 16.973692
58.130 17.233013
58.135 17.516769
58.140 17.341955
58.145 17.000664
58.150 16.955423
58.155 16.780071
58.160 16.56801
58.165 16.250504
58.170 15.951295
58.175 15.515375
58.180 15.59975
58.185 15.49614
58.190 15.917706
58.195 15.744441
58.200 15.789822
58.205 16.573654
58.210 17.528893
58.215 18.186827
58.220 18.057182
58.225 17.620642
58.230 18.338154
58.235 18.454956
58.240 18.067957
58.245 17.968506
58.250 17.958122
58.255 18.534803
58.260 18.728237
58.265 18.788279
58.270 19.20878
58.275 19.768925
58.280 19.599457
58.285 19.678108
58.290 19.479567
58.295 19.3943
58.300 19.196133
58.305 19.034269
58.310 18.741938
58.315 18.787447
58.320 18.606522
58.325 19.409555
58.330 19.576275
58.335 19.416996
58.340 19.380388
58.345 19.535769
58.350 19.872551
58.355 20.272038
58.360 20.014135
58.365 20.305576
58.370 20.945467
58.375 21.889046
58.380 22.193657
58.385 22.709696
58.390 23.07601
58.395 23.169147
58.400 23.870228
58.405 23.974445
58.410 23.447401
58.415 23.266026
58.420 23.72925
58.425 24.554575
58.430 25.350082
58.435 25.768595
58.440 26.250906
58.445 26.62689
58.450 26.713684
58.455 27.03203
58.460 27.878479
58.465 28.226757
