!@!!GADDS PLOTSO FILE: Chi integration type
!@!!Title/SampleName: map-aa
!@!!Comment: ?
!@!!User: Bruker Instrument Administrator
!@!!Site: University of Illinois Chicago
!@!!Frame: map-aa_01_000.gfrm
!@!!Wavelengths    1.54184   1.54056   1.54439
!@!!Frame angles: 2Theta: 63.000 Omega: 50.000 Phi: 0.000 Chi: 90.000
!@!!Integration range: 2Theta: 53.000 to 73.000  Gamma: -105.000 to -75.000
!@!!Integration method: bin normalized
!@!N
!@!SS
!@!M
!@!L 0.0 0.0 0.0 0.0
!@!XDegrees
!@!YCounts
53.000 9.364743
53.005 8.991049
53.010 8.880483
53.015 8.507047
53.020 8.891399
53.025 8.992129
53.030 8.801073
53.035 8.803667
53.040 9.170318
53.045 9.498477
53.050 9.63658
53.055 9.713075
53.060 9.432111
53.065 9.347879
53.070 9.137181
53.075 8.986795
53.080 9.281949
53.085 9.643258
53.090 9.458726
53.095 9.721276
53.100 9.96176
53.105 10.091806
53.110 10.322175
53.115 10.364778
53.120 10.26247
53.125 10.385118
53.130 10.100094
53.135 10.419253
53.140 10.435699
53.145 10.493995
53.150 10.665004
53.155 11.395353
53.160 11.303775
53.165 10.883986
53.170 10.336678
53.175 10.463693
53.180 10.386337
53.185 10.124632
53.190 9.486999
53.195 9.516684
53.200 9.564531
53.205 9.518147
53.210 9.272684
53.215 8.99242
53.220 9.042129
53.225 8.971611
53.230 8.915405
53.235 9.208185
53.240 9.736707
53.245 9.870011
53.250 9.829325
53.255 9.892955
53.260 10.515337
53.265 10.730069
53.270 10.354409
53.275 9.744678
53.280 9.64951
53.285 9.451477
53.290 9.35657
53.295 8.884995
53.300 8.897041
53.305 9.342976
53.310 9.97575
53.315 10.802934
53.320 11.157034
53.325 11.101974
53.330 11.371343
53.335 11.146912
53.340 10.498226
53.345 9.748216
53.350 8.770888
53.355 8.524992
53.360 8.459765
53.365 8.3538
53.370 8.416601
53.375 8.759778
53.380 9.087907
53.385 9.439081
53.390 9.856184
53.395 10.011293
53.400 10.274582
53.405 10.395622
53.410 9.933392
53.415 9.809171
53.420 9.720779
53.425 9.506097
53.430 9.369198
53.435 9.096841
53.440 8.899386
53.445 9.248574
53.450 9.173064
53.455 8.821492
53.460 8.859642
53.465 9.012772
53.470 9.508407
53.475 9.688199
53.480 9.636586
53.485 10.05159
53.490 10.569864
53.495 10.834157
53.500 10.773957
53.505 10.381121
53.510 10.829537
53.515 11.143264
53.520 11.143918
53.525 11.343771
53.530 11.106941
53.535 11.036352
53.540 11.435183
53.545 11.233068
53.550 10.959583
53.555 10.692658
53.560 10.384727
53.565 10.460227
53.570 10.846343
53.575 10.591743
53.580 10.498532
53.585 10.490792
53.590 10.582426
53.595 10.86445
53.600 10.750741
53.605 10.616323
53.610 10.804101
53.615 10.835356
53.620 10.980485
53.625 11.095279
53.630 11.151921
53.635 11.13784
53.640 10.880636
53.645 10.769555
53.650 11.178214
53.655 11.241955
53.660 11.489956
53.665 11.545978
53.670 11.471741
53.675 11.887545
53.680 11.718349
53.685 11.543279
53.690 11.498421
53.695 11.18768
53.700 11.089101
53.705 11.198471
53.710 11.150334
53.715 11.217319
53.720 12.036393
53.725 12.174147
53.730 12.577211
53.735 12.928544
53.740 12.720494
53.745 12.774298
53.750 12.615567
53.755 11.958189
53.760 11.286365
53.765 10.531356
53.770 10.164853
53.775 11.005866
53.780 10.95735
53.785 11.094055
53.790 10.846695
53.795 10.736755
53.800 10.936553
53.805 11.051743
53.810 10.415298
53.815 10.10561
53.820 9.681953
53.825 10.049648
53.830 10.35716
53.835 10.20872
53.840 10.12888
53.845 10.17763
53.850 10.415522
53.855 10.744133
53.860 10.453805
53.865 10.116874
53.870 9.602118
53.875 9.213419
53.880 8.999283
53.885 8.815492
53.890 8.845188
53.895 9.633508
53.900 10.644887
53.905 11.044216
53.910 11.530246
53.915 12.012281
53.920 12.424125
53.925 12.196631
53.930 11.402589
53.935 11.188928
53.940 11.047958
53.945 11.012481
53.950 10.941101
53.955 10.883851
53.960 10.80308
53.965 10.770264
53.970 10.786139
53.975 11.258839
53.980 11.373794
53.985 11.329181
53.990 11.282668
53.995 10.984209
54.000 10.907462
54.005 10.710818
54.010 10.393968
54.015 10.798035
54.020 11.019686
54.025 11.39134
54.030 12.094137
54.035 12.335958
54.040 12.518129
54.045 12.388227
54.050 11.993134
54.055 11.908084
54.060 11.62668
54.065 11.281677
54.070 11.332068
54.075 11.371126
54.080 11.557908
54.085 11.834279
54.090 11.932454
54.095 11.579073
54.100 11.461462
54.105 11.065446
54.110 10.444945
54.115 9.944984
54.120 9.905379
54.125 10.174731
54.130 10.613054
54.135 10.547318
54.140 11.229484
54.145 11.842078
54.150 11.580255
54.155 11.521782
54.160 11.517481
54.165 11.273057
54.170 11.21279
54.175 10.754319
54.180 10.265551
54.185 10.250419
54.190 10.133645
54.195 9.994178
54.200 10.53943
54.205 10.686363
54.210 10.722734
54.215 11.212943
54.220 11.422268
54.225 11.427766
54.230 12.115777
54.235 12.384716
54.240 12.371196
54.245 12.377078
54.250 12.093675
54.255 12.093605
54.260 12.329223
54.265 11.646385
54.270 11.180075
54.275 10.982833
54.280 11.399783
54.285 12.011359
54.290 11.812192
54.295 11.455108
54.300 11.27133
54.305 11.432943
54.310 11.40397
54.315 10.890315
54.320 10.336679
54.325 10.117658
54.330 10.247843
54.335 10.296585
54.340 10.077831
54.345 10.18116
54.350 10.230936
54.355 10.638783
54.360 10.664145
54.365 10.835598
54.370 11.358966
54.375 11.890965
54.380 12.104649
54.385 11.972719
54.390 11.880863
54.395 11.888512
54.400 11.130915
54.405 10.639348
54.410 10.309909
54.415 9.991509
54.420 10.109464
54.425 10.240631
54.430 10.239725
54.435 10.851981
54.440 10.984217
54.445 11.375815
54.450 11.676541
54.455 11.789596
54.460 11.848925
54.465 11.784914
54.470 11.878967
54.475 12.022926
54.480 11.522852
54.485 11.375417
54.490 11.150421
54.495 11.160617
54.500 10.820557
54.505 10.524542
54.510 10.332118
54.515 10.760788
54.520 11.086136
54.525 11.040161
54.530 11.456457
54.535 11.706764
54.540 11.76977
54.545 11.558103
54.550 11.154969
54.555 10.852154
54.560 10.515233
54.565 10.202108
54.570 9.966789
54.575 10.063132
54.580 10.05938
54.585 10.114191
54.590 10.458392
54.595 10.707103
54.600 10.973316
54.605 10.967649
54.610 10.848125
54.615 10.91959
54.620 11.198659
54.625 11.014169
54.630 11.335752
54.635 11.165715
54.640 11.489151
54.645 11.644661
54.650 11.509375
54.655 11.503813
54.660 11.970489
54.665 11.784592
54.670 11.946342
54.675 12.330355
54.680 12.712779
54.685 12.615829
54.690 12.717266
54.695 12.807824
54.700 12.813283
54.705 12.427644
54.710 12.014579
54.715 11.971617
54.720 12.151749
54.725 12.077023
54.730 12.151706
54.735 12.397227
54.740 12.927238
54.745 12.596625
54.750 12.442855
54.755 12.143726
54.760 11.810785
54.765 11.706806
54.770 11.73937
54.775 11.250469
54.780 11.181811
54.785 11.311292
54.790 11.205241
54.795 10.926501
54.800 10.987469
54.805 11.332428
54.810 12.315161
54.815 12.638255
54.820 12.857697
54.825 12.860834
54.830 12.820979
54.835 13.062111
54.840 12.738888
54.845 12.584335
54.850 12.852408
54.855 12.857975
54.860 13.515741
54.865 13.630921
54.870 13.488191
54.875 13.609245
54.880 13.542403
54.885 13.030354
54.890 13.109654
54.895 12.736274
54.900 12.358785
54.905 11.829047
54.910 11.747893
54.915 11.369847
54.920 11.375401
54.925 10.832738
54.930 10.941076
54.935 11.095368
54.940 11.444278
54.945 11.07093
54.950 11.409932
54.955 11.629145
54.960 12.142017
54.965 12.128867
54.970 12.101289
54.975 11.702105
54.980 11.867032
54.985 11.886331
54.990 12.100502
54.995 11.850424
55.000 11.695911
55.005 12.038682
55.010 12.098022
55.015 11.91941
55.020 12.045967
55.025 11.735323
55.030 11.67275
55.035 12.018806
55.040 11.930106
55.045 12.253839
55.050 12.214204
55.055 12.246985
55.060 12.498155
55.065 12.543951
55.070 12.102102
55.075 12.374739
55.080 12.66316
55.085 12.603228
55.090 12.390993
55.095 12.236465
55.100 12.520434
55.105 12.446374
55.110 12.456892
55.115 12.72643
55.120 13.104179
55.125 13.685957
55.130 14.060279
55.135 14.438242
55.140 14.847403
55.145 14.605061
55.150 13.972602
55.155 13.689793
55.160 13.315041
55.165 13.149512
55.170 12.691903
55.175 12.12887
55.180 12.340259
55.185 12.423727
55.190 12.632401
55.195 12.867245
55.200 13.170543
55.205 13.525206
55.210 13.686378
55.215 13.850908
55.220 14.203827
55.225 14.261375
55.230 13.463995
55.235 12.638817
55.240 12.796982
55.245 12.910378
55.250 12.733545
55.255 12.719898
55.260 12.93269
55.265 13.550272
55.270 13.95947
55.275 13.48311
55.280 13.599119
55.285 14.146002
55.290 14.573586
55.295 14.178283
55.300 14.169175
55.305 14.374258
55.310 14.566764
55.315 14.249979
55.320 13.731523
55.325 13.581509
55.330 13.800688
55.335 13.607514
55.340 13.034787
55.345 13.16891
55.350 13.294841
55.355 13.115804
55.360 13.060924
55.365 12.785196
55.370 13.142514
55.375 13.126592
55.380 13.140343
55.385 13.306093
55.390 13.414525
55.395 13.455444
55.400 13.648361
55.405 13.597465
55.410 13.658012
55.415 13.466943
55.420 13.015509
55.425 12.712752
55.430 12.921764
55.435 12.812124
55.440 12.633994
55.445 12.619457
55.450 12.593417
55.455 12.677382
55.460 12.830824
55.465 12.840425
55.470 13.048814
55.475 13.588712
55.480 13.830021
55.485 13.593974
55.490 13.388494
55.495 13.284177
55.500 13.086645
55.505 13.163649
55.510 12.76363
55.515 12.747365
55.520 13.272805
55.525 13.767941
55.530 13.624923
55.535 13.671753
55.540 13.534452
55.545 13.375154
55.550 13.485595
55.555 13.098437
55.560 13.007027
55.565 13.500992
55.570 13.533653
55.575 13.423768
55.580 13.522747
55.585 13.407954
55.590 13.314
55.595 13.302073
55.600 13.35224
55.605 13.369699
55.610 13.596381
55.615 13.325698
55.620 13.210374
55.625 12.96753
55.630 12.077353
55.635 10.890971
55.640 10.756523
55.645 10.938289
55.650 11.173411
55.655 11.599481
55.660 11.791783
55.665 11.932469
55.670 12.59405
55.675 12.41409
55.680 12.391217
55.685 12.874743
55.690 13.175659
55.695 13.453945
55.700 13.571863
55.705 13.396021
55.710 13.792087
55.715 13.638577
55.720 13.239693
55.725 12.665295
55.730 12.461971
55.735 12.346682
55.740 11.91041
55.745 11.480431
55.750 11.845347
55.755 12.639653
55.760 13.344623
55.765 13.616738
55.770 13.951919
55.775 14.304758
55.780 14.906647
55.785 14.785626
55.790 14.03904
55.795 13.566651
55.800 13.488415
55.805 13.582574
55.810 13.822368
55.815 13.087419
55.820 12.903733
55.825 13.329607
55.830 13.723768
55.835 14.116622
55.840 14.173642
55.845 14.376016
55.850 14.654774
55.855 14.335654
55.860 14.554055
55.865 14.644574
55.870 14.608797
55.875 14.554212
55.880 13.75797
55.885 13.989207
55.890 13.741018
55.895 13.317086
55.900 12.468047
55.905 12.353692
55.910 12.546614
55.915 13.65606
55.920 13.995544
55.925 13.924149
55.930 14.186374
55.935 14.691579
55.940 14.488339
55.945 14.217756
55.950 13.564942
55.955 13.836739
55.960 14.282539
55.965 14.172203
55.970 14.223684
55.975 14.274907
55.980 13.762913
55.985 13.396778
55.990 13.32802
55.995 12.797545
56.000 13.346027
56.005 13.518285
56.010 13.925998
56.015 14.249268
56.020 13.816087
56.025 13.458263
56.030 13.714995
56.035 13.704585
56.040 14.128719
56.045 14.285353
56.050 14.620393
56.055 14.734261
56.060 14.327416
56.065 13.44019
56.070 12.922835
56.075 12.02078
56.080 11.357647
56.085 11.004231
56.090 11.488659
56.095 12.352648
56.100 13.053626
56.105 12.705113
56.110 12.678492
56.115 13.018662
56.120 13.738842
56.125 13.493885
56.130 13.315084
56.135 13.404814
56.140 13.95102
56.145 14.012592
56.150 13.427354
56.155 12.877662
56.160 12.967285
56.165 12.666995
56.170 12.520256
56.175 12.354389
56.180 12.055264
56.185 11.997372
56.190 11.686067
56.195 11.362317
56.200 11.523568
56.205 11.436105
56.210 11.667036
56.215 12.361511
56.220 12.765003
56.225 12.964255
56.230 13.082104
56.235 13.32841
56.240 13.756178
56.245 14.330754
56.250 14.182352
56.255 14.401328
56.260 14.420164
56.265 14.76059
56.270 14.714913
56.275 14.263721
56.280 13.1695
56.285 12.843601
56.290 12.840858
56.295 12.902024
56.300 13.037616
56.305 13.256811
56.310 13.658938
56.315 14.612016
56.320 15.353444
56.325 15.394781
56.330 15.322292
56.335 14.880925
56.340 14.506668
56.345 14.260573
56.350 13.589253
56.355 13.20402
56.360 13.349853
56.365 13.684173
56.370 13.677354
56.375 13.917193
56.380 14.074906
56.385 14.532875
56.390 14.584753
56.395 14.214364
56.400 13.857498
56.405 14.065779
56.410 14.074537
56.415 13.70605
56.420 13.753199
56.425 13.856112
56.430 13.835615
56.435 13.565391
56.440 13.549035
56.445 13.228762
56.450 13.402267
56.455 12.974537
56.460 12.684011
56.465 13.249912
56.470 13.672222
56.475 13.900805
56.480 14.079967
56.485 13.616243
56.490 14.181883
56.495 14.798302
56.500 14.834052
56.505 14.558867
56.510 14.476847
56.515 14.502257
56.520 14.831761
56.525 14.807323
56.530 14.628407
56.535 14.968377
56.540 15.114483
56.545 14.68429
56.550 14.860088
56.555 14.451992
56.560 14.263227
56.565 13.867576
56.570 12.900096
56.575 12.739387
56.580 13.192581
56.585 13.507549
56.590 13.914268
56.595 13.579385
56.600 13.455636
56.605 13.855473
56.610 14.167606
56.615 14.123452
56.620 13.494459
56.625 13.183821
56.630 13.222951
56.635 13.395302
56.640 13.942677
56.645 13.861114
56.650 13.611357
56.655 13.771295
56.660 14.208724
56.665 14.497239
56.670 14.810322
56.675 14.314253
56.680 15.000543
56.685 15.76412
56.690 16.148911
56.695 15.699471
56.700 15.715661
56.705 15.393014
56.710 15.332178
56.715 14.958521
56.720 14.811018
56.725 14.480664
56.730 14.19558
56.735 13.616107
56.740 13.735308
56.745 14.089252
56.750 14.487997
56.755 14.262312
56.760 14.77537
56.765 14.903767
56.770 15.502526
56.775 15.689868
56.780 15.362303
56.785 14.566793
56.790 14.744999
56.795 15.107376
56.800 15.517589
56.805 15.170709
56.810 14.815337
56.815 14.768698
56.820 14.838244
56.825 14.591882
56.830 14.360722
56.835 14.071896
56.840 14.190477
56.845 14.135665
56.850 14.484904
56.855 14.304467
56.860 13.830935
56.865 13.394836
56.870 13.972862
56.875 14.11725
56.880 13.362005
56.885 12.714081
56.890 12.589691
56.895 13.071075
56.900 13.086812
56.905 12.169638
56.910 11.509511
56.915 11.887976
56.920 12.092076
56.925 12.416485
56.930 12.627442
56.935 12.688928
56.940 13.424921
56.945 13.958244
56.950 14.423958
56.955 14.67735
56.960 14.454676
56.965 14.098644
56.970 14.324846
56.975 14.465496
56.980 14.277462
56.985 14.053986
56.990 14.248308
56.995 14.227087
57.000 14.653632
57.005 14.781716
57.010 14.927411
57.015 15.087219
57.020 15.233103
57.025 15.403402
57.030 15.811502
57.035 15.904409
57.040 15.524457
57.045 15.28802
57.050 15.132475
57.055 15.110015
57.060 14.717533
57.065 14.064267
57.070 13.757951
57.075 14.15036
57.080 14.444544
57.085 14.617433
57.090 14.588771
57.095 14.528834
57.100 15.123566
57.105 15.037633
57.110 14.635143
57.115 14.326571
57.120 14.585801
57.125 14.281541
57.130 14.111821
57.135 13.883507
57.140 14.191913
57.145 14.714963
57.150 14.917665
57.155 14.788328
57.160 15.01537
57.165 15.343996
57.170 14.868006
57.175 14.672003
57.180 14.860577
57.185 15.215456
57.190 15.353099
57.195 15.526993
57.200 16.080471
57.205 16.472738
57.210 16.525135
57.215 16.275431
57.220 15.827743
57.225 15.892817
57.230 15.711914
57.235 15.1646
57.240 15.038889
57.245 14.779284
57.250 14.678113
57.255 14.955062
57.260 14.822655
57.265 14.855263
57.270 15.020141
57.275 14.754528
57.280 14.727535
57.285 14.523714
57.290 14.088783
57.295 14.090074
57.300 13.797889
57.305 13.688082
57.310 13.98719
57.315 14.65731
57.320 14.604886
57.325 14.419081
57.330 14.304129
57.335 14.749499
57.340 14.785444
57.345 14.562482
57.350 14.519326
57.355 14.998672
57.360 15.203928
57.365 15.689658
57.370 15.508448
57.375 15.316859
57.380 15.343663
57.385 15.220747
57.390 14.936966
57.395 14.782635
57.400 14.461467
57.405 14.546004
57.410 14.820062
57.415 14.341696
57.420 14.137977
57.425 14.552251
57.430 14.482449
57.435 13.99979
57.440 13.510987
57.445 13.372175
57.450 13.556796
57.455 12.966221
57.460 12.719131
57.465 13.433137
57.470 13.901456
57.475 14.441179
57.480 14.507902
57.485 14.426417
57.490 14.929529
57.495 15.320207
57.500 15.439495
57.505 15.437942
57.510 15.146652
57.515 15.297905
57.520 15.722552
57.525 15.009974
57.530 14.370104
57.535 14.090096
57.540 14.369066
57.545 14.698598
57.550 14.618251
57.555 14.187168
57.560 14.528559
57.565 14.6855
57.570 15.184288
57.575 15.321016
57.580 15.569592
57.585 15.95908
57.590 16.40803
57.595 16.249483
57.600 16.334055
57.605 15.598012
57.610 15.102283
57.615 14.982975
57.620 15.309999
57.625 15.55783
57.630 16.283613
57.635 16.5525
57.640 16.79393
57.645 16.672434
57.650 16.258898
57.655 16.200907
57.660 15.781503
57.665 15.55891
57.670 15.09778
57.675 15.165226
57.680 15.752453
57.685 16.04418
57.690 15.843989
57.695 16.019285
57.700 15.73845
57.705 15.420394
57.710 15.359228
57.715 15.190909
57.720 14.978727
57.725 14.966343
57.730 15.083191
57.735 15.384372
57.740 15.891859
57.745 15.805318
57.750 15.482776
57.755 15.041792
57.760 14.634027
57.765 14.555551
57.770 14.26568
57.775 14.528289
57.780 14.856208
57.785 14.833134
57.790 15.411988
57.795 15.183549
57.800 15.045249
57.805 14.852477
57.810 14.316346
57.815 14.092587
57.820 14.048748
57.825 14.27263
57.830 13.94462
57.835 13.349712
57.840 13.43231
57.845 13.56085
57.850 13.967294
57.855 14.101492
57.860 14.21056
57.865 15.07791
57.870 15.461761
57.875 16.172974
57.880 16.546333
57.885 16.38707
57.890 15.973691
57.895 15.572726
57.900 15.285098
57.905 15.324591
57.910 14.452432
57.915 14.037976
57.920 14.265501
57.925 14.348633
57.930 14.255064
57.935 13.79365
57.940 13.628328
57.945 13.642523
57.950 13.571319
57.955 13.446714
57.960 13.701548
57.965 14.067389
57.970 15.178166
57.975 15.362443
57.980 15.610598
57.985 15.580607
57.990 15.550564
57.995 15.038094
58.000 15.011706
58.005 14.701345
58.010 15.262922
58.015 15.430978
58.020 15.334592
58.025 15.317845
58.030 15.81425
58.035 16.021053
58.040 16.161572
58.045 16.020855
58.050 15.985953
58.055 16.246418
58.060 15.880799
58.065 15.256789
58.070 15.08409
58.075 14.918264
58.080 14.777078
58.085 14.854316
58.090 14.984266
58.095 15.565767
58.100 15.807591
58.105 15.799759
58.110 15.548827
58.115 15.091236
58.120 15.044842
58.125 15.29348
58.130 15.213029
58.135 15.104349
58.140 15.130789
58.145 15.497464
58.150 15.69381
58.155 15.622364
58.160 15.415907
58.165 15.41633
58.170 16.073832
58.175 16.181383
58.180 16.084234
58.185 15.895938
58.190 15.790145
58.195 15.628713
58.200 15.149808
58.205 14.432199
58.210 14.175118
58.215 14.55801
58.220 14.431509
58.225 14.63018
58.230 14.839327
58.235 15.163818
58.240 14.958155
58.245 14.576184
58.250 14.457254
58.255 14.380745
58.260 13.986949
58.265 14.085917
58.270 14.351479
58.275 15.148356
58.280 15.809867
58.285 16.134136
58.290 16.95635
58.295 17.772831
58.300 18.369658
58.305 18.221859
58.310 17.608545
58.315 17.264721
58.320 17.050507
58.325 17.035686
58.330 16.440546
58.335 16.157635
58.340 16.660568
58.345 16.794121
58.350 17.449059
58.355 17.352997
58.360 16.675764
58.365 16.302553
58.370 16.047041
58.375 15.164704
58.380 14.92419
58.385 14.193218
58.390 14.183138
58.395 14.514835
58.400 14.536094
58.405 14.598664
58.410 14.837241
58.415 15.057568
58.420 14.967525
58.425 14.678347
58.430 14.057713
58.435 13.805171
58.440 13.773306
58.445 14.204338
58.450 13.800643
58.455 13.784611
58.460 14.357964
