!@!!GADDS PLOTSO FILE: Chi integration type
!@!!Title/SampleName: map-6c
!@!!Comment: ?
!@!!User: Bruker Instrument Administrator
!@!!Site: University of Illinois Chicago
!@!!Frame: map-6c_01_000.gfrm
!@!!Wavelengths    1.54184   1.54056   1.54439
!@!!Frame angles: 2Theta: 63.000 Omega: 50.000 Phi: 0.000 Chi: 90.000
!@!!Integration range: 2Theta: 53.000 to 73.000  Gamma: -105.000 to -75.000
!@!!Integration method: bin normalized
!@!N
!@!SS
!@!M
!@!L 0.0 0.0 0.0 0.0
!@!XDegrees
!@!YCounts
53.000 9.514232
53.005 9.281012
53.010 8.723877
53.015 8.266251
53.020 8.263132
53.025 8.457104
53.030 8.642776
53.035 8.779297
53.040 8.864387
53.045 9.35441
53.050 8.997513
53.055 8.90767
53.060 8.99075
53.065 9.034794
53.070 9.312501
53.075 9.465473
53.080 9.796068
53.085 10.22442
53.090 10.059856
53.095 10.030951
53.100 9.941576
53.105 9.752178
53.110 9.587173
53.115 9.606418
53.120 10.20788
53.125 10.395002
53.130 10.024899
53.135 9.694921
53.140 9.447729
53.145 9.64088
53.150 9.196526
53.155 9.047704
53.160 9.031182
53.165 9.202184
53.170 9.327572
53.175 9.565505
53.180 9.157011
53.185 9.020234
53.190 8.547434
53.195 8.274245
53.200 8.453207
53.205 8.963305
53.210 9.162766
53.215 9.507485
53.220 9.987806
53.225 10.791224
53.230 11.382926
53.235 11.08374
53.240 10.479149
53.245 10.221223
53.250 10.29828
53.255 10.323059
53.260 9.877668
53.265 9.992283
53.270 10.302727
53.275 10.519316
53.280 10.394752
53.285 9.802956
53.290 9.566612
53.295 9.486056
53.300 9.13628
53.305 9.096771
53.310 9.10902
53.315 9.346879
53.320 9.689091
53.325 10.183494
53.330 10.269221
53.335 10.195457
53.340 9.943809
53.345 10.222886
53.350 10.355764
53.355 9.9017
53.360 9.539963
53.365 9.807899
53.370 10.074544
53.375 10.202461
53.380 10.000944
53.385 9.923595
53.390 9.977523
53.395 9.703948
53.400 10.006734
53.405 9.782891
53.410 9.617812
53.415 9.468334
53.420 9.688107
53.425 9.952489
53.430 10.065878
53.435 9.868269
53.440 10.104444
53.445 9.905299
53.450 9.763868
53.455 10.073986
53.460 10.561728
53.465 10.994697
53.470 11.570412
53.475 11.665165
53.480 11.985664
53.485 11.527742
53.490 11.0897
53.495 10.579837
53.500 10.141242
53.505 10.246729
53.510 10.381818
53.515 11.050472
53.520 11.28676
53.525 11.435743
53.530 11.361789
53.535 11.33909
53.540 11.054944
53.545 10.637853
53.550 10.129799
53.555 10.22785
53.560 10.481211
53.565 10.617794
53.570 10.50115
53.575 10.975513
53.580 11.075003
53.585 11.080202
53.590 11.442866
53.595 11.387726
53.600 11.286176
53.605 11.145392
53.610 11.039056
53.615 11.18439
53.620 11.613323
53.625 11.472149
53.630 10.989326
53.635 10.902003
53.640 10.588606
53.645 10.673185
53.650 10.457046
53.655 10.307452
53.660 10.212229
53.665 10.398122
53.670 10.385794
53.675 10.372438
53.680 10.401661
53.685 10.326997
53.690 10.12482
53.695 10.02694
53.700 9.761199
53.705 9.806434
53.710 9.500366
53.715 9.375786
53.720 9.344095
53.725 8.900089
53.730 8.960359
53.735 8.845245
53.740 8.732065
53.745 8.735766
53.750 8.921671
53.755 9.020767
53.760 9.032213
53.765 9.60601
53.770 9.910476
53.775 10.365731
53.780 10.96381
53.785 10.612124
53.790 10.230591
53.795 9.738349
53.800 9.565652
53.805 9.75826
53.810 9.475553
53.815 8.89656
53.820 9.487724
53.825 10.418558
53.830 10.500381
53.835 10.182515
53.840 9.954965
53.845 10.00586
53.850 10.321662
53.855 9.970368
53.860 9.514291
53.865 9.940236
53.870 9.577343
53.875 9.470609
53.880 9.180653
53.885 9.095433
53.890 8.897239
53.895 8.920855
53.900 8.870562
53.905 9.730208
53.910 10.516166
53.915 10.654661
53.920 10.857811
53.925 11.200097
53.930 11.484172
53.935 11.652071
53.940 11.597946
53.945 11.464151
53.950 11.447621
53.955 11.111251
53.960 10.886379
53.965 10.676621
53.970 10.09992
53.975 9.487725
53.980 9.333559
53.985 9.609728
53.990 9.958918
53.995 10.346279
54.000 10.40464
54.005 10.666171
54.010 11.049643
54.015 11.32458
54.020 11.537519
54.025 11.444874
54.030 10.790881
54.035 11.183504
54.040 10.94951
54.045 10.466743
54.050 10.011249
54.055 9.621505
54.060 9.963862
54.065 10.555676
54.070 10.612203
54.075 11.134644
54.080 11.35619
54.085 11.077398
54.090 11.188452
54.095 11.405595
54.100 11.101327
54.105 10.485349
54.110 10.311728
54.115 10.445664
54.120 10.210918
54.125 9.833436
54.130 9.822032
54.135 9.882702
54.140 10.466468
54.145 10.563649
54.150 10.864579
54.155 11.608386
54.160 11.556914
54.165 11.739526
54.170 11.984004
54.175 11.437763
54.180 11.275723
54.185 10.903702
54.190 10.64375
54.195 10.658479
54.200 10.489799
54.205 10.48577
54.210 10.61139
54.215 10.816659
54.220 11.026206
54.225 11.022701
54.230 11.107755
54.235 10.655352
54.240 10.804434
54.245 10.826583
54.250 10.481643
54.255 10.565356
54.260 10.730335
54.265 10.550312
54.270 10.777257
54.275 10.783757
54.280 11.133992
54.285 11.401459
54.290 11.379093
54.295 11.532268
54.300 12.087132
54.305 12.200771
54.310 12.603918
54.315 12.213609
54.320 12.228594
54.325 12.147677
54.330 11.524368
54.335 11.395637
54.340 11.123755
54.345 10.574408
54.350 10.762543
54.355 10.735169
54.360 10.757227
54.365 11.120095
54.370 11.520486
54.375 11.393952
54.380 11.58222
54.385 11.295948
54.390 11.006725
54.395 10.972079
54.400 10.795304
54.405 10.199928
54.410 10.344711
54.415 10.144132
54.420 10.705261
54.425 11.106228
54.430 10.802001
54.435 10.385096
54.440 10.202104
54.445 10.090145
54.450 10.163448
54.455 9.862662
54.460 9.741558
54.465 10.02608
54.470 10.550528
54.475 10.494342
54.480 10.983696
54.485 11.218761
54.490 11.223246
54.495 11.115011
54.500 11.080459
54.505 10.902782
54.510 10.798915
54.515 10.89992
54.520 10.630752
54.525 10.718276
54.530 10.975149
54.535 11.298282
54.540 11.560793
54.545 11.33892
54.550 10.924447
54.555 10.943594
54.560 11.47849
54.565 11.343142
54.570 10.928392
54.575 10.705184
54.580 11.089245
54.585 11.929607
54.590 11.84827
54.595 11.364688
54.600 11.438525
54.605 11.38308
54.610 11.532405
54.615 11.208405
54.620 11.190079
54.625 10.966573
54.630 11.095066
54.635 11.250253
54.640 11.165959
54.645 10.902961
54.650 10.733066
54.655 10.761955
54.660 11.055742
54.665 11.076543
54.670 11.297108
54.675 11.43858
54.680 11.286118
54.685 11.249694
54.690 11.19596
54.695 10.92695
54.700 10.404129
54.705 10.347302
54.710 10.388983
54.715 10.586948
54.720 10.314817
54.725 10.030965
54.730 10.628272
54.735 11.035741
54.740 10.858226
54.745 11.048587
54.750 11.146433
54.755 11.325221
54.760 11.346262
54.765 11.113871
54.770 10.883456
54.775 11.329285
54.780 11.465482
54.785 11.578987
54.790 11.393012
54.795 11.064585
54.800 11.196943
54.805 11.111419
54.810 11.190086
54.815 10.873639
54.820 11.206013
54.825 11.403243
54.830 11.384391
54.835 11.35019
54.840 11.245459
54.845 11.245726
54.850 11.325032
54.855 10.987727
54.860 10.98988
54.865 10.956695
54.870 11.175373
54.875 10.979472
54.880 10.770503
54.885 11.05187
54.890 11.365904
54.895 11.446882
54.900 11.612123
54.905 11.654664
54.910 11.703175
54.915 11.380301
54.920 11.077002
54.925 10.987431
54.930 11.090746
54.935 11.136539
54.940 10.919871
54.945 10.941133
54.950 11.335164
54.955 11.383713
54.960 11.380769
54.965 11.287217
54.970 11.017376
54.975 11.246536
54.980 11.334346
54.985 10.991179
54.990 10.920302
54.995 10.537337
55.000 10.654752
55.005 11.106438
55.010 11.067801
55.015 11.280995
55.020 11.613247
55.025 11.993146
55.030 12.062226
55.035 11.797092
55.040 11.58797
55.045 11.202128
55.050 11.170786
55.055 11.222529
55.060 11.031402
55.065 10.937162
55.070 10.91482
55.075 10.929685
55.080 11.103349
55.085 10.624129
55.090 10.450634
55.095 10.358862
55.100 10.580298
55.105 10.852913
55.110 10.767822
55.115 10.906713
55.120 11.257505
55.125 11.709509
55.130 11.887032
55.135 11.933209
55.140 12.07873
55.145 12.221683
55.150 12.146529
55.155 11.753475
55.160 11.655694
55.165 11.401082
55.170 10.95322
55.175 10.504538
55.180 10.231087
55.185 10.098477
55.190 10.090305
55.195 9.845477
55.200 10.118577
55.205 10.75325
55.210 11.182696
55.215 11.215215
55.220 11.376245
55.225 11.635275
55.230 12.060668
55.235 11.999653
55.240 11.573358
55.245 11.670732
55.250 11.997843
55.255 11.955134
55.260 11.703212
55.265 11.626649
55.270 11.595366
55.275 11.43476
55.280 11.388867
55.285 11.594873
55.290 11.731836
55.295 11.953134
55.300 11.901424
55.305 11.73766
55.310 11.682974
55.315 11.681186
55.320 11.824513
55.325 12.176337
55.330 12.20574
55.335 12.186959
55.340 12.222382
55.345 12.752801
55.350 13.128973
55.355 12.831944
55.360 12.522416
55.365 12.338552
55.370 12.377182
55.375 12.669587
55.380 12.894773
55.385 12.676582
55.390 12.719748
55.395 12.518576
55.400 12.284039
55.405 12.652641
55.410 12.306982
55.415 11.820039
55.420 11.64966
55.425 11.660416
55.430 12.228698
55.435 12.514978
55.440 12.685546
55.445 12.824696
55.450 12.906637
55.455 13.187098
55.460 12.933291
55.465 12.605958
55.470 12.063988
55.475 11.754775
55.480 11.388508
55.485 10.925891
55.490 10.826911
55.495 10.894161
55.500 10.91044
55.505 10.917101
55.510 10.966916
55.515 11.504912
55.520 12.093135
55.525 11.441753
55.530 11.061454
55.535 10.974858
55.540 11.333807
55.545 11.286151
55.550 11.012919
55.555 11.012602
55.560 11.401617
55.565 11.586141
55.570 11.46121
55.575 10.699946
55.580 10.345383
55.585 10.122479
55.590 10.375624
55.595 10.67889
55.600 10.893045
55.605 11.439058
55.610 12.037242
55.615 12.539495
55.620 13.048072
55.625 12.400643
55.630 12.448485
55.635 12.408214
55.640 12.037081
55.645 11.888745
55.650 11.865032
55.655 11.811291
55.660 11.603679
55.665 11.269846
55.670 11.348229
55.675 11.222163
55.680 10.951715
55.685 10.639231
55.690 10.744117
55.695 11.232761
55.700 11.329996
55.705 11.704755
55.710 11.974702
55.715 11.97014
55.720 11.832319
55.725 12.105004
55.730 12.380852
55.735 12.709618
55.740 12.460514
55.745 12.319197
55.750 12.537342
55.755 12.55831
55.760 11.810741
55.765 11.650175
55.770 11.55456
55.775 11.425316
55.780 11.575928
55.785 11.574615
55.790 11.720703
55.795 12.060273
55.800 11.679332
55.805 11.582474
55.810 11.903341
55.815 12.077131
55.820 12.376301
55.825 12.419707
55.830 12.214118
55.835 12.611818
55.840 12.865984
55.845 13.059952
55.850 12.955605
55.855 12.730454
55.860 12.61917
55.865 12.766429
55.870 12.433537
55.875 11.888065
55.880 11.380451
55.885 11.327753
55.890 10.808912
55.895 10.696635
55.900 10.951117
55.905 11.668049
55.910 12.599036
55.915 13.279285
55.920 13.983907
55.925 14.757763
55.930 15.337965
55.935 15.070092
55.940 14.832937
55.945 14.848945
55.950 14.986762
55.955 14.713894
55.960 14.565109
55.965 14.106533
55.970 13.996386
55.975 13.486147
55.980 12.502492
55.985 11.850489
55.990 11.706521
55.995 11.503979
56.000 11.628244
56.005 11.844479
56.010 12.504182
56.015 12.631856
56.020 12.847824
56.025 12.677558
56.030 12.400098
56.035 12.311958
56.040 12.110132
56.045 11.972137
56.050 11.587399
56.055 11.06854
56.060 11.472483
56.065 11.698026
56.070 11.244758
56.075 10.957739
56.080 11.053524
56.085 11.640678
56.090 12.241126
56.095 12.358441
56.100 12.703173
56.105 13.221276
56.110 13.687243
56.115 13.606804
56.120 13.180874
56.125 12.847786
56.130 12.384912
56.135 12.07269
56.140 12.011372
56.145 11.834923
56.150 11.732927
56.155 11.807178
56.160 12.158671
56.165 12.497335
56.170 12.376867
56.175 12.254105
56.180 11.784403
56.185 11.733849
56.190 11.43049
56.195 10.738014
56.200 10.74169
56.205 10.770738
56.210 11.025548
56.215 11.743084
56.220 12.440937
56.225 13.002934
56.230 13.692289
56.235 13.812173
56.240 14.277888
56.245 14.046945
56.250 13.513352
56.255 13.178698
56.260 12.796932
56.265 12.631922
56.270 12.452925
56.275 12.325526
56.280 12.366017
56.285 12.713705
56.290 13.117049
56.295 13.640291
56.300 13.751705
56.305 14.036115
56.310 13.670835
56.315 13.450013
56.320 13.305019
56.325 13.184004
56.330 13.012462
56.335 13.109585
56.340 13.389719
56.345 14.419544
56.350 14.731171
56.355 14.734503
56.360 14.749978
56.365 14.83499
56.370 14.595237
56.375 13.977263
56.380 13.164408
56.385 12.933381
56.390 12.280897
56.395 11.848599
56.400 11.241611
56.405 11.24749
56.410 11.534103
56.415 11.678181
56.420 11.625463
56.425 11.934382
56.430 11.927159
56.435 12.350194
56.440 11.929239
56.445 11.902325
56.450 12.042685
56.455 12.474729
56.460 12.592466
56.465 12.545765
56.470 12.541567
56.475 13.520685
56.480 13.389095
56.485 13.139745
56.490 13.849134
56.495 14.01547
56.500 13.968083
56.505 13.968882
56.510 13.443716
56.515 13.595895
56.520 13.36225
56.525 12.749963
56.530 12.487438
56.535 12.158341
56.540 11.764051
56.545 11.72109
56.550 11.712425
56.555 11.653682
56.560 11.09149
56.565 11.527979
56.570 11.903087
56.575 12.043016
56.580 12.058174
56.585 11.844151
56.590 11.95699
56.595 12.340248
56.600 11.913824
56.605 11.917012
56.610 11.719791
56.615 11.63396
56.620 12.223452
56.625 11.940335
56.630 12.000265
56.635 12.25299
56.640 12.000082
56.645 12.009881
56.650 11.874891
56.655 11.654713
56.660 11.878631
56.665 12.132935
56.670 12.68681
56.675 13.447951
56.680 13.618441
56.685 13.665362
56.690 13.769283
56.695 13.641679
56.700 13.702394
56.705 13.333026
56.710 13.150378
56.715 13.441401
56.720 13.456799
56.725 13.680041
56.730 13.83788
56.735 13.789309
56.740 14.070026
56.745 14.073404
56.750 13.929948
56.755 14.011127
56.760 14.044053
56.765 14.102264
56.770 13.755959
56.775 13.455277
56.780 12.860354
56.785 12.592221
56.790 13.087552
56.795 13.218298
56.800 12.93566
56.805 13.295313
56.810 13.915174
56.815 14.240259
56.820 14.593926
56.825 14.634679
56.830 14.564339
56.835 14.830221
56.840 14.405883
56.845 13.822949
56.850 14.090888
56.855 14.058661
56.860 14.04683
56.865 13.847725
56.870 14.050635
56.875 14.070166
56.880 14.329881
56.885 14.196749
56.890 13.878714
56.895 13.438508
56.900 13.041823
56.905 12.594225
56.910 12.329332
56.915 12.194991
56.920 12.17393
56.925 12.063443
56.930 12.264479
56.935 12.518203
56.940 12.921335
56.945 13.863827
56.950 13.932816
56.955 14.48919
56.960 15.017277
56.965 15.240696
56.970 15.561082
56.975 15.483098
56.980 15.200356
56.985 15.004919
56.990 14.839532
56.995 14.548111
57.000 14.057362
57.005 13.627763
57.010 13.046433
57.015 12.802205
57.020 12.976605
57.025 12.474168
57.030 12.539474
57.035 12.865066
57.040 13.165236
57.045 13.082643
57.050 12.943334
57.055 12.954749
57.060 13.038652
57.065 12.453206
57.070 12.575782
57.075 12.831714
57.080 13.152135
57.085 13.002609
57.090 12.943473
57.095 13.221532
57.100 13.585029
57.105 13.385328
57.110 13.219992
57.115 13.463964
57.120 13.757477
57.125 13.700321
57.130 13.565181
57.135 13.364143
57.140 12.769206
57.145 12.722535
57.150 13.120509
57.155 13.179399
57.160 12.767546
57.165 12.699158
57.170 13.547759
57.175 14.101169
57.180 13.881007
57.185 13.637901
57.190 13.673804
57.195 13.951501
57.200 14.205682
57.205 13.757071
57.210 14.391866
57.215 14.948594
57.220 14.908478
57.225 15.28861
57.230 14.850052
57.235 14.731627
57.240 14.725128
57.245 14.421082
57.250 13.854597
57.255 13.051189
57.260 12.691857
57.265 12.845174
57.270 12.65284
57.275 12.618019
57.280 12.404209
57.285 12.853459
57.290 13.61748
57.295 13.805361
57.300 14.01474
57.305 13.922809
57.310 14.062649
57.315 14.296676
57.320 14.002504
57.325 14.208505
57.330 14.449245
57.335 14.868876
57.340 15.286606
57.345 15.308942
57.350 15.517767
57.355 15.463887
57.360 15.114569
57.365 14.373845
57.370 14.087308
57.375 13.660332
57.380 13.786713
57.385 13.928664
57.390 14.337554
57.395 14.237714
57.400 14.516693
57.405 14.741868
57.410 14.668242
57.415 14.203658
57.420 13.849037
57.425 13.417409
57.430 13.444944
57.435 13.63238
57.440 13.732542
57.445 14.245673
57.450 14.800785
57.455 15.186307
57.460 15.703653
57.465 15.571959
57.470 15.327633
57.475 15.571262
57.480 15.484501
57.485 15.371492
57.490 15.086336
57.495 14.684222
57.500 15.012255
57.505 15.14446
57.510 14.749084
57.515 14.737607
57.520 14.624614
57.525 14.054903
57.530 13.655683
57.535 13.66688
57.540 13.673668
57.545 13.930113
57.550 13.895184
57.555 13.819663
57.560 14.558661
57.565 14.750666
57.570 14.620356
57.575 14.928909
57.580 15.044271
57.585 14.710297
57.590 14.671461
57.595 14.986315
57.600 15.271705
57.605 15.200994
57.610 14.656826
57.615 14.205832
57.620 14.037301
57.625 13.611365
57.630 13.108764
57.635 13.04478
57.640 13.025781
57.645 13.209998
57.650 13.753343
57.655 13.9519
57.660 14.597924
57.665 14.67695
57.670 14.822958
57.675 15.05492
57.680 14.867677
57.685 14.744066
57.690 14.871671
57.695 14.641939
57.700 14.84535
57.705 15.147321
57.710 15.065663
57.715 15.117606
57.720 15.07631
57.725 14.984743
57.730 15.810673
57.735 16.270182
57.740 15.812797
57.745 16.415545
57.750 16.734539
57.755 16.964951
57.760 16.837263
57.765 16.229845
57.770 16.283661
57.775 16.144989
57.780 15.442482
57.785 15.393643
57.790 15.622771
57.795 15.750531
57.800 15.466472
57.805 15.330834
57.810 15.697279
57.815 16.047911
57.820 16.302134
57.825 16.317463
57.830 16.436102
57.835 16.444908
57.840 16.196064
57.845 16.213747
57.850 15.944883
57.855 15.794105
57.860 15.574425
57.865 14.973
57.870 14.414018
57.875 14.902504
57.880 15.475976
57.885 15.67728
57.890 15.282519
57.895 15.157641
57.900 15.784043
57.905 15.813522
57.910 14.820473
57.915 14.43967
57.920 14.445573
57.925 14.16586
57.930 14.277505
57.935 14.381238
57.940 14.51934
57.945 14.655717
57.950 14.229901
57.955 14.401113
57.960 14.91744
57.965 14.801659
57.970 15.125944
57.975 15.61301
57.980 15.827642
57.985 16.113285
57.990 15.782146
57.995 15.517277
58.000 15.614172
58.005 15.429412
58.010 15.319872
58.015 14.707951
58.020 14.497784
58.025 14.749809
58.030 15.128244
58.035 15.747505
58.040 16.16032
58.045 16.47069
58.050 17.457531
58.055 18.040525
58.060 18.030613
58.065 17.560816
58.070 16.867996
58.075 16.690166
58.080 16.340128
58.085 16.145838
58.090 16.040382
58.095 16.363253
58.100 16.504417
58.105 17.202927
58.110 17.307259
58.115 16.986895
58.120 16.971674
58.125 16.949215
58.130 17.334677
58.135 17.43541
58.140 17.280279
58.145 17.619724
58.150 17.462109
58.155 17.172033
58.160 16.999533
58.165 16.328327
58.170 16.324089
58.175 15.818814
58.180 15.000048
58.185 15.474236
58.190 15.82207
58.195 16.229618
58.200 16.705511
58.205 17.006308
58.210 16.981289
58.215 17.509727
58.220 17.635273
58.225 17.206028
58.230 16.893892
58.235 16.672161
58.240 16.460938
58.245 16.54912
58.250 16.666393
58.255 16.649387
58.260 16.372116
58.265 16.318024
58.270 15.908028
58.275 16.127651
58.280 16.384293
58.285 16.293785
58.290 16.598526
58.295 17.023643
58.300 16.747704
58.305 16.955374
58.310 17.100979
58.315 17.572653
58.320 17.727425
58.325 17.724676
58.330 18.455681
58.335 19.261929
58.340 19.57444
58.345 19.514303
58.350 19.409372
58.355 19.667229
58.360 19.676355
58.365 19.086872
58.370 18.753447
58.375 18.811592
58.380 19.025341
58.385 18.690254
58.390 18.555752
58.395 18.689077
58.400 19.097187
58.405 19.414639
58.410 19.783869
58.415 19.752144
58.420 20.257372
58.425 20.504808
58.430 20.993389
58.435 21.523853
58.440 22.091629
58.445 22.368242
58.450 22.508068
58.455 22.436188
58.460 23.08847
58.465 23.339554
58.470 23.765577
