!@!!GADDS PLOTSO FILE: Chi integration type
!@!!Title/SampleName: map-2d
!@!!Comment: ?
!@!!User: Bruker Instrument Administrator
!@!!Site: University of Illinois Chicago
!@!!Frame: map-2d_01_000.gfrm
!@!!Wavelengths    1.54184   1.54056   1.54439
!@!!Frame angles: 2Theta: 63.000 Omega: 50.000 Phi: 0.000 Chi: 90.000
!@!!Integration range: 2Theta: 53.000 to 73.000  Gamma: -105.000 to -75.000
!@!!Integration method: bin normalized
!@!N
!@!SS
!@!M
!@!L 0.0 0.0 0.0 0.0
!@!XDegrees
!@!YCounts
53.000 11.16777
53.005 10.924143
53.010 10.471179
53.015 9.982845
53.020 9.42143
53.025 9.242371
53.030 9.28042
53.035 8.964191
53.040 9.397697
53.045 9.847853
53.050 10.143852
53.055 9.827091
53.060 9.646168
53.065 9.680934
53.070 9.739598
53.075 9.51307
53.080 9.032258
53.085 9.054043
53.090 9.837112
53.095 10.228628
53.100 10.442498
53.105 10.567141
53.110 10.642086
53.115 11.276767
53.120 11.285351
53.125 10.908453
53.130 10.561652
53.135 10.125582
53.140 9.674404
53.145 9.46861
53.150 9.290381
53.155 9.233567
53.160 9.763692
53.165 9.833594
53.170 10.170234
53.175 10.533124
53.180 10.465438
53.185 10.351288
53.190 10.118613
53.195 9.787039
53.200 10.047326
53.205 9.921597
53.210 9.579465
53.215 9.436918
53.220 9.303991
53.225 9.382994
53.230 9.628589
53.235 9.386586
53.240 9.502987
53.245 10.054768
53.250 10.396364
53.255 10.3397
53.260 10.10111
53.265 10.094648
53.270 10.303998
53.275 10.068536
53.280 9.651203
53.285 10.055332
53.290 10.242149
53.295 10.655552
53.300 10.627537
53.305 10.326003
53.310 10.578978
53.315 10.614073
53.320 9.830037
53.325 9.615428
53.330 9.306961
53.335 9.239455
53.340 9.508304
53.345 9.681312
53.350 9.94682
53.355 10.146498
53.360 9.985576
53.365 10.082744
53.370 10.210158
53.375 10.053323
53.380 9.731068
53.385 9.675329
53.390 9.88405
53.395 9.664187
53.400 9.623914
53.405 9.630197
53.410 9.814596
53.415 9.701743
53.420 10.016315
53.425 10.866889
53.430 11.035927
53.435 10.919851
53.440 11.38946
53.445 11.332666
53.450 11.51949
53.455 11.196826
53.460 10.694981
53.465 11.028292
53.470 11.038109
53.475 10.803002
53.480 10.835118
53.485 10.607187
53.490 10.919742
53.495 10.801302
53.500 10.543936
53.505 10.555248
53.510 10.099389
53.515 9.977803
53.520 10.014911
53.525 10.337573
53.530 10.292438
53.535 10.048171
53.540 9.747342
53.545 10.49626
53.550 11.111917
53.555 11.187839
53.560 10.70188
53.565 10.908264
53.570 10.752
53.575 10.900217
53.580 10.446711
53.585 10.388788
53.590 10.559922
53.595 10.908814
53.600 11.019808
53.605 11.334797
53.610 11.059315
53.615 11.104095
53.620 10.848545
53.625 10.379656
53.630 10.293424
53.635 10.481425
53.640 10.507113
53.645 10.729479
53.650 10.560105
53.655 10.732854
53.660 10.500379
53.665 10.321922
53.670 10.420262
53.675 10.635536
53.680 10.772955
53.685 10.512509
53.690 10.431127
53.695 10.390522
53.700 10.464287
53.705 10.263836
53.710 10.125351
53.715 9.733175
53.720 9.944411
53.725 10.009782
53.730 10.454826
53.735 10.625687
53.740 10.830534
53.745 10.954369
53.750 11.395706
53.755 11.478554
53.760 11.350569
53.765 11.031466
53.770 10.353117
53.775 10.512986
53.780 10.43745
53.785 10.31963
53.790 10.576307
53.795 10.742814
53.800 10.960854
53.805 11.149053
53.810 11.352736
53.815 11.962852
53.820 12.37733
53.825 12.235977
53.830 11.697294
53.835 11.903601
53.840 11.913539
53.845 12.112346
53.850 11.855855
53.855 11.637838
53.860 12.0236
53.865 12.822908
53.870 12.504548
53.875 11.993326
53.880 11.558514
53.885 11.536518
53.890 11.962831
53.895 11.420163
53.900 11.220296
53.905 11.429803
53.910 11.506636
53.915 11.55971
53.920 11.607524
53.925 11.309555
53.930 11.194419
53.935 11.178218
53.940 10.960137
53.945 10.871385
53.950 10.466054
53.955 10.011576
53.960 9.989316
53.965 10.166547
53.970 10.09516
53.975 10.027495
53.980 9.887443
53.985 9.826233
53.990 9.605609
53.995 9.258686
54.000 9.272251
54.005 9.111298
54.010 9.334222
54.015 9.646641
54.020 10.070062
54.025 10.426039
54.030 10.861136
54.035 10.560425
54.040 10.812462
54.045 10.835525
54.050 10.573438
54.055 10.242118
54.060 10.366053
54.065 10.985929
54.070 11.023806
54.075 10.903981
54.080 11.007664
54.085 11.307117
54.090 11.487226
54.095 11.14815
54.100 10.780824
54.105 11.588223
54.110 11.985865
54.115 12.257722
54.120 12.069982
54.125 11.958282
54.130 12.439775
54.135 12.267071
54.140 11.935163
54.145 12.106342
54.150 11.774625
54.155 12.083547
54.160 12.31636
54.165 11.952782
54.170 12.10237
54.175 11.714433
54.180 11.498369
54.185 10.990815
54.190 10.128608
54.195 9.956744
54.200 9.637243
54.205 9.401844
54.210 9.427577
54.215 9.309628
54.220 9.696398
54.225 10.013018
54.230 10.256957
54.235 10.998965
54.240 10.864021
54.245 10.916754
54.250 11.142027
54.255 11.047202
54.260 11.480201
54.265 11.388742
54.270 11.028101
54.275 11.413344
54.280 11.287159
54.285 11.251884
54.290 11.203973
54.295 10.856729
54.300 10.747759
54.305 11.247345
54.310 11.484404
54.315 11.843431
54.320 12.497142
54.325 12.65064
54.330 12.699499
54.335 12.577095
54.340 12.293635
54.345 12.516136
54.350 12.195295
54.355 11.544805
54.360 11.775735
54.365 12.033458
54.370 12.333494
54.375 11.830351
54.380 11.238681
54.385 11.307076
54.390 11.616688
54.395 11.478063
54.400 10.922957
54.405 10.511669
54.410 10.777193
54.415 11.348279
54.420 11.098181
54.425 11.083115
54.430 10.771837
54.435 11.198949
54.440 11.353895
54.445 11.313197
54.450 11.39996
54.455 11.456371
54.460 11.164068
54.465 11.391125
54.470 11.238838
54.475 11.027581
54.480 10.482374
54.485 9.743587
54.490 9.94161
54.495 9.768624
54.500 9.969066
54.505 10.682053
54.510 11.201159
54.515 11.489781
54.520 11.61591
54.525 11.757463
54.530 12.015776
54.535 11.687407
54.540 11.095695
54.545 10.723404
54.550 10.773273
54.555 10.766726
54.560 10.593831
54.565 10.653872
54.570 10.81182
54.575 11.264336
54.580 11.986354
54.585 12.457348
54.590 12.547315
54.595 12.715476
54.600 12.976084
54.605 12.88596
54.610 12.799194
54.615 12.259058
54.620 12.185475
54.625 12.828357
54.630 13.032541
54.635 12.35185
54.640 12.562617
54.645 12.288195
54.650 12.153132
54.655 12.021914
54.660 11.78099
54.665 12.08297
54.670 12.216879
54.675 11.842194
54.680 12.101421
54.685 12.205904
54.690 11.789107
54.695 11.061789
54.700 11.186971
54.705 11.307496
54.710 11.766223
54.715 12.119476
54.720 12.520999
54.725 12.575851
54.730 12.599858
54.735 12.820864
54.740 13.13942
54.745 12.52286
54.750 12.059318
54.755 12.146573
54.760 12.308896
54.765 12.149079
54.770 11.326781
54.775 11.022676
54.780 11.299527
54.785 11.242144
54.790 10.810699
54.795 10.764993
54.800 11.339554
54.805 11.878618
54.810 12.007629
54.815 11.91777
54.820 11.562791
54.825 11.941111
54.830 11.917033
54.835 11.797268
54.840 11.81088
54.845 11.403009
54.850 12.062423
54.855 12.499859
54.860 12.236093
54.865 12.087668
54.870 11.636064
54.875 11.980136
54.880 12.837626
54.885 12.42149
54.890 12.492038
54.895 12.883574
54.900 13.181884
54.905 13.315217
54.910 12.800591
54.915 12.193924
54.920 11.905087
54.925 11.39417
54.930 11.07002
54.935 10.594284
54.940 10.168927
54.945 10.176858
54.950 10.466373
54.955 10.829199
54.960 11.011175
54.965 10.67528
54.970 10.931021
54.975 11.063632
54.980 11.364018
54.985 11.326648
54.990 11.361983
54.995 11.988829
55.000 12.596444
55.005 12.99688
55.010 13.827663
55.015 13.650917
55.020 12.937719
55.025 12.93787
55.030 13.273067
55.035 13.345941
55.040 13.089173
55.045 12.746836
55.050 13.388605
55.055 13.523714
55.060 12.918242
55.065 12.256064
55.070 12.012688
55.075 11.653675
55.080 11.259594
55.085 10.787561
55.090 11.054745
55.095 11.174688
55.100 11.214047
55.105 11.301937
55.110 11.367103
55.115 11.42353
55.120 11.762547
55.125 11.791047
55.130 11.927218
55.135 12.277328
55.140 12.374297
55.145 12.445211
55.150 12.378817
55.155 12.073809
55.160 11.767028
55.165 11.455888
55.170 10.868407
55.175 10.814301
55.180 10.831706
55.185 11.232429
55.190 11.950536
55.195 12.134027
55.200 12.292824
55.205 12.495898
55.210 12.187523
55.215 12.250004
55.220 12.068588
55.225 11.933398
55.230 12.347577
55.235 12.733191
55.240 12.940515
55.245 13.29616
55.250 12.907067
55.255 12.731553
55.260 12.378735
55.265 12.031965
55.270 12.39373
55.275 12.1353
55.280 12.050986
55.285 12.077395
55.290 12.076582
55.295 12.471127
55.300 12.05221
55.305 11.252964
55.310 11.598666
55.315 11.469819
55.320 11.941325
55.325 11.955734
55.330 11.712522
55.335 12.012979
55.340 11.839249
55.345 11.860851
55.350 12.16497
55.355 11.809076
55.360 11.771265
55.365 12.066615
55.370 12.567312
55.375 12.825441
55.380 12.702762
55.385 12.99455
55.390 13.415314
55.395 13.729117
55.400 13.334571
55.405 13.279936
55.410 13.59516
55.415 13.468966
55.420 12.856662
55.425 12.735446
55.430 12.978226
55.435 13.268991
55.440 12.918161
55.445 13.230975
55.450 13.300189
55.455 13.335909
55.460 13.021672
55.465 13.161282
55.470 12.961212
55.475 12.878016
55.480 12.314301
55.485 12.129146
55.490 12.35925
55.495 12.729724
55.500 12.058411
55.505 12.529237
55.510 12.375147
55.515 12.677233
55.520 13.159645
55.525 13.007833
55.530 12.678147
55.535 12.800546
55.540 12.895521
55.545 12.994003
55.550 12.651779
55.555 12.062017
55.560 11.641808
55.565 11.388599
55.570 11.281831
55.575 11.507977
55.580 11.724854
55.585 12.083924
55.590 12.23942
55.595 12.414611
55.600 13.091417
55.605 12.743403
55.610 12.258843
55.615 12.282103
55.620 12.027558
55.625 12.131333
55.630 12.176051
55.635 11.800941
55.640 11.616597
55.645 11.57548
55.650 11.58041
55.655 11.923221
55.660 12.424942
55.665 12.231904
55.670 12.172
55.675 12.702368
55.680 12.496992
55.685 12.616812
55.690 12.401813
55.695 12.145816
55.700 12.853865
55.705 12.761481
55.710 12.860662
55.715 13.761477
55.720 13.638344
55.725 13.778567
55.730 14.086354
55.735 14.045712
55.740 14.203399
55.745 13.919073
55.750 13.569746
55.755 13.694833
55.760 13.649828
55.765 13.262589
55.770 13.136622
55.775 13.211935
55.780 13.584009
55.785 13.484102
55.790 13.525947
55.795 13.315181
55.800 13.458217
55.805 13.886284
55.810 13.690175
55.815 13.185899
55.820 12.927887
55.825 12.863821
55.830 12.915887
55.835 13.171907
55.840 13.022851
55.845 13.324809
55.850 14.132239
55.855 14.405103
55.860 14.429406
55.865 14.363782
55.870 13.9672
55.875 14.004309
55.880 13.612627
55.885 13.019257
55.890 12.783602
55.895 12.729121
55.900 12.680082
55.905 13.224416
55.910 13.884798
55.915 13.814054
55.920 13.818224
55.925 14.030038
55.930 14.1358
55.935 14.126025
55.940 13.889725
55.945 13.971965
55.950 13.790337
55.955 13.860517
55.960 13.619075
55.965 13.534708
55.970 13.352384
55.975 12.870787
55.980 12.299247
55.985 12.34959
55.990 12.23271
55.995 11.90113
56.000 12.086696
56.005 11.871745
56.010 12.020714
56.015 12.549569
56.020 13.160913
56.025 13.479228
56.030 13.775878
56.035 13.428614
56.040 13.277404
56.045 12.767761
56.050 12.38591
56.055 12.311077
56.060 11.700121
56.065 11.530327
56.070 11.939491
56.075 12.172804
56.080 12.016541
56.085 12.168057
56.090 11.611178
56.095 11.801371
56.100 11.947537
56.105 11.682046
56.110 11.278134
56.115 11.925536
56.120 11.663193
56.125 12.161353
56.130 12.351315
56.135 11.85388
56.140 11.968378
56.145 12.393791
56.150 12.888682
56.155 13.272509
56.160 13.127504
56.165 13.045223
56.170 13.349742
56.175 13.23514
56.180 12.991125
56.185 12.310187
56.190 12.597912
56.195 12.85509
56.200 13.546504
56.205 13.518155
56.210 13.590109
56.215 13.791964
56.220 13.736826
56.225 12.885962
56.230 12.473494
56.235 12.029859
56.240 12.179129
56.245 12.766915
56.250 12.63764
56.255 12.427907
56.260 12.792283
56.265 13.138132
56.270 13.040178
56.275 13.052943
56.280 12.599365
56.285 12.740549
56.290 12.917676
56.295 13.283255
56.300 13.195294
56.305 13.161159
56.310 13.023814
56.315 13.207881
56.320 13.748756
56.325 13.693282
56.330 13.406796
56.335 13.316516
56.340 13.694259
56.345 13.862605
56.350 13.453753
56.355 12.783867
56.360 12.45406
56.365 12.493937
56.370 12.321537
56.375 11.984925
56.380 12.123035
56.385 12.480871
56.390 12.964165
56.395 13.078165
56.400 13.00172
56.405 13.112404
56.410 13.103151
56.415 12.754041
56.420 12.837758
56.425 12.740223
56.430 12.451052
56.435 12.463289
56.440 12.32611
56.445 12.600271
56.450 12.254129
56.455 11.602829
56.460 11.65947
56.465 11.723356
56.470 11.737432
56.475 12.145649
56.480 11.918692
56.485 12.076029
56.490 12.957586
56.495 13.487006
56.500 13.545985
56.505 13.7286
56.510 13.373031
56.515 14.023156
56.520 14.285813
56.525 14.1856
56.530 14.099207
56.535 14.709131
56.540 14.811765
56.545 15.030001
56.550 14.847659
56.555 14.818722
56.560 14.723534
56.565 14.927538
56.570 14.856186
56.575 14.554512
56.580 14.094428
56.585 13.779053
56.590 13.392913
56.595 13.106421
56.600 12.897587
56.605 12.308715
56.610 12.091025
56.615 12.214915
56.620 12.334868
56.625 12.519454
56.630 12.551693
56.635 12.410353
56.640 12.792358
56.645 13.401843
56.650 13.64225
56.655 13.56577
56.660 14.118721
56.665 14.177553
56.670 14.681451
56.675 14.831931
56.680 15.082543
56.685 15.076428
56.690 15.2771
56.695 14.800035
56.700 14.989199
56.705 14.865842
56.710 15.187426
56.715 14.910993
56.720 14.596525
56.725 14.218416
56.730 14.250216
56.735 13.807301
56.740 13.358709
56.745 12.869117
56.750 12.995364
56.755 13.25351
56.760 13.514203
56.765 13.799981
56.770 13.873202
56.775 14.127488
56.780 14.31602
56.785 14.500601
56.790 14.610702
56.795 14.270444
56.800 13.938969
56.805 14.375736
56.810 14.580601
56.815 14.412179
56.820 13.997937
56.825 13.613412
56.830 13.863438
56.835 13.815235
56.840 14.045996
56.845 13.824428
56.850 13.611712
56.855 13.865364
56.860 13.969222
56.865 13.965531
56.870 13.99783
56.875 13.56373
56.880 13.950345
56.885 14.674591
56.890 15.123295
56.895 15.182988
56.900 14.623501
56.905 14.910361
56.910 14.82961
56.915 14.168734
56.920 13.308713
56.925 12.622674
56.930 12.739152
56.935 13.610246
56.940 13.431628
56.945 13.545172
56.950 13.452744
56.955 13.561469
56.960 13.787313
56.965 13.973466
56.970 13.125486
56.975 13.315696
56.980 13.42682
56.985 13.881646
56.990 14.15289
56.995 13.909602
57.000 13.533342
57.005 14.061009
57.010 14.006293
57.015 14.274363
57.020 14.248453
57.025 14.18172
57.030 14.42162
57.035 14.480728
57.040 14.56709
57.045 14.503648
57.050 14.265834
57.055 14.452182
57.060 14.494462
57.065 14.470382
57.070 14.606009
57.075 14.694672
57.080 14.801956
57.085 14.468767
57.090 14.314709
57.095 14.439801
57.100 14.670182
57.105 14.290063
57.110 13.726204
57.115 13.446038
57.120 14.0637
57.125 14.104192
57.130 14.190294
57.135 13.928658
57.140 13.953752
57.145 14.500389
57.150 14.752666
57.155 14.370065
57.160 14.529695
57.165 14.119843
57.170 14.134315
57.175 14.294438
57.180 14.832301
57.185 15.22271
57.190 15.120323
57.195 15.462744
57.200 16.174458
57.205 16.370001
57.210 16.123766
57.215 15.29966
57.220 15.222975
57.225 15.458738
57.230 15.431732
57.235 15.153934
57.240 14.946338
57.245 14.952225
57.250 15.329218
57.255 15.284992
57.260 15.232831
57.265 15.203758
57.270 14.970257
57.275 15.131893
57.280 14.900962
57.285 14.719231
57.290 14.377424
57.295 14.460334
57.300 14.152468
57.305 14.942518
57.310 15.284452
57.315 16.087851
57.320 16.276375
57.325 16.57021
57.330 16.663816
57.335 16.906668
57.340 16.728691
57.345 16.120813
57.350 15.334329
57.355 14.820715
57.360 14.633624
57.365 14.223448
57.370 13.991812
57.375 14.155284
57.380 14.784339
57.385 15.250759
57.390 15.818223
57.395 15.907022
57.400 16.412497
57.405 16.482187
57.410 16.679255
57.415 16.730459
57.420 16.744843
57.425 16.740946
57.430 15.992224
57.435 15.739677
57.440 16.048401
57.445 16.151695
57.450 15.93182
57.455 15.386314
57.460 15.090405
57.465 15.787619
57.470 16.540398
57.475 15.979412
57.480 15.506886
57.485 15.345193
57.490 15.495378
57.495 15.779805
57.500 15.303626
57.505 14.867194
57.510 15.450338
57.515 15.507106
57.520 15.886416
57.525 16.228664
57.530 16.188995
57.535 16.132378
57.540 15.879976
57.545 15.533851
57.550 15.887763
57.555 15.600469
57.560 15.159267
57.565 15.741172
57.570 16.210146
57.575 16.275362
57.580 16.069794
57.585 15.986105
57.590 16.383181
57.595 16.395327
57.600 16.525284
57.605 16.32892
57.610 16.126503
57.615 15.948447
57.620 15.921146
57.625 16.614981
57.630 17.449795
57.635 16.905083
57.640 16.395103
57.645 16.671093
57.650 17.214918
57.655 17.450176
57.660 16.994425
57.665 16.604279
57.670 17.032642
57.675 17.414597
57.680 17.19418
57.685 17.330124
57.690 17.119339
57.695 17.567875
57.700 17.838732
57.705 17.731157
57.710 17.580038
57.715 17.555767
57.720 17.658323
57.725 17.190926
57.730 16.312454
57.735 15.430803
57.740 15.273915
57.745 15.656045
57.750 15.343012
57.755 15.273793
57.760 15.498467
57.765 15.789784
57.770 16.215195
57.775 16.366827
57.780 16.48456
57.785 16.23197
57.790 15.970488
57.795 16.224363
57.800 16.110264
57.805 16.080595
57.810 15.869735
57.815 16.025038
57.820 16.13792
57.825 16.041861
57.830 16.33489
57.835 16.342356
57.840 16.553667
57.845 16.455959
57.850 16.325914
57.855 16.341068
57.860 16.189873
57.865 15.930951
57.870 16.062969
57.875 15.858399
57.880 16.370991
57.885 16.317553
57.890 16.541063
57.895 16.88719
57.900 16.609299
57.905 16.553043
57.910 17.265526
57.915 17.350128
57.920 17.376209
57.925 17.329853
57.930 17.557148
57.935 17.900743
57.940 17.957935
57.945 17.97489
57.950 18.224575
57.955 18.577868
57.960 18.550474
57.965 18.1824
57.970 17.97369
57.975 17.695475
57.980 17.701733
57.985 17.496504
57.990 16.951859
57.995 16.832779
58.000 16.986423
58.005 17.51586
58.010 17.443687
58.015 17.333065
58.020 17.603096
58.025 18.741337
58.030 19.167604
58.035 18.673437
58.040 18.356083
58.045 18.175106
58.050 18.021454
58.055 17.715755
58.060 17.14002
58.065 17.507288
58.070 17.668507
58.075 17.481588
58.080 17.407209
58.085 17.226589
58.090 17.072948
58.095 17.066498
58.100 16.808535
58.105 17.17082
58.110 17.684601
58.115 17.731693
58.120 17.487206
58.125 17.788191
58.130 17.722506
58.135 17.666948
58.140 17.620296
58.145 17.997766
58.150 18.650465
58.155 19.082569
58.160 18.58234
58.165 18.353716
58.170 18.466536
58.175 18.449684
58.180 18.157227
58.185 17.961241
58.190 17.511017
58.195 17.781992
58.200 17.821226
58.205 18.290525
58.210 18.925142
58.215 19.237665
58.220 19.11408
58.225 19.784046
58.230 19.9419
58.235 20.797503
58.240 20.99618
58.245 20.953936
58.250 20.998703
58.255 21.498211
58.260 21.718721
58.265 21.114643
58.270 20.255297
58.275 20.253347
58.280 20.434435
58.285 21.182508
58.290 21.002365
58.295 21.023615
58.300 21.829597
58.305 22.190205
58.310 22.067869
58.315 21.463934
58.320 21.80555
58.325 22.374163
58.330 22.637041
58.335 22.840155
58.340 23.383984
58.345 24.378841
58.350 25.36858
58.355 25.479034
58.360 25.693481
58.365 26.844522
58.370 27.454992
58.375 27.435085
58.380 27.169592
58.385 26.967173
58.390 27.116056
58.395 26.934219
58.400 26.660055
58.405 26.626236
58.410 26.722172
58.415 27.159958
58.420 27.904778
58.425 27.856325
58.430 27.80204
58.435 27.616859
58.440 27.940182
58.445 28.725048
58.450 28.381483
58.455 27.919764
58.460 28.375332
