!@!!GADDS PLOTSO FILE: Chi integration type
!@!!Title/SampleName: map-13a
!@!!Comment: ?
!@!!User: Bruker Instrument Administrator
!@!!Site: University of Illinois Chicago
!@!!Frame: map-13a_01_000.gfrm
!@!!Wavelengths    1.54184   1.54056   1.54439
!@!!Frame angles: 2Theta: 63.000 Omega: 50.000 Phi: 0.000 Chi: 90.000
!@!!Integration range: 2Theta: 53.000 to 73.000  Gamma: -105.000 to -75.000
!@!!Integration method: bin normalized
!@!N
!@!SS
!@!M
!@!L 0.0 0.0 0.0 0.0
!@!XDegrees
!@!YCounts
53.000 6.811726
53.005 6.787327
53.010 6.61928
53.015 6.262335
53.020 6.218781
53.025 6.018023
53.030 5.802619
53.035 6.027635
53.040 5.795075
53.045 6.049721
53.050 6.402472
53.055 6.470167
53.060 6.815508
53.065 7.003539
53.070 6.997619
53.075 7.662182
53.080 7.82337
53.085 8.301086
53.090 8.430567
53.095 8.675103
53.100 8.873675
53.105 9.05252
53.110 8.542765
53.115 7.939663
53.120 7.501801
53.125 7.389057
53.130 7.298788
53.135 7.161764
53.140 7.625907
53.145 8.016466
53.150 8.4501
53.155 8.841657
53.160 8.790797
53.165 8.875618
53.170 8.773935
53.175 8.140341
53.180 7.966954
53.185 7.578156
53.190 7.464353
53.195 7.13188
53.200 7.009252
53.205 6.86879
53.210 6.736975
53.215 7.004745
53.220 7.061952
53.225 7.27965
53.230 7.737214
53.235 7.559801
53.240 7.608676
53.245 7.626795
53.250 7.298101
53.255 6.780263
53.260 6.487967
53.265 6.317793
53.270 6.512373
53.275 6.764681
53.280 6.666802
53.285 6.667564
53.290 6.905653
53.295 7.30916
53.300 7.556719
53.305 7.76703
53.310 8.155591
53.315 8.270753
53.320 8.405395
53.325 8.360344
53.330 8.237789
53.335 7.981532
53.340 7.664231
53.345 7.297891
53.350 7.595701
53.355 7.458572
53.360 7.539208
53.365 7.416858
53.370 7.639522
53.375 8.036479
53.380 8.599914
53.385 9.02198
53.390 9.307641
53.395 9.469522
53.400 9.832684
53.405 9.676907
53.410 9.241551
53.415 8.80205
53.420 8.653889
53.425 8.633734
53.430 8.567826
53.435 8.364774
53.440 8.651812
53.445 8.5837
53.450 8.59528
53.455 8.748047
53.460 8.598328
53.465 8.275932
53.470 8.459781
53.475 8.578506
53.480 8.760069
53.485 8.755836
53.490 8.72665
53.495 8.564177
53.500 8.719291
53.505 8.776712
53.510 9.06451
53.515 9.153733
53.520 8.858696
53.525 8.849175
53.530 9.096713
53.535 8.889623
53.540 8.945293
53.545 8.552235
53.550 8.373899
53.555 8.519477
53.560 8.383472
53.565 8.488972
53.570 8.68031
53.575 8.636672
53.580 9.256293
53.585 9.36184
53.590 9.413308
53.595 9.690522
53.600 9.799994
53.605 9.704354
53.610 9.967995
53.615 10.084341
53.620 9.847631
53.625 9.564706
53.630 9.151999
53.635 8.967482
53.640 8.664668
53.645 8.598969
53.650 8.351354
53.655 8.458968
53.660 8.097437
53.665 7.88344
53.670 7.949738
53.675 7.545951
53.680 7.085013
53.685 7.283422
53.690 7.854923
53.695 8.521475
53.700 8.646283
53.705 8.433688
53.710 8.881455
53.715 9.232918
53.720 8.765998
53.725 7.980913
53.730 8.052944
53.735 8.426833
53.740 8.891317
53.745 8.42671
53.750 8.505367
53.755 9.311277
53.760 9.95803
53.765 10.274219
53.770 10.185981
53.775 9.942932
53.780 10.268776
53.785 10.166735
53.790 9.924061
53.795 9.814879
53.800 9.45717
53.805 9.39586
53.810 9.304228
53.815 9.481921
53.820 9.474428
53.825 9.545633
53.830 10.110478
53.835 10.641348
53.840 10.447638
53.845 10.469354
53.850 10.259799
53.855 10.231486
53.860 10.469219
53.865 10.185941
53.870 9.962927
53.875 9.725121
53.880 9.342513
53.885 9.104141
53.890 8.881256
53.895 8.28722
53.900 8.073965
53.905 8.586452
53.910 9.365243
53.915 9.750447
53.920 9.924483
53.925 9.914691
53.930 9.919853
53.935 9.451118
53.940 8.863723
53.945 8.463326
53.950 8.313482
53.955 8.353493
53.960 8.457215
53.965 8.434095
53.970 8.608273
53.975 8.949284
53.980 8.684798
53.985 8.730865
53.990 8.740421
53.995 8.393063
54.000 8.491356
54.005 8.400195
54.010 8.508459
54.015 8.618339
54.020 8.988001
54.025 9.084997
54.030 9.416926
54.035 9.737079
54.040 9.740212
54.045 9.357021
54.050 9.434788
54.055 9.363119
54.060 9.448584
54.065 9.014319
54.070 8.545756
54.075 8.414971
54.080 8.819359
54.085 8.847944
54.090 8.851674
54.095 9.189675
54.100 9.363945
54.105 9.732164
54.110 9.805172
54.115 9.717189
54.120 9.854053
54.125 9.760904
54.130 9.314578
54.135 8.928569
54.140 8.885216
54.145 8.562846
54.150 8.248287
54.155 7.967511
54.160 8.00408
54.165 8.826055
54.170 9.018613
54.175 9.118838
54.180 9.776226
54.185 9.818157
54.190 9.407962
54.195 9.28484
54.200 8.781406
54.205 8.867726
54.210 9.115897
54.215 9.29366
54.220 9.414125
54.225 10.284708
54.230 10.475066
54.235 10.656031
54.240 10.823056
54.245 10.321631
54.250 9.891186
54.255 9.589695
54.260 9.323874
54.265 9.234997
54.270 9.004627
54.275 9.49244
54.280 9.809525
54.285 10.283504
54.290 10.202265
54.295 9.379972
54.300 9.318605
54.305 9.169629
54.310 8.160245
54.315 7.80172
54.320 7.692973
54.325 7.938809
54.330 8.194212
54.335 7.934381
54.340 8.192089
54.345 8.465472
54.350 8.534254
54.355 8.572481
54.360 8.921903
54.365 9.147885
54.370 9.315115
54.375 9.184977
54.380 9.054346
54.385 9.181916
54.390 8.968049
54.395 8.837193
54.400 8.968748
54.405 9.302888
54.410 9.910204
54.415 10.112663
54.420 10.42697
54.425 10.682317
54.430 10.964639
54.435 10.916682
54.440 10.898596
54.445 10.648561
54.450 10.437243
54.455 10.236337
54.460 10.116406
54.465 9.786996
54.470 9.558352
54.475 9.250449
54.480 9.159548
54.485 9.25301
54.490 8.813224
54.495 8.453446
54.500 8.811064
54.505 8.976635
54.510 9.110302
54.515 9.01143
54.520 8.954705
54.525 9.133305
54.530 9.433798
54.535 9.257201
54.540 9.221305
54.545 9.648491
54.550 10.134428
54.555 10.111477
54.560 10.038633
54.565 9.629455
54.570 9.387596
54.575 8.998356
54.580 8.7577
54.585 8.518446
54.590 8.670411
54.595 9.210438
54.600 9.45437
54.605 9.563045
54.610 9.9821
54.615 10.090753
54.620 10.312885
54.625 10.608032
54.630 10.039392
54.635 9.763258
54.640 9.539832
54.645 9.070181
54.650 8.829389
54.655 8.514797
54.660 8.643596
54.665 8.970104
54.670 9.196255
54.675 9.00456
54.680 9.316453
54.685 9.166514
54.690 9.191376
54.695 9.373314
54.700 9.672142
54.705 9.762053
54.710 10.098377
54.715 10.027528
54.720 9.92159
54.725 9.514654
54.730 9.094366
54.735 9.005163
54.740 9.2397
54.745 9.325811
54.750 9.515074
54.755 9.907253
54.760 10.228391
54.765 10.014808
54.770 9.841595
54.775 9.608109
54.780 9.738137
54.785 9.523208
54.790 9.421216
54.795 9.413531
54.800 10.084776
54.805 10.203979
54.810 10.462022
54.815 10.334187
54.820 10.610996
54.825 10.599734
54.830 10.371693
54.835 9.91807
54.840 9.655134
54.845 10.230073
54.850 10.369762
54.855 10.745402
54.860 10.78552
54.865 10.905154
54.870 11.134394
54.875 11.004184
54.880 10.427093
54.885 10.34543
54.890 10.171907
54.895 10.095356
54.900 9.955109
54.905 9.62924
54.910 9.79802
54.915 9.998576
54.920 10.000773
54.925 9.940148
54.930 10.201385
54.935 10.543785
54.940 10.627913
54.945 10.223639
54.950 9.845701
54.955 9.752182
54.960 9.471088
54.965 9.193498
54.970 9.109697
54.975 9.603042
54.980 9.548758
54.985 9.338833
54.990 9.375313
54.995 9.670543
55.000 9.693565
55.005 9.268321
55.010 8.925838
55.015 9.216393
55.020 9.637286
55.025 9.549535
55.030 9.398266
55.035 9.293048
55.040 9.858766
55.045 10.069832
55.050 10.130246
55.055 9.785566
55.060 9.723584
55.065 9.754668
55.070 9.686678
55.075 9.661282
55.080 9.49414
55.085 9.359104
55.090 9.749817
55.095 9.540868
55.100 9.632757
55.105 9.484854
55.110 9.270363
55.115 9.350992
55.120 9.067126
55.125 9.35189
55.130 10.182758
55.135 10.590657
55.140 10.584394
55.145 10.601787
55.150 10.62256
55.155 10.616166
55.160 10.199194
55.165 9.729237
55.170 10.227733
55.175 10.820192
55.180 11.0194
55.185 11.440356
55.190 11.511828
55.195 11.18665
55.200 10.949175
55.205 9.967098
55.210 9.490768
55.215 9.379447
55.220 9.105054
55.225 9.612678
55.230 10.026605
55.235 10.197765
55.240 10.506333
55.245 10.523767
55.250 10.615314
55.255 10.498525
55.260 10.161347
55.265 10.282494
55.270 10.36327
55.275 10.057847
55.280 9.996604
55.285 9.85148
55.290 9.751806
55.295 9.674119
55.300 9.683079
55.305 9.227683
55.310 9.331419
55.315 9.257044
55.320 9.301189
55.325 10.049313
55.330 9.708178
55.335 9.674898
55.340 10.234674
55.345 10.331419
55.350 10.643259
55.355 10.778945
55.360 10.457805
55.365 10.262273
55.370 10.006714
55.375 10.2568
55.380 10.313014
55.385 10.271893
55.390 10.156146
55.395 10.091567
55.400 10.368046
55.405 10.242464
55.410 10.135129
55.415 10.336521
55.420 10.440319
55.425 10.714209
55.430 11.090145
55.435 11.326392
55.440 11.412359
55.445 11.205213
55.450 11.223871
55.455 11.060499
55.460 10.573134
55.465 10.706946
55.470 11.123038
55.475 11.29703
55.480 11.498168
55.485 11.398731
55.490 11.544355
55.495 11.759299
55.500 11.267682
55.505 11.290143
55.510 11.473072
55.515 11.449988
55.520 11.290759
55.525 11.168806
55.530 11.086937
55.535 10.825904
55.540 10.816116
55.545 10.470242
55.550 10.430193
55.555 10.350984
55.560 10.156609
55.565 9.598533
55.570 9.529714
55.575 9.153498
55.580 9.010484
55.585 9.229788
55.590 9.475636
55.595 9.73759
55.600 10.584371
55.605 10.439062
55.610 10.515117
55.615 10.772405
55.620 10.882154
55.625 11.032543
55.630 11.018764
55.635 11.042978
55.640 11.372479
55.645 11.429231
55.650 11.048255
55.655 11.069424
55.660 10.547514
55.665 10.117298
55.670 9.733001
55.675 10.067398
55.680 10.134621
55.685 9.978408
55.690 10.04489
55.695 10.414137
55.700 10.89634
55.705 10.952877
55.710 10.632521
55.715 10.741299
55.720 10.64618
55.725 10.467422
55.730 10.403526
55.735 10.177526
55.740 9.86512
55.745 9.53711
55.750 9.967326
55.755 10.165092
55.760 10.381908
55.765 10.501463
55.770 10.880744
55.775 11.532773
55.780 11.433549
55.785 11.008491
55.790 10.827787
55.795 10.502182
55.800 10.408845
55.805 10.124912
55.810 9.776451
55.815 10.02501
55.820 9.821074
55.825 10.0575
55.830 10.656739
55.835 11.015225
55.840 11.424958
55.845 11.602117
55.850 11.930223
55.855 11.910893
55.860 12.037917
55.865 11.399002
55.870 11.201024
55.875 11.212584
55.880 11.233307
55.885 11.480795
55.890 11.670377
55.895 11.562238
55.900 11.667915
55.905 11.373858
55.910 10.989761
55.915 10.52137
55.920 10.145807
55.925 10.002326
55.930 9.930357
55.935 10.195734
55.940 10.429324
55.945 11.302246
55.950 11.625923
55.955 11.781206
55.960 11.924651
55.965 12.013224
55.970 11.919292
55.975 11.691042
55.980 11.864351
55.985 12.141185
55.990 12.141496
55.995 11.93663
56.000 12.117405
56.005 12.162297
56.010 12.377846
56.015 11.862603
56.020 11.397883
56.025 11.355792
56.030 11.185492
56.035 11.236535
56.040 10.517753
56.045 9.867818
56.050 9.597987
56.055 10.003873
56.060 10.1578
56.065 10.201107
56.070 10.225547
56.075 11.022909
56.080 11.303053
56.085 11.458792
56.090 11.092785
56.095 11.046745
56.100 10.891012
56.105 10.748032
56.110 10.346089
56.115 10.510048
56.120 10.495057
56.125 10.247781
56.130 10.14713
56.135 10.492599
56.140 10.350291
56.145 10.106812
56.150 9.93658
56.155 10.393002
56.160 10.855159
56.165 10.943483
56.170 11.321224
56.175 11.427137
56.180 11.484226
56.185 10.92923
56.190 10.564847
56.195 10.549336
56.200 9.974527
56.205 9.452806
56.210 9.160224
56.215 9.514522
56.220 9.977615
56.225 10.125279
56.230 10.203542
56.235 10.63586
56.240 11.460004
56.245 12.180758
56.250 12.129985
56.255 12.108692
56.260 11.824515
56.265 11.952176
56.270 11.85599
56.275 11.342931
56.280 11.393759
56.285 11.670917
56.290 12.076468
56.295 12.10653
56.300 11.778697
56.305 11.805587
56.310 12.090555
56.315 11.559524
56.320 11.025486
56.325 10.919146
56.330 11.177884
56.335 11.07486
56.340 10.845372
56.345 10.823783
56.350 10.946141
56.355 11.584887
56.360 11.962897
56.365 12.404818
56.370 12.731319
56.375 12.820102
56.380 12.923472
56.385 13.085683
56.390 12.889044
56.395 11.936793
56.400 11.593569
56.405 11.613935
56.410 11.371557
56.415 11.067574
56.420 11.059714
56.425 10.991254
56.430 11.473957
56.435 11.603024
56.440 11.969662
56.445 11.817128
56.450 11.529645
56.455 11.307163
56.460 10.966761
56.465 10.248309
56.470 9.670241
56.475 9.627156
56.480 10.117958
56.485 10.634854
56.490 11.094185
56.495 11.417802
56.500 12.114398
56.505 12.382844
56.510 12.001402
56.515 12.052155
56.520 12.346646
56.525 12.299216
56.530 12.447664
56.535 12.222787
56.540 12.753397
56.545 12.72302
56.550 12.253978
56.555 11.890487
56.560 12.280196
56.565 12.755569
56.570 12.974932
56.575 12.505966
56.580 13.112562
56.585 13.830833
56.590 13.89785
56.595 13.382047
56.600 12.865924
56.605 12.945994
56.610 12.924251
56.615 12.413543
56.620 12.179765
56.625 11.97586
56.630 12.062616
56.635 11.699966
56.640 11.325192
56.645 11.132249
56.650 11.342532
56.655 11.527639
56.660 11.537453
56.665 11.30564
56.670 11.705518
56.675 12.262815
56.680 12.47771
56.685 12.243096
56.690 12.065289
56.695 12.569568
56.700 13.601045
56.705 13.344767
56.710 13.453607
56.715 13.449748
56.720 13.558639
56.725 13.782919
56.730 13.570182
56.735 13.49683
56.740 13.42293
56.745 13.0954
56.750 13.060916
56.755 12.996111
56.760 12.695889
56.765 12.680812
56.770 12.348989
56.775 12.581505
56.780 12.556424
56.785 12.920495
56.790 12.944342
56.795 12.921023
56.800 12.754098
56.805 12.837758
56.810 12.717752
56.815 12.646502
56.820 12.084484
56.825 11.893009
56.830 11.691821
56.835 11.759274
56.840 11.621965
56.845 11.696329
56.850 12.099889
56.855 12.376586
56.860 12.706473
56.865 13.212885
56.870 13.636039
56.875 14.080173
56.880 14.275233
56.885 14.683349
56.890 14.714302
56.895 14.669991
56.900 13.797745
56.905 12.897577
56.910 12.045407
56.915 11.518327
56.920 10.954859
56.925 10.921073
56.930 10.994738
56.935 11.355906
56.940 11.501953
56.945 11.593308
56.950 11.828196
56.955 12.04956
56.960 11.846233
56.965 11.619474
56.970 11.521587
56.975 12.001438
56.980 12.491206
56.985 12.203773
56.990 12.508777
56.995 13.06962
57.000 13.084287
57.005 13.499002
57.010 13.33355
57.015 13.741101
57.020 14.062669
57.025 13.628503
57.030 13.046409
57.035 13.251315
57.040 13.142715
57.045 13.100614
57.050 13.341614
57.055 13.371798
57.060 13.187774
57.065 13.180004
57.070 12.814682
57.075 13.217099
57.080 12.971148
57.085 11.998702
57.090 12.308743
57.095 12.485501
57.100 13.085943
57.105 12.933218
57.110 12.251741
57.115 12.428288
57.120 12.528901
57.125 12.166216
57.130 11.96032
57.135 11.328169
57.140 11.69173
57.145 11.732707
57.150 11.992922
57.155 12.37593
57.160 12.470394
57.165 12.83918
57.170 13.594096
57.175 13.843774
57.180 13.820059
57.185 13.621434
57.190 13.525384
57.195 13.789167
57.200 13.85098
57.205 13.505648
57.210 12.995097
57.215 13.363684
57.220 13.089078
57.225 12.68617
57.230 12.515422
57.235 12.355711
57.240 12.712759
57.245 13.028649
57.250 12.991882
57.255 13.266932
57.260 13.505296
57.265 13.76994
57.270 13.391471
57.275 12.850723
57.280 13.266587
57.285 12.956603
57.290 12.799708
57.295 12.577961
57.300 12.259898
57.305 12.502787
57.310 12.421921
57.315 11.887883
57.320 12.30927
57.325 12.355657
57.330 12.099217
57.335 12.042451
57.340 12.048512
57.345 11.874322
57.350 11.587745
57.355 11.330506
57.360 11.183041
57.365 11.296653
57.370 11.337174
57.375 11.551709
57.380 11.985199
57.385 12.517758
57.390 12.45941
57.395 12.774814
57.400 13.165048
57.405 12.798039
57.410 13.118103
57.415 13.379001
57.420 13.103923
57.425 13.031268
57.430 12.845673
57.435 12.605299
57.440 13.194435
57.445 13.258744
57.450 13.475283
57.455 13.972012
57.460 13.95183
57.465 14.171162
57.470 14.448904
57.475 14.157152
57.480 14.001089
57.485 13.154291
57.490 13.441188
57.495 13.911111
57.500 14.137547
57.505 13.727861
57.510 13.310771
57.515 13.302258
57.520 13.518009
57.525 12.882397
57.530 12.640247
57.535 12.493705
57.540 12.614263
57.545 13.140549
57.550 13.126222
57.555 13.183836
57.560 13.267056
57.565 13.88047
57.570 13.935563
57.575 13.650177
57.580 13.601561
57.585 13.774994
57.590 14.025569
57.595 14.334521
57.600 14.164747
57.605 14.488888
57.610 15.001494
57.615 15.290572
57.620 15.167993
57.625 14.929912
57.630 14.699052
57.635 14.284153
57.640 14.296722
57.645 14.104064
57.650 13.729957
57.655 14.127996
57.660 14.251843
57.665 13.848534
57.670 13.71944
57.675 13.422661
57.680 13.669358
57.685 13.593632
57.690 13.378574
57.695 14.259936
57.700 14.425192
57.705 14.274388
57.710 14.117911
57.715 14.005888
57.720 14.06879
57.725 13.690392
57.730 12.760314
57.735 12.965425
57.740 13.30846
57.745 13.860526
57.750 14.08989
57.755 13.885663
57.760 13.996174
57.765 14.282383
57.770 14.340833
57.775 14.561385
57.780 14.752091
57.785 14.411911
57.790 14.710811
57.795 14.702425
57.800 14.306936
57.805 14.61552
57.810 14.713971
57.815 14.228106
57.820 14.258996
57.825 14.322828
57.830 14.821297
57.835 15.367547
57.840 15.100698
57.845 14.362067
57.850 14.072277
57.855 13.689793
57.860 13.706965
57.865 13.716266
57.870 14.269881
57.875 14.450125
57.880 15.219584
57.885 16.234417
57.890 16.925766
57.895 16.623367
57.900 16.332838
57.905 15.492661
57.910 15.19955
57.915 15.168571
57.920 14.741305
57.925 14.511285
57.930 14.713769
57.935 15.34832
57.940 15.561096
57.945 15.625381
57.950 15.496804
57.955 15.491618
57.960 15.398925
57.965 15.494013
57.970 14.912825
57.975 15.413404
57.980 15.800925
57.985 15.720349
57.990 16.301743
57.995 16.245417
58.000 15.350276
58.005 15.172006
58.010 14.845164
58.015 14.660254
58.020 14.412537
58.025 13.885407
58.030 14.157097
58.035 14.83666
58.040 15.260839
58.045 14.91678
58.050 14.826397
58.055 15.297236
58.060 15.720308
58.065 15.513935
58.070 15.37243
58.075 15.01471
58.080 14.84905
58.085 14.416825
58.090 13.591532
58.095 13.24979
58.100 13.725371
58.105 14.405763
58.110 14.710402
58.115 14.915577
58.120 15.727814
58.125 16.197845
58.130 16.288042
58.135 16.052532
58.140 15.471024
58.145 15.608865
58.150 15.809036
58.155 15.385112
58.160 14.990287
58.165 14.95338
58.170 15.320846
58.175 15.729207
58.180 15.961966
58.185 15.351583
58.190 15.648565
58.195 16.102482
58.200 15.810714
58.205 15.69656
58.210 16.131378
58.215 15.874816
58.220 16.016424
58.225 15.966779
58.230 16.42247
58.235 16.853987
58.240 16.683386
58.245 15.728283
58.250 15.737468
58.255 16.058374
58.260 16.046787
58.265 15.849277
58.270 15.577968
58.275 15.124908
58.280 15.748672
58.285 16.66346
58.290 16.75215
58.295 16.860769
58.300 17.154816
58.305 17.347599
58.310 18.050591
58.315 18.689899
58.320 19.403339
58.325 19.903791
58.330 20.275742
58.335 20.592463
58.340 21.143055
58.345 21.103849
58.350 20.481981
58.355 20.09404
58.360 20.840151
58.365 20.908581
58.370 20.464235
58.375 20.911833
58.380 21.126799
58.385 21.174088
58.390 20.516188
58.395 19.692753
58.400 19.897085
58.405 20.252743
58.410 20.078907
58.415 20.199034
58.420 20.691057
58.425 21.024784
58.430 21.515635
58.435 21.11762
58.440 21.282055
58.445 21.394775
58.450 21.938675
58.455 22.524584
58.460 22.816319
58.465 23.069521
58.470 23.957743
58.475 24.250494
58.480 24.617996
58.485 24.754059
58.490 24.885855
58.495 25.400757
58.500 25.135277
58.505 25.02212
58.510 25.895605
58.515 26.083487
58.520 26.204369
58.525 26.664612
58.530 27.43075
58.535 28.287054
58.540 28.070038
58.545 27.712881
58.550 28.011282
