!@!!GADDS PLOTSO FILE: Chi integration type
!@!!Title/SampleName: map-c3
!@!!Comment: ?
!@!!User: Bruker Instrument Administrator
!@!!Site: University of Illinois Chicago
!@!!Frame: map-c3_01_000.gfrm
!@!!Wavelengths    1.54184   1.54056   1.54439
!@!!Frame angles: 2Theta: 63.000 Omega: 50.000 Phi: 0.000 Chi: 90.000
!@!!Integration range: 2Theta: 53.000 to 73.000  Gamma: -105.000 to -75.000
!@!!Integration method: bin normalized
!@!N
!@!SS
!@!M
!@!L 0.0 0.0 0.0 0.0
!@!XDegrees
!@!YCounts
53.000 6.672452
53.005 6.722049
53.010 7.07456
53.015 7.992078
53.020 8.684906
53.025 8.556144
53.030 8.549298
53.035 8.704129
53.040 8.418374
53.045 7.821064
53.050 7.411378
53.055 7.007316
53.060 7.040486
53.065 6.984357
53.070 7.289664
53.075 7.315661
53.080 7.193942
53.085 6.965891
53.090 7.16024
53.095 7.198094
53.100 7.651346
53.105 7.688182
53.110 7.533726
53.115 7.113433
53.120 6.885396
53.125 6.954297
53.130 7.044818
53.135 6.757953
53.140 6.930813
53.145 7.155876
53.150 7.782356
53.155 8.116819
53.160 8.235747
53.165 8.480826
53.170 8.337337
53.175 8.544611
53.180 8.79623
53.185 8.555934
53.190 8.321993
53.195 8.042678
53.200 7.670395
53.205 7.608739
53.210 7.50213
53.215 7.390988
53.220 7.299001
53.225 7.387618
53.230 7.312289
53.235 7.514963
53.240 7.731132
53.245 7.480171
53.250 7.623717
53.255 7.980587
53.260 7.945504
53.265 8.485398
53.270 8.329704
53.275 7.953969
53.280 8.526363
53.285 8.351238
53.290 8.1197
53.295 8.026526
53.300 7.411258
53.305 7.393337
53.310 7.432511
53.315 7.005344
53.320 6.772283
53.325 6.569747
53.330 6.588881
53.335 6.730963
53.340 7.167279
53.345 7.151593
53.350 7.118881
53.355 7.502207
53.360 7.497584
53.365 7.914828
53.370 7.958215
53.375 7.733569
53.380 8.093637
53.385 8.450554
53.390 8.628285
53.395 8.503797
53.400 8.401145
53.405 8.417996
53.410 8.289349
53.415 8.126457
53.420 7.813793
53.425 8.002773
53.430 8.547564
53.435 8.811359
53.440 8.946043
53.445 9.141659
53.450 9.245758
53.455 9.167151
53.460 9.328509
53.465 8.972385
53.470 9.281314
53.475 9.334593
53.480 9.400226
53.485 9.194688
53.490 9.202444
53.495 9.131203
53.500 9.350082
53.505 8.934609
53.510 8.994284
53.515 8.918611
53.520 9.130246
53.525 9.025951
53.530 8.594399
53.535 8.057668
53.540 7.865184
53.545 7.492605
53.550 7.319237
53.555 7.710016
53.560 7.599392
53.565 7.619075
53.570 8.072285
53.575 8.54705
53.580 8.992318
53.585 9.005205
53.590 8.820902
53.595 9.125752
53.600 9.376754
53.605 9.158101
53.610 8.763098
53.615 8.927212
53.620 9.124238
53.625 8.844565
53.630 8.789392
53.635 8.834438
53.640 8.851638
53.645 8.885242
53.650 8.631683
53.655 8.611868
53.660 8.63281
53.665 8.463031
53.670 8.648613
53.675 8.624115
53.680 8.743316
53.685 8.997268
53.690 8.837866
53.695 8.739594
53.700 8.33896
53.705 8.232579
53.710 7.871061
53.715 7.891143
53.720 7.701269
53.725 8.110227
53.730 8.362658
53.735 8.535939
53.740 8.663134
53.745 8.831685
53.750 8.781229
53.755 8.668887
53.760 8.747372
53.765 8.976956
53.770 9.225363
53.775 9.229594
53.780 9.227844
53.785 9.451965
53.790 9.570291
53.795 9.386106
53.800 9.363757
53.805 9.406041
53.810 9.439887
53.815 8.88833
53.820 8.416304
53.825 8.16422
53.830 8.163668
53.835 7.957797
53.840 7.65036
53.845 7.719162
53.850 7.95547
53.855 7.877549
53.860 7.977683
53.865 8.189807
53.870 8.133419
53.875 8.7137
53.880 9.103471
53.885 9.403823
53.890 9.274125
53.895 8.914937
53.900 8.659453
53.905 8.677481
53.910 7.871402
53.915 7.803732
53.920 8.341999
53.925 8.916723
53.930 9.491634
53.935 9.316041
53.940 9.450564
53.945 9.836133
53.950 9.672056
53.955 9.31878
53.960 8.748946
53.965 8.54732
53.970 8.673747
53.975 8.581629
53.980 8.442412
53.985 8.488907
53.990 8.572155
53.995 8.72043
54.000 8.696008
54.005 8.670056
54.010 8.735754
54.015 9.00554
54.020 9.09734
54.025 9.176216
54.030 9.644479
54.035 9.592737
54.040 9.2672
54.045 8.836812
54.050 9.200309
54.055 9.336806
54.060 9.006783
54.065 8.96481
54.070 9.447212
54.075 9.882169
54.080 9.817416
54.085 9.110353
54.090 9.569049
54.095 9.587735
54.100 9.308
54.105 9.278636
54.110 9.185253
54.115 9.405773
54.120 9.156985
54.125 8.925115
54.130 8.848692
54.135 8.799927
54.140 8.986808
54.145 9.544361
54.150 9.584658
54.155 10.153413
54.160 10.112922
54.165 10.165559
54.170 10.153032
54.175 9.656114
54.180 9.520864
54.185 9.524593
54.190 9.265752
54.195 9.622367
54.200 10.283397
54.205 10.226842
54.210 9.936908
54.215 9.488637
54.220 9.558022
54.225 9.67764
54.230 9.187028
54.235 8.808125
54.240 9.224375
54.245 9.512879
54.250 9.556602
54.255 9.430703
54.260 9.653721
54.265 9.559846
54.270 9.365448
54.275 8.936226
54.280 8.334999
54.285 8.631578
54.290 8.487542
54.295 8.593879
54.300 9.028079
54.305 9.360706
54.310 9.37333
54.315 9.757203
54.320 10.069695
54.325 9.757751
54.330 9.740556
54.335 9.077443
54.340 8.878219
54.345 9.670203
54.350 9.893825
54.355 9.375844
54.360 9.801621
54.365 9.686523
54.370 10.209823
54.375 10.674219
54.380 10.51577
54.385 10.538141
54.390 10.659241
54.395 10.89382
54.400 10.980125
54.405 10.609264
54.410 10.607859
54.415 10.680097
54.420 10.863786
54.425 11.035465
54.430 10.595222
54.435 10.597999
54.440 10.362404
54.445 10.251833
54.450 9.614554
54.455 9.233229
54.460 8.752056
54.465 8.246399
54.470 8.411703
54.475 8.152057
54.480 8.105348
54.485 8.36549
54.490 8.686539
54.495 9.218911
54.500 9.607411
54.505 9.501459
54.510 9.292478
54.515 9.525787
54.520 9.512808
54.525 9.501705
54.530 9.305926
54.535 9.527511
54.540 10.093471
54.545 10.265944
54.550 10.264426
54.555 10.057014
54.560 9.933015
54.565 10.077012
54.570 10.019377
54.575 9.835776
54.580 9.770265
54.585 9.396673
54.590 9.629725
54.595 9.649126
54.600 9.612034
54.605 9.476675
54.610 9.44556
54.615 9.716267
54.620 9.648728
54.625 9.579229
54.630 9.529921
54.635 9.363519
54.640 9.83137
54.645 9.689719
54.650 9.290668
54.655 9.654507
54.660 9.539147
54.665 9.403213
54.670 8.862581
54.675 8.360043
54.680 8.717962
54.685 9.080236
54.690 9.141037
54.695 9.58888
54.700 9.894968
54.705 10.434456
54.710 10.377218
54.715 10.749451
54.720 10.521281
54.725 9.814282
54.730 9.272143
54.735 9.000658
54.740 8.944739
54.745 9.165414
54.750 8.424691
54.755 8.231507
54.760 8.509015
54.765 8.994499
54.770 8.910068
54.775 9.102608
54.780 8.971685
54.785 9.461306
54.790 9.935499
54.795 9.741429
54.800 9.932
54.805 10.084678
54.810 10.168773
54.815 10.441663
54.820 10.339157
54.825 10.475528
54.830 10.115422
54.835 10.20053
54.840 10.069738
54.845 10.109542
54.850 10.111134
54.855 10.15062
54.860 10.52381
54.865 10.914008
54.870 10.923945
54.875 10.988407
54.880 11.120541
54.885 11.142927
54.890 11.024699
54.895 10.796618
54.900 10.786211
54.905 10.77056
54.910 10.705598
54.915 10.29418
54.920 10.8415
54.925 10.932856
54.930 10.791561
54.935 10.839918
54.940 10.754285
54.945 10.839384
54.950 10.556441
54.955 10.06635
54.960 10.368895
54.965 10.410292
54.970 10.408801
54.975 10.206488
54.980 9.811255
54.985 9.703303
54.990 9.218808
54.995 8.968806
55.000 8.825944
55.005 8.881959
55.010 9.322156
55.015 9.450384
55.020 9.395926
55.025 10.145839
55.030 10.264326
55.035 10.466503
55.040 10.469081
55.045 10.642982
55.050 10.789227
55.055 10.605791
55.060 10.192547
55.065 10.003017
55.070 9.925803
55.075 9.52658
55.080 9.246743
55.085 9.222924
55.090 9.338511
55.095 9.159129
55.100 9.1589
55.105 9.17546
55.110 9.44067
55.115 9.705632
55.120 10.123258
55.125 10.543349
55.130 10.90418
55.135 11.105065
55.140 11.168006
55.145 10.840986
55.150 10.51484
55.155 11.103031
55.160 11.138824
55.165 11.184663
55.170 10.972336
55.175 11.070776
55.180 11.686323
55.185 11.748599
55.190 11.093123
55.195 10.452548
55.200 10.194694
55.205 10.18513
55.210 10.227153
55.215 10.202599
55.220 10.252794
55.225 10.297666
55.230 10.727449
55.235 11.21246
55.240 11.361773
55.245 11.423534
55.250 10.975129
55.255 10.650292
55.260 10.668851
55.265 10.581782
55.270 10.582242
55.275 10.585888
55.280 10.35024
55.285 10.804452
55.290 11.208329
55.295 11.219206
55.300 11.403655
55.305 11.101495
55.310 10.928328
55.315 10.820823
55.320 10.737562
55.325 10.531018
55.330 10.73929
55.335 10.618015
55.340 10.193204
55.345 10.002855
55.350 10.157999
55.355 10.220014
55.360 10.975301
55.365 10.92977
55.370 10.85859
55.375 10.970592
55.380 10.779133
55.385 10.676406
55.390 10.329752
55.395 9.577236
55.400 9.296198
55.405 9.378522
55.410 9.758561
55.415 9.918232
55.420 10.031057
55.425 9.833764
55.430 10.066392
55.435 10.409207
55.440 10.201139
55.445 9.885528
55.450 9.674837
55.455 9.418024
55.460 9.829172
55.465 10.284835
55.470 10.179247
55.475 10.554457
55.480 11.137076
55.485 11.880867
55.490 12.351388
55.495 12.361876
55.500 11.870127
55.505 12.307828
55.510 12.431537
55.515 12.129004
55.520 11.385411
55.525 10.665536
55.530 10.370771
55.535 10.823559
55.540 10.425252
55.545 9.515439
55.550 9.763607
55.555 10.293911
55.560 10.858175
55.565 10.865624
55.570 10.092443
55.575 10.397868
55.580 11.147006
55.585 11.214672
55.590 10.883744
55.595 10.704771
55.600 10.832378
55.605 11.148433
55.610 11.025244
55.615 10.612129
55.620 9.951684
55.625 10.317121
55.630 10.596194
55.635 10.295937
55.640 10.301785
55.645 10.345489
55.650 10.7654
55.655 11.139688
55.660 11.031234
55.665 10.822272
55.670 10.756431
55.675 11.173806
55.680 11.41994
55.685 11.45909
55.690 11.369014
55.695 11.284414
55.700 11.781868
55.705 11.810042
55.710 11.609322
55.715 11.929802
55.720 12.024024
55.725 12.062552
55.730 12.18181
55.735 11.803406
55.740 11.801198
55.745 11.602203
55.750 10.961813
55.755 10.74224
55.760 10.393939
55.765 10.433147
55.770 10.87642
55.775 11.103189
55.780 11.062549
55.785 10.874612
55.790 10.978485
55.795 10.938209
55.800 10.458227
55.805 10.262033
55.810 10.11987
55.815 10.351918
55.820 10.614233
55.825 10.931778
55.830 11.117213
55.835 11.310195
55.840 11.411382
55.845 11.609488
55.850 11.641553
55.855 11.370469
55.860 11.528605
55.865 11.863632
55.870 11.984332
55.875 11.682512
55.880 11.518795
55.885 11.866754
55.890 12.196327
55.895 11.812325
55.900 11.869102
55.905 12.133623
55.910 12.177161
55.915 12.125381
55.920 11.662107
55.925 11.223045
55.930 10.947817
55.935 10.65335
55.940 10.201953
55.945 10.248067
55.950 10.356123
55.955 10.273269
55.960 10.968172
55.965 11.19138
55.970 11.149241
55.975 11.308908
55.980 11.337975
55.985 11.376198
55.990 11.136993
55.995 10.440617
56.000 10.472978
56.005 10.745625
56.010 10.716083
56.015 10.650522
56.020 10.729479
56.025 11.273613
56.030 11.585486
56.035 11.458261
56.040 11.205497
56.045 11.054481
56.050 11.326534
56.055 11.398019
56.060 11.43084
56.065 11.646104
56.070 11.790647
56.075 11.834874
56.080 11.610228
56.085 11.231474
56.090 10.92685
56.095 11.201261
56.100 11.210347
56.105 10.931653
56.110 10.759753
56.115 10.504093
56.120 10.825507
56.125 10.746535
56.130 10.299438
56.135 10.409706
56.140 10.478974
56.145 10.822643
56.150 11.061814
56.155 11.268903
56.160 11.494783
56.165 11.250564
56.170 11.081136
56.175 10.90056
56.180 10.851376
56.185 11.108616
56.190 11.145981
56.195 11.254416
56.200 11.5575
56.205 11.497376
56.210 11.538147
56.215 11.567414
56.220 11.55912
56.225 11.490122
56.230 11.554013
56.235 11.838461
56.240 12.341475
56.245 12.405905
56.250 12.284946
56.255 11.844271
56.260 11.660525
56.265 11.498831
56.270 11.224573
56.275 11.122298
56.280 11.03455
56.285 11.046912
56.290 11.2373
56.295 11.340283
56.300 11.34741
56.305 11.083598
56.310 11.374636
56.315 11.812513
56.320 11.836523
56.325 11.828522
56.330 11.710109
56.335 11.696659
56.340 11.826532
56.345 11.548613
56.350 11.36049
56.355 11.621222
56.360 11.940021
56.365 12.12123
56.370 12.083897
56.375 11.393517
56.380 11.036505
56.385 11.411965
56.390 11.643201
56.395 11.295936
56.400 11.34095
56.405 11.117285
56.410 11.658703
56.415 11.862032
56.420 11.72509
56.425 11.437989
56.430 11.679424
56.435 11.519586
56.440 12.117251
56.445 12.306231
56.450 12.501715
56.455 12.629025
56.460 12.565537
56.465 12.093232
56.470 11.88254
56.475 11.839029
56.480 11.575821
56.485 11.009785
56.490 11.165849
56.495 11.388127
56.500 11.440698
56.505 11.53226
56.510 11.026093
56.515 11.021464
56.520 11.013166
56.525 10.679399
56.530 10.679419
56.535 10.99853
56.540 10.998364
56.545 11.223361
56.550 11.280961
56.555 11.371489
56.560 11.739798
56.565 11.946519
56.570 11.454338
56.575 11.906928
56.580 12.921017
56.585 13.237078
56.590 13.542882
56.595 12.832394
56.600 12.271686
56.605 12.452739
56.610 11.828238
56.615 10.992922
56.620 10.811017
56.625 10.350215
56.630 10.747519
56.635 11.05774
56.640 11.309194
56.645 11.217649
56.650 11.17122
56.655 11.075989
56.660 11.305954
56.665 11.123765
56.670 10.802342
56.675 10.792988
56.680 11.210961
56.685 11.529289
56.690 11.722172
56.695 11.559571
56.700 12.088572
56.705 12.56198
56.710 12.769703
56.715 13.085272
56.720 13.338597
56.725 13.481657
56.730 13.647715
56.735 13.792851
56.740 14.332046
56.745 13.849045
56.750 13.397892
56.755 12.588737
56.760 12.472346
56.765 12.316407
56.770 11.937602
56.775 11.848481
56.780 12.140747
56.785 12.260244
56.790 12.923503
56.795 13.37694
56.800 13.638177
56.805 13.318371
56.810 12.919711
56.815 13.246003
56.820 13.116113
56.825 12.537774
56.830 11.932799
56.835 11.804648
56.840 12.082438
56.845 12.135214
56.850 11.966837
56.855 12.343265
56.860 12.590577
56.865 12.574115
56.870 12.467052
56.875 12.238145
56.880 12.025205
56.885 11.651945
56.890 11.564641
56.895 11.856608
56.900 11.969159
56.905 11.914609
56.910 11.682413
56.915 11.829904
56.920 11.789526
56.925 11.982513
56.930 12.110559
56.935 12.248068
56.940 12.317676
56.945 11.997526
56.950 11.713921
56.955 11.585799
56.960 11.288779
56.965 11.189361
56.970 11.139551
56.975 12.134274
56.980 12.602897
56.985 12.620686
56.990 12.73838
56.995 12.977804
57.000 12.917817
57.005 12.71472
57.010 12.66343
57.015 13.508016
57.020 13.712448
57.025 13.82168
57.030 13.438089
57.035 13.147387
57.040 12.826072
57.045 12.116925
57.050 11.447793
57.055 11.314764
57.060 11.488678
57.065 11.764992
57.070 12.175097
57.075 12.890729
57.080 12.770444
57.085 12.796799
57.090 12.727736
57.095 12.311487
57.100 12.324438
57.105 12.199167
57.110 11.634598
57.115 11.56113
57.120 11.388992
57.125 11.483166
57.130 11.43925
57.135 11.619199
57.140 11.851048
57.145 12.276492
57.150 12.365526
57.155 12.385816
57.160 12.08185
57.165 11.88797
57.170 11.523519
57.175 11.443888
57.180 11.437446
57.185 11.738581
57.190 11.92066
57.195 12.743176
57.200 13.612255
57.205 13.898545
57.210 14.065004
57.215 13.905852
57.220 13.482587
57.225 13.509875
57.230 12.999778
57.235 12.556022
57.240 12.368071
57.245 12.212861
57.250 12.170997
57.255 12.358741
57.260 12.265086
57.265 12.161435
57.270 12.152815
57.275 12.081278
57.280 12.006474
57.285 12.38533
57.290 12.269876
57.295 12.320028
57.300 13.041701
57.305 13.28791
57.310 13.421374
57.315 13.494162
57.320 13.463516
57.325 13.39621
57.330 13.501386
57.335 12.887736
57.340 12.600609
57.345 12.191416
57.350 12.167822
57.355 12.144993
57.360 12.144872
57.365 12.182153
57.370 12.197797
57.375 13.009109
57.380 13.4779
57.385 13.25365
57.390 13.623533
57.395 14.053822
57.400 14.01168
57.405 13.63945
57.410 13.100928
57.415 13.012557
57.420 13.464976
57.425 13.435798
57.430 13.335973
57.435 13.379371
57.440 13.344048
57.445 13.305823
57.450 13.174762
57.455 12.766434
57.460 12.660129
57.465 12.871672
57.470 13.129519
57.475 13.273846
57.480 13.410969
57.485 13.194883
57.490 12.632897
57.495 12.789187
57.500 12.290268
57.505 12.005601
57.510 11.863467
57.515 11.917605
57.520 12.203212
57.525 12.43926
57.530 12.000381
57.535 12.356895
57.540 12.544084
57.545 12.559633
57.550 12.541516
57.555 13.020468
57.560 13.155822
57.565 13.542104
57.570 13.637497
57.575 13.482758
57.580 13.852483
57.585 13.525584
57.590 13.154696
57.595 13.130164
57.600 13.149795
57.605 13.463209
57.610 13.781059
57.615 13.469908
57.620 13.649389
57.625 14.284569
57.630 14.221374
57.635 13.719615
57.640 13.314893
57.645 12.898324
57.650 13.047602
57.655 13.135105
57.660 12.824692
57.665 12.980742
57.670 13.460401
57.675 13.387647
57.680 13.450725
57.685 13.119346
57.690 12.819316
57.695 12.954967
57.700 13.090038
57.705 13.10488
57.710 13.197559
57.715 13.475135
57.720 14.236135
57.725 14.827809
57.730 15.033948
57.735 14.953408
57.740 14.638349
57.745 14.684752
57.750 14.706223
57.755 14.456999
57.760 14.021669
57.765 13.867477
57.770 13.742776
57.775 14.418356
57.780 14.80913
57.785 14.923659
57.790 14.865636
57.795 15.040335
57.800 14.969045
57.805 14.956346
57.810 14.475341
57.815 13.973838
57.820 13.795042
57.825 13.78763
57.830 13.637825
57.835 13.396697
57.840 13.150807
57.845 12.869232
57.850 12.950936
57.855 13.132241
57.860 13.416861
57.865 13.851547
57.870 13.754558
57.875 14.529654
57.880 15.278987
57.885 15.133162
57.890 14.792965
57.895 14.310719
57.900 14.164149
57.905 14.079035
57.910 13.164371
57.915 12.645391
57.920 13.180567
57.925 13.333568
57.930 13.216306
57.935 13.202832
57.940 13.663868
57.945 13.879945
57.950 14.137779
57.955 14.311755
57.960 14.334265
57.965 14.363677
57.970 14.459972
57.975 14.513564
57.980 14.723497
57.985 14.751364
57.990 14.400325
57.995 14.443622
58.000 14.396101
58.005 14.373839
58.010 14.460817
58.015 14.680358
58.020 15.009825
58.025 15.239954
58.030 15.453033
58.035 15.371539
58.040 15.339425
58.045 15.168991
58.050 14.897084
58.055 14.853385
58.060 15.269102
58.065 15.227545
58.070 15.457705
58.075 15.544824
58.080 15.586874
58.085 15.582995
58.090 15.302062
58.095 15.089077
58.100 15.611158
58.105 15.334658
58.110 15.217308
58.115 15.313503
58.120 16.051605
58.125 16.205902
58.130 15.726171
58.135 15.171089
58.140 15.537321
58.145 15.890342
58.150 15.570276
58.155 14.417083
58.160 14.322955
58.165 14.592699
58.170 14.608212
58.175 14.854224
58.180 14.638073
58.185 15.0607
58.190 15.675718
58.195 15.727939
58.200 15.624902
58.205 15.954499
58.210 15.821393
58.215 15.557612
58.220 15.113664
58.225 14.529613
58.230 14.505213
58.235 14.609155
58.240 14.339532
58.245 14.1937
58.250 14.678083
58.255 15.18019
58.260 15.26747
58.265 15.66698
58.270 15.953196
58.275 16.230309
58.280 16.135414
58.285 15.538091
58.290 15.338699
58.295 15.553066
58.300 15.325276
58.305 15.095211
58.310 15.193727
58.315 15.701547
58.320 16.19392
58.325 16.201395
58.330 16.521858
58.335 16.910694
58.340 17.192091
58.345 17.14131
58.350 17.254841
58.355 17.408497
58.360 17.583721
58.365 17.124136
58.370 17.079424
58.375 16.901611
58.380 17.152292
58.385 17.123436
58.390 17.387585
58.395 18.042812
58.400 18.400688
58.405 18.408226
58.410 18.422541
58.415 17.615028
58.420 17.123867
58.425 17.244839
58.430 16.98159
58.435 16.95676
58.440 17.151834
58.445 17.649328
58.450 17.950142
58.455 18.351151
58.460 18.587708
58.465 18.768517
58.470 19.298456
58.475 19.22444
58.480 19.624834
58.485 20.861393
58.490 21.652353
58.495 22.469101
58.500 23.188395
58.505 23.444111
58.510 24.065247
58.515 24.420574
58.520 23.685543
58.525 23.356701
58.530 22.757977
58.535 22.964943
58.540 23.450539
