!@!!GADDS PLOTSO FILE: Chi integration type
!@!!Title/SampleName: map-17
!@!!Comment: ?
!@!!User: Bruker Instrument Administrator
!@!!Site: University of Illinois Chicago
!@!!Frame: map-17_01_000.gfrm
!@!!Wavelengths    1.54184   1.54056   1.54439
!@!!Frame angles: 2Theta: 63.000 Omega: 50.000 Phi: 0.000 Chi: 90.000
!@!!Integration range: 2Theta: 53.000 to 73.000  Gamma: -105.000 to -75.000
!@!!Integration method: bin normalized
!@!N
!@!SS
!@!M
!@!L 0.0 0.0 0.0 0.0
!@!XDegrees
!@!YCounts
53.000 7.487175
53.005 7.527291
53.010 7.237176
53.015 6.741973
53.020 6.877355
53.025 7.001308
53.030 6.667275
53.035 6.346921
53.040 6.412567
53.045 6.775809
53.050 6.9344
53.055 7.127984
53.060 7.231933
53.065 7.382166
53.070 7.583315
53.075 7.669958
53.080 7.965955
53.085 8.29222
53.090 8.186289
53.095 8.063859
53.100 7.849054
53.105 8.023913
53.110 7.892012
53.115 7.500532
53.120 7.140014
53.125 6.934515
53.130 6.608467
53.135 6.454437
53.140 6.160716
53.145 5.952207
53.150 5.87008
53.155 6.308276
53.160 6.939383
53.165 7.228472
53.170 7.343468
53.175 7.53547
53.180 7.519557
53.185 7.358084
53.190 7.094271
53.195 6.805884
53.200 6.84313
53.205 6.818679
53.210 6.463108
53.215 6.46319
53.220 6.046634
53.225 6.02468
53.230 6.086597
53.235 6.243271
53.240 6.410647
53.245 6.727904
53.250 6.940479
53.255 7.134421
53.260 7.080406
53.265 7.188765
53.270 7.256057
53.275 7.329009
53.280 7.499487
53.285 8.086766
53.290 7.891533
53.295 7.544438
53.300 7.250541
53.305 7.283464
53.310 7.452353
53.315 7.139958
53.320 6.739149
53.325 7.593809
53.330 7.995955
53.335 8.005158
53.340 7.627225
53.345 7.437081
53.350 7.382905
53.355 7.305214
53.360 6.665316
53.365 6.612257
53.370 6.667705
53.375 6.881595
53.380 6.85624
53.385 7.209068
53.390 7.299546
53.395 7.357038
53.400 7.166346
53.405 7.214036
53.410 7.373654
53.415 7.303625
53.420 7.180147
53.425 7.213063
53.430 7.562072
53.435 7.481876
53.440 7.288787
53.445 6.967829
53.450 7.473527
53.455 7.532773
53.460 7.41515
53.465 7.81503
53.470 8.269514
53.475 8.398352
53.480 8.133953
53.485 7.94989
53.490 7.910994
53.495 7.276851
53.500 6.836022
53.505 6.460813
53.510 6.306115
53.515 6.415162
53.520 6.095984
53.525 6.496345
53.530 7.060443
53.535 6.636291
53.540 6.793843
53.545 6.808105
53.550 7.003703
53.555 7.394841
53.560 7.400328
53.565 7.467162
53.570 8.10913
53.575 8.351357
53.580 8.285608
53.585 8.311775
53.590 8.153565
53.595 7.873915
53.600 7.768411
53.605 7.572242
53.610 7.658448
53.615 7.665976
53.620 7.362016
53.625 7.550699
53.630 7.827145
53.635 7.577838
53.640 7.616128
53.645 7.554288
53.650 7.708193
53.655 7.360924
53.660 7.227631
53.665 7.03575
53.670 7.390155
53.675 7.444746
53.680 7.964783
53.685 8.455023
53.690 8.87901
53.695 8.562093
53.700 8.476727
53.705 8.23071
53.710 8.199992
53.715 7.993545
53.720 8.062978
53.725 8.656199
53.730 9.088236
53.735 9.303477
53.740 9.372708
53.745 9.131959
53.750 9.187904
53.755 9.264791
53.760 8.67801
53.765 8.754191
53.770 9.036939
53.775 9.24999
53.780 9.283741
53.785 8.798737
53.790 8.398047
53.795 8.701376
53.800 8.406918
53.805 8.001065
53.810 7.611097
53.815 7.603273
53.820 7.638099
53.825 7.603412
53.830 7.527267
53.835 7.248861
53.840 7.729426
53.845 7.915119
53.850 7.938894
53.855 8.278702
53.860 8.255896
53.865 7.822932
53.870 7.786745
53.875 7.760449
53.880 7.615323
53.885 7.352481
53.890 6.968753
53.895 7.25155
53.900 7.539924
53.905 7.133226
53.910 6.883334
53.915 7.19299
53.920 7.56712
53.925 7.483254
53.930 7.131353
53.935 7.427436
53.940 7.494293
53.945 7.290622
53.950 7.102026
53.955 6.714968
53.960 6.513622
53.965 6.484144
53.970 6.592983
53.975 7.103302
53.980 7.07056
53.985 7.425826
53.990 8.239796
53.995 8.670355
54.000 8.807956
54.005 8.517727
54.010 8.55803
54.015 9.045245
54.020 8.788102
54.025 8.710808
54.030 8.893041
54.035 8.741462
54.040 8.295156
54.045 7.918711
54.050 7.329362
54.055 6.911746
54.060 6.545672
54.065 6.309223
54.070 6.925809
54.075 7.819983
54.080 8.163195
54.085 8.532034
54.090 8.880183
54.095 8.84686
54.100 8.773115
54.105 8.522985
54.110 7.897738
54.115 7.819967
54.120 7.721929
54.125 7.723738
54.130 7.596524
54.135 7.569983
54.140 7.347493
54.145 7.565638
54.150 7.86681
54.155 8.012586
54.160 8.071026
54.165 7.974972
54.170 8.162209
54.175 8.563275
54.180 8.474469
54.185 8.518025
54.190 8.659414
54.195 8.853676
54.200 9.241489
54.205 9.262298
54.210 9.340487
54.215 9.026844
54.220 8.611444
54.225 8.307737
54.230 7.832462
54.235 7.212045
54.240 7.143833
54.245 7.413048
54.250 7.767264
54.255 8.061484
54.260 8.277021
54.265 8.591812
54.270 9.178694
54.275 9.012591
54.280 8.879231
54.285 8.628094
54.290 8.570951
54.295 8.513394
54.300 8.740096
54.305 8.867014
54.310 8.672935
54.315 8.382875
54.320 8.31679
54.325 8.305321
54.330 8.375586
54.335 8.223345
54.340 7.942807
54.345 8.252586
54.350 8.635781
54.355 8.797149
54.360 9.063842
54.365 8.849616
54.370 8.865856
54.375 9.081057
54.380 8.907844
54.385 8.622459
54.390 8.225312
54.395 8.055028
54.400 8.254814
54.405 8.293394
54.410 8.417101
54.415 8.709237
54.420 8.975844
54.425 9.160526
54.430 9.486293
54.435 9.527032
54.440 9.405729
54.445 8.976777
54.450 8.648759
54.455 8.762861
54.460 8.634779
54.465 8.389936
54.470 8.772414
54.475 9.13622
54.480 9.108027
54.485 9.223601
54.490 9.195598
54.495 8.99688
54.500 8.532152
54.505 8.190268
54.510 7.981023
54.515 8.416824
54.520 8.074088
54.525 7.783779
54.530 7.849231
54.535 7.878292
54.540 7.699396
54.545 7.845318
54.550 7.916666
54.555 8.672016
54.560 9.034278
54.565 9.361039
54.570 9.535051
54.575 9.597497
54.580 9.388092
54.585 9.369108
54.590 8.932889
54.595 8.96509
54.600 8.886571
54.605 8.77638
54.610 8.631569
54.615 8.362773
54.620 8.461602
54.625 8.503059
54.630 8.237591
54.635 8.023834
54.640 8.02317
54.645 8.334721
54.650 8.302719
54.655 8.256503
54.660 8.596195
54.665 8.918697
54.670 8.977879
54.675 8.829846
54.680 9.252135
54.685 9.177043
54.690 8.765922
54.695 8.669542
54.700 8.437941
54.705 8.670679
54.710 8.337244
54.715 7.743636
54.720 7.568201
54.725 7.704391
54.730 7.678696
54.735 7.812671
54.740 7.734571
54.745 8.075065
54.750 8.512584
54.755 8.785769
54.760 8.48676
54.765 8.415571
54.770 8.750311
54.775 8.596718
54.780 8.272125
54.785 8.247991
54.790 8.679894
54.795 9.309579
54.800 9.214007
54.805 8.757206
54.810 9.164855
54.815 9.437553
54.820 9.424789
54.825 9.454453
54.830 8.789293
54.835 9.099645
54.840 9.213142
54.845 8.742011
54.850 8.861017
54.855 8.639108
54.860 8.211393
54.865 8.321606
54.870 8.212995
54.875 8.529882
54.880 8.749731
54.885 8.955684
54.890 9.225903
54.895 9.44747
54.900 9.549132
54.905 9.444699
54.910 9.367977
54.915 9.146253
54.920 8.663292
54.925 8.423053
54.930 8.60541
54.935 8.461615
54.940 8.515303
54.945 8.668639
54.950 9.082993
54.955 9.868928
54.960 10.318563
54.965 10.098113
54.970 10.454524
54.975 10.571699
54.980 10.679969
54.985 10.708918
54.990 10.444518
54.995 10.37851
55.000 10.392882
55.005 10.166481
55.010 10.020338
55.015 9.856198
55.020 9.632787
55.025 9.410413
55.030 9.334778
55.035 9.604261
55.040 9.687167
55.045 9.587501
55.050 9.286739
55.055 9.228406
55.060 9.207647
55.065 8.90315
55.070 8.515657
55.075 8.237903
55.080 8.635851
55.085 9.00358
55.090 8.901812
55.095 9.286998
55.100 9.854654
55.105 9.980077
55.110 9.99507
55.115 9.342308
55.120 9.205938
55.125 8.860633
55.130 8.335432
55.135 8.039086
55.140 7.865571
55.145 7.884827
55.150 7.903906
55.155 7.854786
55.160 8.213201
55.165 7.826527
55.170 7.8199
55.175 8.077739
55.180 8.246361
55.185 8.665249
55.190 8.77826
55.195 9.058022
55.200 9.589361
55.205 9.836111
55.210 9.86101
55.215 10.262487
55.220 10.106134
55.225 9.984785
55.230 10.040978
55.235 10.190978
55.240 10.257112
55.245 10.273669
55.250 10.137807
55.255 10.4286
55.260 10.354518
55.265 10.010491
55.270 9.744388
55.275 9.60774
55.280 9.561395
55.285 9.415191
55.290 9.304624
55.295 9.508109
55.300 9.936674
55.305 9.810915
55.310 9.704336
55.315 9.48994
55.320 9.47344
55.325 9.633455
55.330 9.599708
55.335 9.503772
55.340 9.952678
55.345 10.322392
55.350 10.753428
55.355 11.212524
55.360 11.349082
55.365 11.267799
55.370 11.385673
55.375 10.987354
55.380 10.351475
55.385 10.202419
55.390 10.123507
55.395 10.159114
55.400 10.324664
55.405 10.06391
55.410 10.27579
55.415 10.60046
55.420 10.445246
55.425 10.369217
55.430 10.230849
55.435 10.218947
55.440 10.279943
55.445 10.696989
55.450 10.767338
55.455 11.008265
55.460 10.901834
55.465 10.68265
55.470 10.604181
55.475 10.932409
55.480 10.575381
55.485 10.260102
55.490 10.161563
55.495 10.59346
55.500 10.570445
55.505 10.962167
55.510 10.630969
55.515 10.480922
55.520 10.475797
55.525 9.994175
55.530 9.181679
55.535 9.399928
55.540 8.886112
55.545 8.848607
55.550 9.266808
55.555 8.875441
55.560 8.908603
55.565 9.781715
55.570 9.729078
55.575 9.912811
55.580 9.854624
55.585 9.676598
55.590 10.113264
55.595 10.2107
55.600 9.815964
55.605 9.669345
55.610 9.771805
55.615 10.188922
55.620 10.266582
55.625 10.359224
55.630 10.384118
55.635 9.931725
55.640 9.868593
55.645 9.720568
55.650 9.658634
55.655 9.722058
55.660 9.803014
55.665 10.189751
55.670 10.556365
55.675 10.504388
55.680 10.164224
55.685 10.104579
55.690 10.228578
55.695 9.966135
55.700 9.543842
55.705 9.471588
55.710 9.731837
55.715 9.809868
55.720 9.616391
55.725 9.532278
55.730 9.708113
55.735 9.659245
55.740 9.95764
55.745 10.127912
55.750 10.16069
55.755 10.14071
55.760 10.346315
55.765 10.178952
55.770 10.254046
55.775 9.975119
55.780 9.999212
55.785 10.317785
55.790 10.07982
55.795 9.740817
55.800 9.976148
55.805 10.301331
55.810 10.648289
55.815 10.214037
55.820 10.135368
55.825 10.216076
55.830 10.245384
55.835 10.020849
55.840 9.678612
55.845 9.200378
55.850 9.344419
55.855 9.508353
55.860 9.50995
55.865 9.47237
55.870 9.042393
55.875 9.26234
55.880 9.599522
55.885 9.716553
55.890 9.450253
55.895 9.831389
55.900 10.084403
55.905 10.194892
55.910 10.082448
55.915 10.00643
55.920 10.018101
55.925 10.353903
55.930 10.204245
55.935 10.36554
55.940 10.655148
55.945 11.055793
55.950 10.788437
55.955 10.610171
55.960 9.972
55.965 9.787621
55.970 9.822262
55.975 9.669636
55.980 9.515258
55.985 9.758216
55.990 9.8908
55.995 10.69534
56.000 10.832358
56.005 10.60504
56.010 10.295583
56.015 10.1932
56.020 9.943621
56.025 10.062143
56.030 9.718237
56.035 9.629296
56.040 9.53859
56.045 9.421271
56.050 8.969168
56.055 9.280993
56.060 8.904555
56.065 8.843801
56.070 9.117072
56.075 9.75562
56.080 10.211434
56.085 10.45228
56.090 10.43099
56.095 10.497526
56.100 10.310254
56.105 10.428028
56.110 10.467628
56.115 11.314771
56.120 11.527549
56.125 11.499629
56.130 11.977502
56.135 12.033748
56.140 12.126375
56.145 12.037535
56.150 11.608425
56.155 11.909719
56.160 11.907166
56.165 11.761989
56.170 12.196196
56.175 12.268148
56.180 12.047088
56.185 11.652016
56.190 12.002569
56.195 12.274085
56.200 12.524018
56.205 12.615011
56.210 12.296923
56.215 12.056034
56.220 12.379047
56.225 11.96767
56.230 12.165021
56.235 11.982961
56.240 11.565426
56.245 11.607583
56.250 11.465381
56.255 11.19764
56.260 11.187396
56.265 10.769183
56.270 10.17679
56.275 9.963156
56.280 9.932032
56.285 10.258247
56.290 10.344241
56.295 10.589828
56.300 10.864679
56.305 11.279346
56.310 11.645588
56.315 11.768658
56.320 11.889721
56.325 11.251441
56.330 10.821173
56.335 10.844122
56.340 10.776629
56.345 10.452085
56.350 10.354131
56.355 10.286659
56.360 10.473435
56.365 10.3012
56.370 10.124345
56.375 10.007488
56.380 9.977608
56.385 9.675257
56.390 9.966997
56.395 10.075443
56.400 9.944745
56.405 9.938418
56.410 10.21855
56.415 10.756108
56.420 11.314322
56.425 11.290164
56.430 11.247684
56.435 11.543241
56.440 11.645571
56.445 11.485212
56.450 11.287218
56.455 11.189651
56.460 11.639235
56.465 11.537169
56.470 11.455528
56.475 11.839981
56.480 11.906821
56.485 11.698278
56.490 11.837182
56.495 11.913364
56.500 12.303913
56.505 12.560322
56.510 12.362764
56.515 12.690122
56.520 12.95989
56.525 12.552376
56.530 12.250059
56.535 12.114695
56.540 12.101262
56.545 12.017569
56.550 11.683929
56.555 11.41338
56.560 11.154958
56.565 10.74497
56.570 10.179163
56.575 9.715041
56.580 9.630836
56.585 9.604091
56.590 9.851256
56.595 10.235172
56.600 10.543637
56.605 11.007777
56.610 11.129538
56.615 10.893954
56.620 10.546617
56.625 10.3776
56.630 10.55819
56.635 10.668498
56.640 10.474208
56.645 10.46686
56.650 10.950994
56.655 11.074425
56.660 10.857303
56.665 10.713508
56.670 10.732728
56.675 11.214375
56.680 11.465796
56.685 11.434219
56.690 11.903164
56.695 12.042971
56.700 11.732707
56.705 11.622766
56.710 11.280215
56.715 11.528351
56.720 11.50863
56.725 11.222291
56.730 11.515781
56.735 11.786197
56.740 11.876051
56.745 12.025416
56.750 11.508523
56.755 11.251849
56.760 11.349507
56.765 11.69702
56.770 12.253743
56.775 12.541482
56.780 12.392314
56.785 12.507122
56.790 12.436262
56.795 12.303942
56.800 11.95996
56.805 11.131352
56.810 10.92879
56.815 11.065284
56.820 11.154427
56.825 11.308807
56.830 10.84626
56.835 10.545812
56.840 10.751729
56.845 10.561205
56.850 10.120621
56.855 9.780516
56.860 9.731266
56.865 9.911865
56.870 10.272158
56.875 10.140582
56.880 10.098994
56.885 10.262101
56.890 10.532633
56.895 10.923289
56.900 11.357569
56.905 11.370431
56.910 11.454459
56.915 11.468931
56.920 11.82271
56.925 12.148445
56.930 11.948907
56.935 12.186022
56.940 12.387588
56.945 12.6897
56.950 12.833622
56.955 12.73809
56.960 12.358533
56.965 12.309919
56.970 11.835629
56.975 11.8261
56.980 11.629352
56.985 11.48978
56.990 11.464383
56.995 11.411762
57.000 11.526907
57.005 11.741636
57.010 11.447757
57.015 11.382825
57.020 11.418421
57.025 11.664557
57.030 11.920698
57.035 11.664729
57.040 11.422105
57.045 11.586493
57.050 11.899716
57.055 12.133734
57.060 12.210529
57.065 12.495955
57.070 12.518546
57.075 12.346571
57.080 12.087783
57.085 12.355466
57.090 12.084703
57.095 11.608891
57.100 10.901826
57.105 10.998476
57.110 11.583112
57.115 11.975469
57.120 11.885355
57.125 12.142302
57.130 12.6331
57.135 12.726997
57.140 12.825079
57.145 12.249265
57.150 11.89233
57.155 12.339619
57.160 12.142757
57.165 12.023602
57.170 12.207397
57.175 12.476413
57.180 12.911991
57.185 13.179537
57.190 12.98193
57.195 13.312101
57.200 13.288832
57.205 12.905718
57.210 12.116261
57.215 11.566312
57.220 11.391283
57.225 11.198546
57.230 10.997484
57.235 10.864167
57.240 11.14631
57.245 11.882951
57.250 11.61521
57.255 11.194382
57.260 11.02351
57.265 11.17361
57.270 11.43664
57.275 11.369244
57.280 11.102304
57.285 11.585438
57.290 11.695942
57.295 11.736583
57.300 11.654482
57.305 11.7198
57.310 11.898395
57.315 11.881742
57.320 12.189184
57.325 12.268025
57.330 12.517122
57.335 12.629588
57.340 12.708246
57.345 12.608379
57.350 12.565418
57.355 12.628911
57.360 12.530275
57.365 12.399164
57.370 12.187813
57.375 12.091979
57.380 12.392221
57.385 13.257483
57.390 13.360098
57.395 13.522944
57.400 13.395512
57.405 13.415566
57.410 13.122999
57.415 12.577208
57.420 11.63525
57.425 11.397898
57.430 11.44992
57.435 11.847554
57.440 11.906248
57.445 12.049375
57.450 11.969195
57.455 11.696698
57.460 11.507566
57.465 11.935793
57.470 11.515175
57.475 11.145586
57.480 11.086998
57.485 11.307785
57.490 11.681636
57.495 11.409863
57.500 10.70998
57.505 10.93444
57.510 10.800156
57.515 10.659774
57.520 10.346491
57.525 10.325177
57.530 10.741544
57.535 10.81009
57.540 10.883906
57.545 11.654206
57.550 11.821755
57.555 12.567237
57.560 12.959702
57.565 12.935426
57.570 12.920003
57.575 12.602474
57.580 12.22086
57.585 12.012863
57.590 11.636072
57.595 11.323471
57.600 11.539124
57.605 11.760092
57.610 12.021317
57.615 12.163735
57.620 12.525386
57.625 12.645427
57.630 12.967022
57.635 12.868946
57.640 13.132211
57.645 13.284162
57.650 13.298995
57.655 13.348171
57.660 13.412601
57.665 13.521202
57.670 13.60325
57.675 13.351758
57.680 12.91457
57.685 12.424767
57.690 12.356717
57.695 12.465333
57.700 12.243581
57.705 11.800893
57.710 11.805058
57.715 11.900213
57.720 12.104369
57.725 11.909325
57.730 11.894774
57.735 11.804478
57.740 12.230866
57.745 12.480589
57.750 12.613627
57.755 12.407347
57.760 12.317807
57.765 12.34129
57.770 11.941343
57.775 11.77569
57.780 11.231616
57.785 11.165963
57.790 11.159424
57.795 11.077924
57.800 10.880758
57.805 11.373625
57.810 11.760547
57.815 12.474192
57.820 12.718142
57.825 13.071299
57.830 12.996597
57.835 13.042136
57.840 12.782326
57.845 12.517324
57.850 11.923393
57.855 11.987734
57.860 11.78107
57.865 11.993652
57.870 12.00057
57.875 12.188013
57.880 12.283042
57.885 12.326784
57.890 12.223415
57.895 12.064617
57.900 12.293252
57.905 12.677795
57.910 12.603654
57.915 12.811835
57.920 13.156521
57.925 13.198478
57.930 13.676055
57.935 13.198228
57.940 12.957235
57.945 12.980898
57.950 12.837647
57.955 12.931015
57.960 13.266632
57.965 13.095504
57.970 13.426128
57.975 13.275842
57.980 13.397355
57.985 13.589334
57.990 13.143061
57.995 13.042932
58.000 13.264671
58.005 13.563928
58.010 14.233339
58.015 14.274329
58.020 13.710214
58.025 13.702026
58.030 13.975183
58.035 13.937214
58.040 13.761026
58.045 13.48284
58.050 13.734282
58.055 14.347473
58.060 14.319316
58.065 13.917851
58.070 14.036371
58.075 13.677866
58.080 13.17683
58.085 13.187302
58.090 12.780933
58.095 12.753828
58.100 12.972613
58.105 12.636543
58.110 13.155048
58.115 13.107638
58.120 12.852319
58.125 13.083771
58.130 13.773948
58.135 14.054355
58.140 13.691899
58.145 13.224643
58.150 13.185295
58.155 13.503939
58.160 13.087018
58.165 12.211052
58.170 11.865883
58.175 11.933758
58.180 12.00394
58.185 12.432087
58.190 12.356847
58.195 12.362968
58.200 13.012573
58.205 13.200342
58.210 13.492489
58.215 13.752511
58.220 13.297621
58.225 13.490145
58.230 13.543923
58.235 12.440838
58.240 12.593182
58.245 12.573422
58.250 12.543181
58.255 13.062189
58.260 12.997309
58.265 13.529826
58.270 14.238502
58.275 14.333702
58.280 14.694583
58.285 14.647303
58.290 14.578444
58.295 14.530184
58.300 14.244429
58.305 14.188267
58.310 13.995079
58.315 13.952599
58.320 14.090482
58.325 14.207156
58.330 14.137586
58.335 14.098473
58.340 14.113846
58.345 14.596434
58.350 14.804846
58.355 15.061846
58.360 14.845985
58.365 15.078098
58.370 15.182886
58.375 14.826256
58.380 13.900928
58.385 13.373817
58.390 13.097036
58.395 13.272523
58.400 12.945429
58.405 12.848922
58.410 13.196606
58.415 13.325663
58.420 13.100781
58.425 12.69535
58.430 12.515605
58.435 12.672489
58.440 12.569442
58.445 12.558387
58.450 12.993445
58.455 13.90183
58.460 14.466027
58.465 14.845007
58.470 14.87812
58.475 14.927308
58.480 14.97997
58.485 14.844109
58.490 14.521637
58.495 15.34398
58.500 15.997983
58.505 15.8772
58.510 15.724388
58.515 15.69488
58.520 15.618535
58.525 15.962961
58.530 15.263075
58.535 14.575258
58.540 14.61874
58.545 14.908657
58.550 15.524917
58.555 15.964088
58.560 15.32649
58.565 14.902591
58.570 15.243167
58.575 15.74344
58.580 15.921344
58.585 15.589903
58.590 15.655142
