!@!!GADDS PLOTSO FILE: Chi integration type
!@!!Title/SampleName: map-3f
!@!!Comment: ?
!@!!User: Bruker Instrument Administrator
!@!!Site: University of Illinois Chicago
!@!!Frame: map-3f_01_000.gfrm
!@!!Wavelengths    1.54184   1.54056   1.54439
!@!!Frame angles: 2Theta: 63.000 Omega: 50.000 Phi: 0.000 Chi: 90.000
!@!!Integration range: 2Theta: 53.000 to 73.000  Gamma: -105.000 to -75.000
!@!!Integration method: bin normalized
!@!N
!@!SS
!@!M
!@!L 0.0 0.0 0.0 0.0
!@!XDegrees
!@!YCounts
53.000 8.482962
53.005 8.484949
53.010 8.341369
53.015 7.886756
53.020 7.986869
53.025 7.878589
53.030 8.029992
53.035 8.472523
53.040 8.794165
53.045 8.475276
53.050 8.468894
53.055 8.256495
53.060 8.256721
53.065 7.979889
53.070 7.440354
53.075 7.429296
53.080 7.571503
53.085 7.825225
53.090 8.155956
53.095 8.24124
53.100 8.463248
53.105 8.811508
53.110 9.119307
53.115 9.557634
53.120 9.626246
53.125 9.716789
53.130 9.525893
53.135 9.451507
53.140 9.283673
53.145 9.008609
53.150 8.556482
53.155 8.286399
53.160 7.841008
53.165 7.805108
53.170 7.689074
53.175 7.540575
53.180 7.780945
53.185 7.641764
53.190 7.443377
53.195 7.521076
53.200 7.531924
53.205 7.763164
53.210 7.872306
53.215 7.518852
53.220 8.081532
53.225 8.557139
53.230 8.647684
53.235 8.703252
53.240 8.554704
53.245 8.382007
53.250 7.981692
53.255 7.716704
53.260 8.155426
53.265 8.614429
53.270 8.788922
53.275 8.867196
53.280 8.970081
53.285 9.728224
53.290 9.807063
53.295 9.424112
53.300 9.252741
53.305 9.136387
53.310 9.081418
53.315 9.266837
53.320 9.261189
53.325 9.41027
53.330 9.756149
53.335 10.094466
53.340 10.091289
53.345 10.086409
53.350 10.051089
53.355 10.046817
53.360 9.956913
53.365 9.658464
53.370 9.552926
53.375 9.732229
53.380 9.663227
53.385 9.079342
53.390 8.506106
53.395 8.162167
53.400 8.009921
53.405 8.184945
53.410 8.598514
53.415 8.840673
53.420 8.997369
53.425 9.14024
53.430 8.943421
53.435 8.608525
53.440 8.321148
53.445 8.169476
53.450 8.258456
53.455 8.641224
53.460 8.347878
53.465 8.468711
53.470 8.759946
53.475 8.77628
53.480 8.478154
53.485 8.417937
53.490 8.353739
53.495 8.503019
53.500 8.467705
53.505 8.215534
53.510 7.908967
53.515 8.03048
53.520 7.618731
53.525 7.596572
53.530 7.731915
53.535 7.581964
53.540 7.9247
53.545 8.263139
53.550 8.392765
53.555 8.690201
53.560 8.764921
53.565 9.076928
53.570 9.144992
53.575 9.084067
53.580 9.082231
53.585 9.12543
53.590 9.176653
53.595 8.953393
53.600 9.019711
53.605 8.814926
53.610 8.797492
53.615 8.848975
53.620 8.765985
53.625 8.942485
53.630 8.859489
53.635 9.103864
53.640 9.2648
53.645 9.007123
53.650 8.709786
53.655 8.857552
53.660 8.95155
53.665 9.18382
53.670 9.273186
53.675 9.568213
53.680 9.586069
53.685 9.841774
53.690 9.844771
53.695 10.196154
53.700 10.002741
53.705 9.93926
53.710 10.150037
53.715 10.42857
53.720 10.35436
53.725 9.738493
53.730 9.21143
53.735 9.527628
53.740 9.044259
53.745 8.675881
53.750 8.45645
53.755 8.333129
53.760 9.078378
53.765 9.539586
53.770 9.71525
53.775 9.912001
53.780 9.555409
53.785 9.714625
53.790 9.944446
53.795 9.836535
53.800 9.355553
53.805 9.3525
53.810 9.608583
53.815 9.814786
53.820 9.622692
53.825 9.174603
53.830 9.03246
53.835 8.918342
53.840 8.895526
53.845 8.90989
53.850 8.877447
53.855 8.798297
53.860 9.137805
53.865 9.354269
53.870 9.340597
53.875 8.558737
53.880 9.185159
53.885 9.598444
53.890 9.912795
53.895 9.813639
53.900 9.54141
53.905 9.896077
53.910 10.270492
53.915 9.773414
53.920 9.040223
53.925 8.429773
53.930 8.047319
53.935 7.75339
53.940 7.848229
53.945 7.616121
53.950 8.02903
53.955 8.85704
53.960 9.177122
53.965 9.574281
53.970 10.2814
53.975 9.999263
53.980 9.864511
53.985 9.377126
53.990 8.900142
53.995 9.25079
54.000 9.301236
54.005 8.671358
54.010 9.314739
54.015 9.693237
54.020 9.742499
54.025 9.623788
54.030 9.025826
54.035 8.881692
54.040 9.252213
54.045 8.90522
54.050 8.980796
54.055 9.361575
54.060 9.712612
54.065 10.00127
54.070 9.955171
54.075 9.860416
54.080 10.468361
54.085 10.469019
54.090 10.630508
54.095 10.954489
54.100 11.347515
54.105 11.693688
54.110 11.659408
54.115 11.277362
54.120 11.23364
54.125 11.080362
54.130 11.098467
54.135 11.101946
54.140 10.671064
54.145 10.208376
54.150 9.891231
54.155 9.761051
54.160 9.296269
54.165 8.765869
54.170 8.663062
54.175 8.350786
54.180 8.659906
54.185 8.753729
54.190 9.093495
54.195 9.353148
54.200 9.672238
54.205 9.548185
54.210 10.134644
54.215 10.320302
54.220 10.277548
54.225 10.296001
54.230 10.206615
54.235 10.291368
54.240 10.626924
54.245 10.388798
54.250 10.029766
54.255 10.040734
54.260 10.464585
54.265 10.621883
54.270 10.940359
54.275 10.553772
54.280 10.609436
54.285 11.002303
54.290 11.005098
54.295 10.557733
54.300 10.447145
54.305 10.438862
54.310 10.782008
54.315 10.490293
54.320 10.229606
54.325 10.358015
54.330 10.454474
54.335 10.269223
54.340 9.997759
54.345 10.493082
54.350 11.152575
54.355 11.048041
54.360 10.992796
54.365 11.025547
54.370 10.715781
54.375 10.386575
54.380 9.469379
54.385 9.118817
54.390 9.464454
54.395 9.323233
54.400 9.459842
54.405 9.977646
54.410 10.126947
54.415 10.474506
54.420 10.162143
54.425 9.640391
54.430 9.344954
54.435 8.740378
54.440 8.255746
54.445 8.409534
54.450 8.19183
54.455 8.393089
54.460 8.876623
54.465 9.058192
54.470 9.514885
54.475 10.051878
54.480 10.449319
54.485 11.103979
54.490 11.089253
54.495 11.106614
54.500 10.953217
54.505 10.961765
54.510 10.651354
54.515 10.212132
54.520 10.041968
54.525 9.834066
54.530 10.284008
54.535 10.437867
54.540 10.254237
54.545 9.999726
54.550 9.716444
54.555 9.768578
54.560 10.097235
54.565 9.729838
54.570 9.849669
54.575 9.853092
54.580 10.029927
54.585 10.294055
54.590 10.200902
54.595 9.878551
54.600 9.929119
54.605 10.12927
54.610 10.179705
54.615 10.331416
54.620 10.473851
54.625 10.550831
54.630 10.726948
54.635 10.766219
54.640 10.549012
54.645 10.590819
54.650 10.471328
54.655 10.361943
54.660 9.844818
54.665 9.155386
54.670 8.949154
54.675 8.698966
54.680 8.067292
54.685 8.019947
54.690 8.032599
54.695 8.502367
54.700 9.172467
54.705 9.307619
54.710 9.933756
54.715 10.810788
54.720 11.132756
54.725 11.145712
54.730 11.33721
54.735 11.289103
54.740 11.237568
54.745 10.811988
54.750 10.250709
54.755 10.266215
54.760 10.222464
54.765 10.217382
54.770 10.236315
54.775 9.937785
54.780 10.404893
54.785 10.817846
54.790 10.93385
54.795 10.639515
54.800 10.701405
54.805 10.858009
54.810 11.018859
54.815 10.497311
54.820 10.093316
54.825 10.271181
54.830 10.359736
54.835 10.21382
54.840 10.131387
54.845 10.342716
54.850 11.05012
54.855 11.022264
54.860 10.774066
54.865 10.941041
54.870 11.240036
54.875 11.391851
54.880 10.78001
54.885 10.458462
54.890 10.668199
54.895 10.760357
54.900 10.322808
54.905 9.882929
54.910 9.565368
54.915 9.764596
54.920 10.013202
54.925 9.707044
54.930 9.697652
54.935 9.878567
54.940 10.04374
54.945 10.647295
54.950 10.972746
54.955 10.646001
54.960 10.75472
54.965 10.810413
54.970 10.987935
54.975 11.108685
54.980 10.378193
54.985 10.413535
54.990 10.567687
54.995 10.994939
55.000 11.264041
55.005 11.296067
55.010 10.799344
55.015 11.021812
55.020 11.143313
55.025 10.863028
55.030 10.335435
55.035 9.728935
55.040 9.797951
55.045 10.239162
55.050 10.21848
55.055 9.986876
55.060 10.547235
55.065 10.230403
55.070 10.265492
55.075 10.325776
55.080 10.508162
55.085 10.784137
55.090 10.533058
55.095 10.477271
55.100 11.414566
55.105 11.479348
55.110 11.92178
55.115 11.886005
55.120 11.654712
55.125 11.538044
55.130 11.770509
55.135 11.830299
55.140 11.744195
55.145 11.00806
55.150 11.016468
55.155 11.03603
55.160 11.20038
55.165 10.749418
55.170 10.774397
55.175 11.380165
55.180 11.57626
55.185 11.65223
55.190 12.131906
55.195 12.181578
55.200 11.883864
55.205 11.339092
55.210 11.075345
55.215 11.028072
55.220 11.317275
55.225 11.478974
55.230 12.074387
55.235 12.421478
55.240 12.929403
55.245 13.106817
55.250 12.993729
55.255 12.421646
55.260 11.782462
55.265 11.416762
55.270 11.579169
55.275 11.207006
55.280 11.027902
55.285 11.103062
55.290 10.80119
55.295 10.572677
55.300 10.157379
55.305 9.74764
55.310 9.682092
55.315 9.847797
55.320 9.99256
55.325 10.06534
55.330 10.206266
55.335 10.11409
55.340 10.420295
55.345 10.526642
55.350 10.14045
55.355 10.347013
55.360 10.828022
55.365 11.222796
55.370 11.234107
55.375 11.118522
55.380 11.089584
55.385 10.944854
55.390 10.235122
55.395 9.996322
55.400 9.572419
55.405 9.895515
55.410 10.246924
55.415 10.353242
55.420 10.206697
55.425 10.442399
55.430 10.492196
55.435 10.740443
55.440 10.243463
55.445 10.003606
55.450 10.040684
55.455 10.353127
55.460 10.13774
55.465 10.065922
55.470 10.169377
55.475 10.410716
55.480 10.486183
55.485 10.449821
55.490 10.519082
55.495 10.644728
55.500 10.718814
55.505 10.995745
55.510 10.873621
55.515 10.626728
55.520 10.667974
55.525 10.579835
55.530 10.084699
55.535 10.378681
55.540 10.176383
55.545 10.189321
55.550 10.582202
55.555 10.693571
55.560 10.885411
55.565 10.949124
55.570 10.367415
55.575 10.225495
55.580 10.253225
55.585 10.508673
55.590 10.575399
55.595 10.481589
55.600 10.794361
55.605 10.882372
55.610 10.87813
55.615 10.633513
55.620 10.099192
55.625 9.991681
55.630 10.666372
55.635 10.863624
55.640 11.211262
55.645 11.800724
55.650 12.215919
55.655 12.544752
55.660 12.996762
55.665 12.835702
55.670 12.770113
55.675 12.617424
55.680 12.147755
55.685 11.921916
55.690 12.258821
55.695 11.879764
55.700 11.996959
55.705 11.970807
55.710 11.846612
55.715 12.23424
55.720 12.680204
55.725 12.378003
55.730 11.90667
55.735 11.707805
55.740 12.423706
55.745 12.876713
55.750 12.459198
55.755 11.767283
55.760 11.697038
55.765 12.04788
55.770 11.929457
55.775 11.607431
55.780 11.341235
55.785 11.074219
55.790 11.010781
55.795 10.966267
55.800 11.215674
55.805 11.52795
55.810 11.486659
55.815 12.097453
55.820 12.87468
55.825 13.386633
55.830 13.492329
55.835 13.403038
55.840 13.01518
55.845 12.37479
55.850 12.09701
55.855 12.029737
55.860 11.99174
55.865 11.754265
55.870 11.10139
55.875 10.985135
55.880 11.204027
55.885 10.762329
55.890 10.47724
55.895 10.466269
55.900 10.772326
55.905 10.808313
55.910 10.888429
55.915 10.574707
55.920 10.822203
55.925 10.730826
55.930 11.076733
55.935 11.329469
55.940 11.521579
55.945 11.828823
55.950 12.373045
55.955 12.658745
55.960 12.333441
55.965 12.244424
55.970 12.360182
55.975 11.998393
55.980 12.223626
55.985 12.440704
55.990 12.347332
55.995 12.500206
56.000 12.192264
56.005 12.22426
56.010 12.089756
56.015 11.230007
56.020 10.827366
56.025 10.513035
56.030 10.75303
56.035 10.689141
56.040 10.388923
56.045 10.468928
56.050 11.210422
56.055 12.044323
56.060 12.077934
56.065 12.072613
56.070 12.262521
56.075 12.939258
56.080 13.199937
56.085 12.518309
56.090 12.063475
56.095 12.13304
56.100 11.998732
56.105 11.941709
56.110 11.723125
56.115 12.052413
56.120 12.424248
56.125 12.59275
56.130 12.863431
56.135 13.554865
56.140 14.101581
56.145 14.277864
56.150 13.906613
56.155 13.592768
56.160 13.680946
56.165 13.639793
56.170 12.538836
56.175 11.944673
56.180 11.82628
56.185 11.982979
56.190 12.477061
56.195 12.538547
56.200 13.08179
56.205 13.555381
56.210 14.242495
56.215 15.009321
56.220 14.845613
56.225 14.512766
56.230 14.003246
56.235 13.670506
56.240 13.674597
56.245 13.085649
56.250 12.350511
56.255 12.448974
56.260 12.804645
56.265 12.780876
56.270 12.714602
56.275 12.512119
56.280 12.247181
56.285 11.844393
56.290 11.71046
56.295 11.632729
56.300 12.014026
56.305 11.876219
56.310 12.074795
56.315 12.14505
56.320 12.672421
56.325 12.512327
56.330 12.298116
56.335 12.034698
56.340 11.847643
56.345 11.996381
56.350 12.35448
56.355 12.019713
56.360 11.799682
56.365 11.639274
56.370 11.589216
56.375 11.69108
56.380 11.667906
56.385 11.848315
56.390 11.72746
56.395 11.961382
56.400 12.193476
56.405 12.449814
56.410 12.442402
56.415 12.237805
56.420 12.6058
56.425 13.15093
56.430 13.304644
56.435 13.052632
56.440 13.005587
56.445 13.388193
56.450 13.243361
56.455 12.837652
56.460 12.795558
56.465 12.288412
56.470 12.075005
56.475 11.869466
56.480 11.445715
56.485 11.655856
56.490 11.664786
56.495 12.065289
56.500 12.694356
56.505 12.643247
56.510 13.193991
56.515 13.2084
56.520 13.481746
56.525 13.665314
56.530 13.15035
56.535 12.868705
56.540 12.952436
56.545 12.755359
56.550 12.327714
56.555 11.808734
56.560 11.721564
56.565 11.992817
56.570 12.593344
56.575 12.709348
56.580 12.775075
56.585 13.425447
56.590 13.620115
56.595 13.639628
56.600 13.949781
56.605 13.81303
56.610 13.865772
56.615 13.781901
56.620 13.82815
56.625 13.800943
56.630 13.534889
56.635 12.647097
56.640 12.065868
56.645 12.161904
56.650 11.634551
56.655 11.134212
56.660 10.52024
56.665 11.078457
56.670 11.395992
56.675 11.592072
56.680 11.608666
56.685 12.164679
56.690 12.445973
56.695 12.480462
56.700 12.351542
56.705 12.552051
56.710 12.869512
56.715 12.984923
56.720 13.157332
56.725 13.846005
56.730 13.93534
56.735 14.05368
56.740 14.191957
56.745 14.19168
56.750 14.168807
56.755 13.573242
56.760 12.816223
56.765 12.78965
56.770 12.843418
56.775 13.122053
56.780 13.274875
56.785 13.463494
56.790 13.856911
56.795 14.423675
56.800 14.081811
56.805 13.74337
56.810 13.729841
56.815 13.470958
56.820 13.646641
56.825 13.549106
56.830 13.087692
56.835 13.142753
56.840 13.213948
56.845 12.505254
56.850 11.984015
56.855 11.403967
56.860 11.326519
56.865 12.204529
56.870 12.978523
56.875 13.072146
56.880 13.640292
56.885 13.679639
56.890 13.938416
56.895 14.202766
56.900 14.141192
56.905 13.828051
56.910 13.893632
56.915 14.238084
56.920 14.052121
56.925 14.463061
56.930 14.453856
56.935 14.511738
56.940 14.426386
56.945 14.21968
56.950 14.328306
56.955 14.640952
56.960 14.164083
56.965 13.632225
56.970 12.909003
56.975 12.914624
56.980 12.843011
56.985 12.611288
56.990 12.272736
56.995 12.530506
57.000 12.564306
57.005 12.988839
57.010 13.260775
57.015 13.482855
57.020 13.575331
57.025 13.575726
57.030 13.315838
57.035 13.581717
57.040 13.885135
57.045 13.767605
57.050 13.659457
57.055 14.131743
57.060 14.609738
57.065 14.843861
57.070 14.283559
57.075 13.708097
57.080 13.879366
57.085 13.669567
57.090 13.191238
57.095 12.927547
57.100 12.773198
57.105 13.092738
57.110 13.080704
57.115 12.48486
57.120 12.582013
57.125 12.551919
57.130 12.69069
57.135 12.792594
57.140 12.189203
57.145 11.963491
57.150 11.996514
57.155 11.754541
57.160 11.667099
57.165 11.717086
57.170 11.951167
57.175 12.101856
57.180 12.644885
57.185 12.902941
57.190 12.998483
57.195 13.127192
57.200 13.234633
57.205 13.255296
57.210 13.742227
57.215 13.384709
57.220 13.353457
57.225 13.379872
57.230 13.433185
57.235 13.281306
57.240 12.916035
57.245 12.400332
57.250 12.694693
57.255 12.781699
57.260 12.968492
57.265 13.071353
57.270 13.345448
57.275 13.44928
57.280 13.779248
57.285 13.305099
57.290 13.260654
57.295 12.96087
57.300 12.822323
57.305 12.59937
57.310 12.831507
57.315 12.662362
57.320 12.889764
57.325 13.299293
57.330 13.41766
57.335 13.139059
57.340 13.099848
57.345 13.122683
57.350 13.632771
57.355 13.300678
57.360 13.370773
57.365 13.42687
57.370 13.975679
57.375 13.998899
57.380 14.107364
57.385 14.270717
57.390 14.839051
57.395 15.257914
57.400 15.045937
57.405 14.483104
57.410 14.597087
57.415 14.508555
57.420 14.485942
57.425 14.198177
57.430 13.876926
57.435 14.091382
57.440 14.533932
57.445 14.027107
57.450 13.640267
57.455 14.11656
57.460 13.709271
57.465 13.394057
57.470 12.924932
57.475 12.517012
57.480 13.055182
57.485 13.016788
57.490 12.529631
57.495 13.107493
57.500 13.216055
57.505 13.66178
57.510 13.661354
57.515 13.251316
57.520 13.253007
57.525 13.13231
57.530 12.6988
57.535 13.010384
57.540 13.054895
57.545 12.957446
57.550 13.157701
57.555 13.496512
57.560 13.904196
57.565 14.407026
57.570 14.456262
57.575 14.390009
57.580 14.656194
57.585 15.057712
57.590 15.746574
57.595 16.179855
57.600 16.441401
57.605 16.144869
57.610 16.343864
57.615 16.255997
57.620 16.0683
57.625 15.780932
57.630 15.742515
57.635 15.576045
57.640 15.759829
57.645 15.643359
57.650 15.83828
57.655 15.874613
57.660 15.172029
57.665 14.33787
57.670 14.127419
57.675 14.20922
57.680 13.774768
57.685 13.405
57.690 13.531189
57.695 14.338264
57.700 14.494126
57.705 14.371454
57.710 14.260039
57.715 14.776958
57.720 14.699355
57.725 14.58025
57.730 14.210164
57.735 14.347136
57.740 14.084032
57.745 14.054231
57.750 13.820647
57.755 14.007418
57.760 13.927222
57.765 13.655243
57.770 13.344332
57.775 13.842424
57.780 14.517642
57.785 15.231277
57.790 15.594637
57.795 15.496981
57.800 15.043594
57.805 15.478851
57.810 15.132166
57.815 14.599415
57.820 14.079339
57.825 13.518169
57.830 13.724164
57.835 14.480478
57.840 14.660707
57.845 14.576745
57.850 14.447032
57.855 14.770958
57.860 14.95592
57.865 14.258063
57.870 13.486026
57.875 13.611054
57.880 13.773787
57.885 13.598964
57.890 13.195242
57.895 13.477674
57.900 13.811457
57.905 14.048978
57.910 13.68572
57.915 13.236217
57.920 13.630565
57.925 13.882589
57.930 13.467815
57.935 13.812372
57.940 13.384608
57.945 13.433517
57.950 13.710613
57.955 13.348725
57.960 13.280704
57.965 13.475375
57.970 13.159959
57.975 13.524899
57.980 13.436481
57.985 13.933859
57.990 14.239804
57.995 14.230369
58.000 14.56106
58.005 15.005018
58.010 15.254646
58.015 15.279624
58.020 15.060367
58.025 15.283863
58.030 15.736894
58.035 15.557971
58.040 15.635652
58.045 15.685953
58.050 16.000134
58.055 16.012749
58.060 15.446713
58.065 14.746145
58.070 14.914141
58.075 15.004482
58.080 14.991728
58.085 14.793956
58.090 14.582109
58.095 14.901918
58.100 15.280268
58.105 15.073336
58.110 14.597107
58.115 14.087974
58.120 13.915128
58.125 13.786034
58.130 13.399207
58.135 13.263402
58.140 13.223244
58.145 13.815596
58.150 14.11469
58.155 14.581467
58.160 15.082403
58.165 15.270013
58.170 15.783027
58.175 16.207914
58.180 15.949237
58.185 15.845017
58.190 15.508553
58.195 15.445391
58.200 15.038602
58.205 14.211651
58.210 13.60426
58.215 13.084573
58.220 13.335839
58.225 13.496769
58.230 13.474418
58.235 14.240475
58.240 14.543785
58.245 14.66645
58.250 14.845218
58.255 14.913486
58.260 14.820347
58.265 14.955163
58.270 13.993998
58.275 13.882488
58.280 14.467929
58.285 14.842763
58.290 14.488017
58.295 14.577113
58.300 14.555817
58.305 15.194505
58.310 15.389538
58.315 15.036675
58.320 15.120627
58.325 15.424303
58.330 15.021661
58.335 15.115459
58.340 14.973263
58.345 15.096251
58.350 15.668324
58.355 15.622439
58.360 15.521883
58.365 15.514054
58.370 15.377314
58.375 15.415645
58.380 15.08877
58.385 14.052552
58.390 13.477122
58.395 13.52244
58.400 13.725148
58.405 13.912949
58.410 14.081446
58.415 13.874626
58.420 13.965056
58.425 14.454733
58.430 14.536469
58.435 14.509371
58.440 14.414684
58.445 14.085451
58.450 13.957022
58.455 14.666511
58.460 14.640418
58.465 14.724525
58.470 14.929747
58.475 15.151774
58.480 15.645944
58.485 16.408463
58.490 16.105391
58.495 15.948811
58.500 15.787969
58.505 15.649509
58.510 15.772447
58.515 15.533702
