!@!!GADDS PLOTSO FILE: Chi integration type
!@!!Title/SampleName: map-60
!@!!Comment: ?
!@!!User: Bruker Instrument Administrator
!@!!Site: University of Illinois Chicago
!@!!Frame: map-60_01_000.gfrm
!@!!Wavelengths    1.54184   1.54056   1.54439
!@!!Frame angles: 2Theta: 63.000 Omega: 50.000 Phi: 0.000 Chi: 90.000
!@!!Integration range: 2Theta: 53.000 to 73.000  Gamma: -105.000 to -75.000
!@!!Integration method: bin normalized
!@!N
!@!SS
!@!M
!@!L 0.0 0.0 0.0 0.0
!@!XDegrees
!@!YCounts
53.000 7.360884
53.005 7.209972
53.010 7.241112
53.015 7.788058
53.020 8.16446
53.025 7.795682
53.030 7.967967
53.035 7.906536
53.040 7.927965
53.045 7.730515
53.050 7.066483
53.055 6.972036
53.060 7.145724
53.065 7.291891
53.070 7.550282
53.075 7.654034
53.080 7.844761
53.085 7.883103
53.090 7.620073
53.095 7.433374
53.100 7.080902
53.105 6.846478
53.110 7.009063
53.115 7.401654
53.120 7.735279
53.125 8.015164
53.130 8.271284
53.135 8.357636
53.140 8.711974
53.145 8.47562
53.150 8.522518
53.155 8.898793
53.160 9.298424
53.165 9.136578
53.170 8.933469
53.175 8.570851
53.180 8.663011
53.185 8.375399
53.190 8.081744
53.195 7.84839
53.200 8.09217
53.205 8.370321
53.210 8.441791
53.215 8.539052
53.220 8.862011
53.225 9.304054
53.230 9.090056
53.235 8.940607
53.240 8.384466
53.245 8.102331
53.250 8.157189
53.255 7.553401
53.260 7.739674
53.265 8.013617
53.270 8.440845
53.275 8.777894
53.280 8.727982
53.285 8.434632
53.290 8.345334
53.295 7.709422
53.300 7.758544
53.305 7.474146
53.310 7.729947
53.315 7.6629
53.320 7.756283
53.325 7.659932
53.330 8.101974
53.335 8.291742
53.340 8.17023
53.345 7.91789
53.350 8.388162
53.355 8.753742
53.360 8.671724
53.365 8.254387
53.370 8.069566
53.375 8.446407
53.380 8.678507
53.385 8.416048
53.390 8.538654
53.395 8.90474
53.400 9.041368
53.405 8.851299
53.410 8.408708
53.415 7.864054
53.420 7.43579
53.425 6.936499
53.430 6.64176
53.435 6.552221
53.440 6.434706
53.445 6.666726
53.450 6.861217
53.455 7.051146
53.460 7.157777
53.465 7.228804
53.470 7.631448
53.475 8.060231
53.480 8.129469
53.485 8.317245
53.490 8.427155
53.495 8.477736
53.500 8.208728
53.505 7.674844
53.510 7.755761
53.515 7.83548
53.520 7.851148
53.525 8.342783
53.530 8.527579
53.535 8.675905
53.540 8.872829
53.545 8.674242
53.550 8.74489
53.555 8.671415
53.560 8.039583
53.565 8.149531
53.570 8.311657
53.575 8.458022
53.580 8.927328
53.585 9.214132
53.590 9.840203
53.595 10.031727
53.600 10.03262
53.605 9.673334
53.610 9.329568
53.615 9.203368
53.620 9.189081
53.625 8.60062
53.630 8.366483
53.635 9.256392
53.640 9.796053
53.645 9.751492
53.650 9.654704
53.655 9.657161
53.660 9.607667
53.665 9.397733
53.670 8.387639
53.675 8.519921
53.680 8.743997
53.685 8.385627
53.690 8.279543
53.695 8.369877
53.700 8.47126
53.705 8.626462
53.710 8.653735
53.715 8.089087
53.720 8.523027
53.725 8.063297
53.730 7.949291
53.735 8.237669
53.740 8.268426
53.745 8.289886
53.750 8.595058
53.755 8.495808
53.760 8.997181
53.765 8.873806
53.770 8.45266
53.775 8.257812
53.780 8.189115
53.785 8.021374
53.790 8.340975
53.795 8.066728
53.800 8.370435
53.805 8.671056
53.810 8.68392
53.815 8.685489
53.820 8.513023
53.825 8.743927
53.830 8.760685
53.835 8.756042
53.840 8.491394
53.845 8.436144
53.850 8.828044
53.855 8.645847
53.860 8.440209
53.865 8.496353
53.870 8.355855
53.875 8.616805
53.880 8.571977
53.885 8.471303
53.890 8.69503
53.895 8.605828
53.900 8.730542
53.905 8.748081
53.910 8.684489
53.915 8.543703
53.920 8.620883
53.925 8.357725
53.930 9.063712
53.935 9.036526
53.940 8.68214
53.945 8.308232
53.950 8.380198
53.955 8.775105
53.960 8.994311
53.965 8.369246
53.970 8.627161
53.975 8.948143
53.980 9.427208
53.985 9.381441
53.990 8.807866
53.995 9.028435
54.000 9.146566
54.005 8.734622
54.010 8.795071
54.015 8.717788
54.020 8.82735
54.025 9.378072
54.030 9.392974
54.035 9.583948
54.040 9.331196
54.045 9.41155
54.050 9.305676
54.055 8.912814
54.060 8.404175
54.065 7.518114
54.070 7.5642
54.075 7.973918
54.080 8.372933
54.085 8.759192
54.090 9.099525
54.095 9.301317
54.100 9.689511
54.105 10.129226
54.110 10.13715
54.115 9.642491
54.120 9.698536
54.125 9.738566
54.130 10.174557
54.135 10.401309
54.140 10.260265
54.145 10.062581
54.150 10.273136
54.155 10.078096
54.160 10.053269
54.165 10.021123
54.170 10.250723
54.175 9.908122
54.180 9.862644
54.185 9.519304
54.190 9.35122
54.195 9.287691
54.200 9.646545
54.205 9.307583
54.210 9.626587
54.215 9.452236
54.220 9.570313
54.225 9.65681
54.230 9.017294
54.235 8.282342
54.240 8.199627
54.245 8.558552
54.250 8.956266
54.255 9.212279
54.260 9.498775
54.265 9.709962
54.270 9.852943
54.275 10.117916
54.280 9.17728
54.285 9.004359
54.290 8.894755
54.295 8.842749
54.300 8.704141
54.305 8.434525
54.310 8.559082
54.315 8.904174
54.320 9.222085
54.325 9.22749
54.330 9.33349
54.335 9.783475
54.340 10.00448
54.345 10.297305
54.350 10.298154
54.355 9.99189
54.360 9.933025
54.365 10.196652
54.370 10.067753
54.375 9.686462
54.380 9.485082
54.385 9.625966
54.390 9.625932
54.395 9.33872
54.400 9.243634
54.405 9.537074
54.410 9.502847
54.415 9.250487
54.420 9.086345
54.425 9.208414
54.430 9.607944
54.435 9.53089
54.440 9.822301
54.445 10.109728
54.450 9.913326
54.455 9.540769
54.460 9.249824
54.465 9.128094
54.470 8.603989
54.475 8.137661
54.480 8.481622
54.485 8.949911
54.490 9.619352
54.495 10.103289
54.500 10.098739
54.505 10.243351
54.510 10.153324
54.515 10.021468
54.520 10.312427
54.525 10.015062
54.530 9.656389
54.535 9.873685
54.540 10.101087
54.545 10.329804
54.550 10.619072
54.555 10.413257
54.560 9.841872
54.565 9.779567
54.570 9.860809
54.575 9.87693
54.580 9.325483
54.585 8.679439
54.590 8.453303
54.595 9.000604
54.600 9.157139
54.605 9.137851
54.610 8.890695
54.615 8.846472
54.620 8.96585
54.625 9.087152
54.630 8.806494
54.635 8.622144
54.640 8.592016
54.645 9.211973
54.650 9.552859
54.655 9.868279
54.660 9.979043
54.665 10.080272
54.670 10.252759
54.675 10.105658
54.680 9.632731
54.685 9.547548
54.690 9.684102
54.695 9.623129
54.700 9.399076
54.705 9.471959
54.710 10.132995
54.715 10.39114
54.720 10.183206
54.725 10.321573
54.730 10.498622
54.735 10.55144
54.740 9.966954
54.745 9.630254
54.750 9.595044
54.755 9.736432
54.760 9.323328
54.765 9.42551
54.770 9.612215
54.775 9.822083
54.780 9.857939
54.785 9.751568
54.790 9.753796
54.795 10.274399
54.800 10.727803
54.805 10.771883
54.810 11.020868
54.815 11.405917
54.820 11.506505
54.825 11.310667
54.830 10.671119
54.835 10.086304
54.840 9.910802
54.845 9.283225
54.850 8.898764
54.855 9.00112
54.860 8.773466
54.865 8.50614
54.870 8.59166
54.875 9.04186
54.880 9.359868
54.885 9.215627
54.890 9.526355
54.895 10.042962
54.900 10.525249
54.905 10.682453
54.910 10.338918
54.915 10.442163
54.920 10.780073
54.925 10.854134
54.930 10.95594
54.935 10.41447
54.940 10.095643
54.945 10.138751
54.950 10.393351
54.955 10.225826
54.960 9.847878
54.965 9.706653
54.970 10.076018
54.975 10.691658
54.980 10.606683
54.985 10.547002
54.990 10.237277
54.995 10.225625
55.000 9.962513
55.005 9.621266
55.010 9.354665
55.015 9.421091
55.020 9.379288
55.025 9.574564
55.030 9.778588
55.035 10.324546
55.040 10.452131
55.045 10.628745
55.050 10.62729
55.055 10.405502
55.060 10.126296
55.065 9.977408
55.070 9.89398
55.075 9.82611
55.080 10.052547
55.085 10.647705
55.090 10.885272
55.095 10.996891
55.100 11.041842
55.105 10.787276
55.110 10.522794
55.115 10.079651
55.120 9.968377
55.125 10.039544
55.130 9.806604
55.135 9.81251
55.140 10.338806
55.145 10.132806
55.150 9.817008
55.155 9.232536
55.160 9.501897
55.165 9.544535
55.170 9.264933
55.175 8.863267
55.180 8.822779
55.185 8.927938
55.190 9.091832
55.195 8.738012
55.200 8.991874
55.205 8.944732
55.210 9.357951
55.215 9.699844
55.220 9.462041
55.225 9.240818
55.230 9.395792
55.235 9.272786
55.240 9.490367
55.245 9.500899
55.250 9.278484
55.255 9.584194
55.260 9.398746
55.265 9.594225
55.270 9.668374
55.275 9.415711
55.280 9.351462
55.285 9.719694
55.290 10.114453
55.295 10.35057
55.300 9.856734
55.305 10.184046
55.310 10.663086
55.315 10.381456
55.320 10.184259
55.325 10.387718
55.330 10.522588
55.335 10.817406
55.340 10.624799
55.345 10.439306
55.350 10.487547
55.355 10.616341
55.360 10.320574
55.365 10.860228
55.370 10.845416
55.375 10.712692
55.380 10.50601
55.385 10.368341
55.390 10.16624
55.395 10.071503
55.400 9.677959
55.405 9.649642
55.410 10.325196
55.415 10.904974
55.420 11.345593
55.425 11.435941
55.430 11.374157
55.435 11.587231
55.440 11.295378
55.445 10.636989
55.450 10.544294
55.455 10.454586
55.460 10.239389
55.465 10.574144
55.470 10.402599
55.475 10.708214
55.480 11.097645
55.485 10.772107
55.490 10.801105
55.495 11.032068
55.500 10.788157
55.505 10.665322
55.510 10.351088
55.515 9.876226
55.520 9.571652
55.525 9.38099
55.530 9.475945
55.535 9.841149
55.540 10.061283
55.545 9.9524
55.550 10.07783
55.555 10.362741
55.560 10.241456
55.565 10.14594
55.570 10.320191
55.575 10.635078
55.580 10.90629
55.585 11.137789
55.590 11.2529
55.595 11.280014
55.600 11.100195
55.605 11.21979
55.610 11.368948
55.615 11.00658
55.620 10.788646
55.625 10.981114
55.630 11.620618
55.635 11.252699
55.640 10.784483
55.645 11.040237
55.650 11.482001
55.655 11.712565
55.660 11.310441
55.665 11.045998
55.670 11.414934
55.675 11.326573
55.680 11.041336
55.685 10.566916
55.690 10.400928
55.695 10.567624
55.700 10.593159
55.705 10.9126
55.710 11.392924
55.715 11.816248
55.720 12.454408
55.725 12.600924
55.730 12.402342
55.735 12.392086
55.740 11.918607
55.745 11.508476
55.750 11.377614
55.755 10.969919
55.760 11.006003
55.765 10.611132
55.770 10.692913
55.775 10.616716
55.780 10.454045
55.785 10.602052
55.790 10.354296
55.795 10.607848
55.800 11.121428
55.805 10.980312
55.810 11.207682
55.815 11.048191
55.820 11.400321
55.825 11.847431
55.830 11.933037
55.835 11.864491
55.840 11.751837
55.845 11.448011
55.850 11.725157
55.855 11.612578
55.860 11.334031
55.865 11.072673
55.870 10.747548
55.875 10.730522
55.880 10.676882
55.885 10.447639
55.890 10.106142
55.895 9.900277
55.900 9.834339
55.905 10.105278
55.910 10.26755
55.915 10.469827
55.920 10.357079
55.925 10.394541
55.930 10.672338
55.935 11.149964
55.940 11.223559
55.945 11.165742
55.950 11.381028
55.955 12.134541
55.960 12.277884
55.965 12.083902
55.970 11.520261
55.975 11.466739
55.980 11.935964
55.985 11.725628
55.990 11.064926
55.995 11.413537
56.000 12.140709
56.005 12.169132
56.010 12.627545
56.015 12.558306
56.020 12.635694
56.025 12.92126
56.030 12.332718
56.035 11.976792
56.040 11.850277
56.045 11.710519
56.050 11.419679
56.055 11.053057
56.060 10.715698
56.065 10.984677
56.070 10.656114
56.075 10.66335
56.080 10.591775
56.085 10.963177
56.090 11.56395
56.095 12.169064
56.100 11.988184
56.105 12.036569
56.110 12.08934
56.115 11.760041
56.120 11.744135
56.125 11.669959
56.130 11.316898
56.135 11.407428
56.140 12.162524
56.145 12.451537
56.150 12.632754
56.155 12.325865
56.160 12.501425
56.165 12.806295
56.170 12.743332
56.175 12.013412
56.180 11.685076
56.185 11.216634
56.190 11.044674
56.195 10.819751
56.200 10.637769
56.205 10.438276
56.210 10.107469
56.215 10.20144
56.220 10.557938
56.225 10.356743
56.230 10.099867
56.235 10.395144
56.240 11.19798
56.245 11.579932
56.250 11.916043
56.255 11.815077
56.260 12.224229
56.265 12.716569
56.270 12.604721
56.275 12.748523
56.280 12.847686
56.285 13.237494
56.290 13.626841
56.295 13.237832
56.300 12.780823
56.305 12.853434
56.310 12.487608
56.315 12.165891
56.320 11.722104
56.325 11.583868
56.330 11.546893
56.335 11.492126
56.340 10.903907
56.345 10.491392
56.350 10.350107
56.355 10.356848
56.360 10.110294
56.365 10.357578
56.370 10.578307
56.375 10.815445
56.380 11.323853
56.385 11.083319
56.390 11.124346
56.395 11.065679
56.400 10.883717
56.405 10.921533
56.410 10.915687
56.415 10.814567
56.420 11.405426
56.425 11.383888
56.430 11.895736
56.435 11.86378
56.440 11.612432
56.445 11.733697
56.450 11.737966
56.455 11.387614
56.460 11.682968
56.465 11.710398
56.470 12.009158
56.475 12.527886
56.480 12.852191
56.485 12.963638
56.490 13.061712
56.495 12.707198
56.500 12.433399
56.505 11.726747
56.510 10.97066
56.515 10.728348
56.520 10.692321
56.525 10.505157
56.530 10.34756
56.535 10.311752
56.540 10.754447
56.545 11.198675
56.550 11.143497
56.555 11.505306
56.560 11.760497
56.565 11.686354
56.570 11.929009
56.575 12.171996
56.580 12.033443
56.585 11.614827
56.590 11.277937
56.595 11.162044
56.600 11.471329
56.605 11.289735
56.610 11.038887
56.615 11.340951
56.620 11.653697
56.625 12.058372
56.630 12.697709
56.635 12.646355
56.640 12.642294
56.645 12.542379
56.650 12.56611
56.655 12.393124
56.660 11.698742
56.665 11.88281
56.670 12.445788
56.675 12.572002
56.680 12.20818
56.685 11.759223
56.690 12.265632
56.695 12.792931
56.700 12.114915
56.705 11.780775
56.710 12.320755
56.715 12.736179
56.720 12.80401
56.725 12.888212
56.730 12.989465
56.735 13.044145
56.740 13.08642
56.745 12.886379
56.750 13.340682
56.755 14.145811
56.760 13.812407
56.765 13.643357
56.770 13.453499
56.775 13.267264
56.780 13.326273
56.785 13.128061
56.790 12.440351
56.795 12.542247
56.800 12.688787
56.805 13.060839
56.810 12.975826
56.815 12.972786
56.820 13.144963
56.825 12.964414
56.830 12.43376
56.835 12.110353
56.840 12.15954
56.845 12.268814
56.850 11.971463
56.855 11.987348
56.860 12.114834
56.865 12.275605
56.870 12.603603
56.875 12.854071
56.880 12.919474
56.885 12.75833
56.890 12.62398
56.895 13.129997
56.900 13.441298
56.905 12.940053
56.910 12.591432
56.915 12.756718
56.920 13.292771
56.925 13.130997
56.930 12.654169
56.935 12.559822
56.940 13.374459
56.945 13.446165
56.950 13.378739
56.955 13.196526
56.960 13.208496
56.965 13.565063
56.970 13.03018
56.975 12.778692
56.980 12.584867
56.985 12.396665
56.990 12.233047
56.995 12.176069
57.000 11.944088
57.005 12.083699
57.010 11.871099
57.015 12.143166
57.020 12.508828
57.025 12.61426
57.030 12.310642
57.035 12.463818
57.040 12.935317
57.045 12.658805
57.050 12.197841
57.055 11.511696
57.060 11.515235
57.065 11.258905
57.070 11.154387
57.075 11.11097
57.080 11.200665
57.085 11.413102
57.090 11.667481
57.095 11.881832
57.100 12.13437
57.105 11.718586
57.110 11.829508
57.115 11.868546
57.120 12.335974
57.125 12.531188
57.130 12.39959
57.135 12.883772
57.140 13.197311
57.145 13.602693
57.150 13.801918
57.155 13.398755
57.160 12.91252
57.165 13.028887
57.170 12.904293
57.175 12.65505
57.180 12.024009
57.185 12.293593
57.190 12.801785
57.195 12.74967
57.200 12.4551
57.205 12.513621
57.210 12.50526
57.215 12.427342
57.220 11.930582
57.225 11.663422
57.230 12.131243
57.235 12.522766
57.240 12.465089
57.245 12.402337
57.250 12.332047
57.255 12.258434
57.260 11.996833
57.265 11.530086
57.270 11.234884
57.275 11.130709
57.280 11.816975
57.285 12.253824
57.290 12.081534
57.295 12.506782
57.300 12.965357
57.305 13.134222
57.310 13.186393
57.315 12.921609
57.320 13.168215
57.325 13.678791
57.330 13.857391
57.335 13.913896
57.340 13.878721
57.345 13.643023
57.350 13.652942
57.355 13.197933
57.360 12.941891
57.365 12.527176
57.370 12.601187
57.375 13.056558
57.380 13.327204
57.385 13.56843
57.390 13.779738
57.395 13.742702
57.400 13.647651
57.405 13.189236
57.410 12.988055
57.415 12.941864
57.420 12.396818
57.425 12.134046
57.430 11.81703
57.435 12.134005
57.440 12.434735
57.445 11.895095
57.450 12.109434
57.455 12.293023
57.460 12.41178
57.465 12.573065
57.470 12.584001
57.475 12.822769
57.480 13.210466
57.485 13.006351
57.490 13.291723
57.495 13.264233
57.500 13.334692
57.505 13.376449
57.510 13.357043
57.515 13.251574
57.520 13.02454
57.525 12.475337
57.530 12.746498
57.535 12.78892
57.540 12.541897
57.545 12.703751
57.550 12.724798
57.555 13.324809
57.560 13.370629
57.565 13.544806
57.570 13.329808
57.575 13.566966
57.580 13.650897
57.585 13.183445
57.590 12.977863
57.595 12.953098
57.600 13.137927
57.605 13.62923
57.610 13.105601
57.615 13.084569
57.620 13.778011
57.625 13.911777
57.630 13.618935
57.635 12.954739
57.640 12.74957
57.645 12.641537
57.650 12.676367
57.655 12.341267
57.660 11.961102
57.665 11.994504
57.670 12.377157
57.675 12.40935
57.680 12.331776
57.685 12.367648
57.690 12.736471
57.695 12.977212
57.700 13.120604
57.705 13.026078
57.710 13.312051
57.715 13.602156
57.720 13.423197
57.725 13.394408
57.730 14.188724
57.735 14.424698
57.740 14.188804
57.745 13.728178
57.750 13.30104
57.755 13.135306
57.760 12.877399
57.765 12.297163
57.770 12.372379
57.775 12.754915
57.780 12.944571
57.785 13.464006
57.790 13.05687
57.795 12.961283
57.800 12.841498
57.805 12.822172
57.810 12.842668
57.815 13.1043
57.820 12.830008
57.825 13.583227
57.830 13.899345
57.835 14.070577
57.840 13.948616
57.845 13.316832
57.850 12.734213
57.855 12.709987
57.860 12.217319
57.865 11.97811
57.870 12.318327
57.875 12.245276
57.880 12.599113
57.885 12.925342
57.890 13.370789
57.895 13.346944
57.900 13.417573
57.905 13.234972
57.910 13.003664
57.915 13.776707
57.920 14.090172
57.925 13.902402
57.930 14.371352
57.935 14.507741
57.940 14.417747
57.945 14.259922
57.950 13.627612
57.955 13.549593
57.960 13.556107
57.965 13.209583
57.970 13.024055
57.975 13.563037
57.980 13.878913
57.985 13.689823
57.990 13.747874
57.995 13.47483
58.000 13.395989
58.005 13.222023
58.010 13.391186
58.015 13.605373
58.020 13.297548
58.025 13.566807
58.030 13.829341
58.035 14.006151
58.040 14.255252
58.045 13.353043
58.050 13.36275
58.055 13.835783
58.060 13.750142
58.065 13.594744
58.070 13.920438
58.075 14.329849
58.080 14.887743
58.085 15.410459
58.090 15.065145
58.095 15.391594
58.100 15.455443
58.105 14.902894
58.110 14.459221
58.115 14.216173
58.120 13.868319
58.125 14.074301
58.130 13.975494
58.135 14.071079
58.140 13.951381
58.145 13.949027
58.150 13.909801
58.155 13.696074
58.160 13.3254
58.165 13.139608
58.170 13.38547
58.175 13.355972
58.180 13.110879
58.185 13.083036
58.190 13.189709
58.195 13.004186
58.200 13.040935
58.205 12.776672
58.210 12.688509
58.215 12.843275
58.220 12.700289
58.225 12.625597
58.230 13.000358
58.235 13.207563
58.240 13.112455
58.245 13.101755
58.250 12.924005
58.255 13.409053
58.260 13.587265
58.265 13.813743
58.270 13.57586
58.275 13.893054
58.280 14.613184
58.285 14.906338
58.290 14.616786
58.295 14.518027
58.300 14.49353
58.305 14.932256
58.310 14.947116
58.315 14.460788
58.320 14.419209
58.325 14.854911
58.330 14.830421
58.335 14.293672
58.340 14.095101
58.345 14.110149
58.350 14.347217
58.355 13.978456
58.360 13.404408
58.365 13.662841
58.370 13.974875
58.375 13.669042
58.380 13.713465
58.385 13.902793
58.390 14.28278
58.395 14.692378
58.400 14.627426
58.405 14.624227
58.410 14.820617
58.415 14.459211
58.420 14.692117
58.425 14.663691
58.430 14.644696
58.435 14.677293
58.440 15.018778
58.445 14.885156
58.450 15.018348
58.455 14.676176
58.460 14.701621
58.465 14.483891
58.470 14.564617
58.475 14.482085
58.480 14.501061
58.485 14.65149
58.490 14.660336
58.495 14.663998
58.500 14.875001
58.505 14.547722
58.510 14.584044
58.515 14.513561
58.520 14.188087
58.525 14.167185
58.530 14.358176
58.535 14.395125
58.540 14.515152
58.545 14.772291
