!@!!GADDS PLOTSO FILE: Chi integration type
!@!!Title/SampleName: map-f2
!@!!Comment: ?
!@!!User: Bruker Instrument Administrator
!@!!Site: University of Illinois Chicago
!@!!Frame: map-f2_01_000.gfrm
!@!!Wavelengths    1.54184   1.54056   1.54439
!@!!Frame angles: 2Theta: 63.000 Omega: 50.000 Phi: 0.000 Chi: 90.000
!@!!Integration range: 2Theta: 53.000 to 73.000  Gamma: -105.000 to -75.000
!@!!Integration method: bin normalized
!@!N
!@!SS
!@!M
!@!L 0.0 0.0 0.0 0.0
!@!XDegrees
!@!YCounts
53.000 5.774843
53.005 5.964824
53.010 5.843137
53.015 5.527802
53.020 5.172469
53.025 5.249468
53.030 5.161002
53.035 5.166031
53.040 4.934259
53.045 4.664653
53.050 4.447245
53.055 4.061379
53.060 3.938964
53.065 4.046166
53.070 4.065982
53.075 4.424026
53.080 4.673249
53.085 4.851007
53.090 4.807165
53.095 4.856962
53.100 4.49341
53.105 4.238595
53.110 4.137388
53.115 3.878262
53.120 3.987595
53.125 4.07682
53.130 4.236616
53.135 4.723019
53.140 4.931177
53.145 5.049111
53.150 5.130324
53.155 5.025591
53.160 5.158907
53.165 5.131486
53.170 4.939361
53.175 5.035803
53.180 4.99645
53.185 4.875448
53.190 4.947537
53.195 5.161962
53.200 5.332653
53.205 5.416734
53.210 5.118705
53.215 5.000009
53.220 4.931365
53.225 4.507403
53.230 4.490284
53.235 4.275826
53.240 4.762005
53.245 5.393371
53.250 5.936398
53.255 6.119455
53.260 6.374523
53.265 6.657392
53.270 6.601059
53.275 5.982962
53.280 5.661335
53.285 5.655751
53.290 5.640975
53.295 5.496899
53.300 5.122658
53.305 5.11896
53.310 5.394781
53.315 5.485176
53.320 5.028912
53.325 4.987368
53.330 4.96005
53.335 5.331872
53.340 5.39689
53.345 5.496999
53.350 5.776105
53.355 6.200734
53.360 6.49619
53.365 6.544378
53.370 6.289213
53.375 5.987431
53.380 5.614136
53.385 5.838892
53.390 5.76209
53.395 5.528502
53.400 5.802804
53.405 6.040561
53.410 6.0542
53.415 5.937209
53.420 5.687498
53.425 5.612469
53.430 5.369579
53.435 4.713968
53.440 4.779475
53.445 5.120551
53.450 5.168276
53.455 5.252198
53.460 5.174724
53.465 5.694623
53.470 5.919997
53.475 5.913526
53.480 5.802317
53.485 5.827589
53.490 5.99596
53.495 5.839108
53.500 5.269653
53.505 5.076594
53.510 4.710372
53.515 4.647301
53.520 4.814705
53.525 4.653648
53.530 4.849959
53.535 4.955052
53.540 5.052939
53.545 5.042778
53.550 4.715095
53.555 4.60585
53.560 4.721789
53.565 4.512171
53.570 4.300103
53.575 4.219406
53.580 4.319307
53.585 4.527152
53.590 4.475325
53.595 4.487272
53.600 4.615146
53.605 4.815534
53.610 4.812969
53.615 5.126045
53.620 5.096283
53.625 5.008574
53.630 5.111666
53.635 5.478001
53.640 5.548009
53.645 5.439445
53.650 5.256882
53.655 5.544695
53.660 5.643095
53.665 5.720046
53.670 5.541735
53.675 5.844376
53.680 6.046838
53.685 5.754214
53.690 5.581445
53.695 5.921498
53.700 5.850009
53.705 5.848663
53.710 5.865808
53.715 5.982317
53.720 6.177006
53.725 5.999217
53.730 5.946614
53.735 6.123009
53.740 6.171245
53.745 5.881973
53.750 5.927692
53.755 5.955141
53.760 6.014592
53.765 5.690314
53.770 5.586489
53.775 5.752965
53.780 5.909256
53.785 5.631652
53.790 5.465124
53.795 5.495055
53.800 5.414504
53.805 5.409173
53.810 5.44103
53.815 5.613314
53.820 5.661886
53.825 5.755466
53.830 5.860675
53.835 6.021092
53.840 5.786368
53.845 5.681972
53.850 5.58847
53.855 5.525513
53.860 5.67228
53.865 5.596032
53.870 5.643036
53.875 5.682178
53.880 5.684987
53.885 5.85953
53.890 5.935031
53.895 5.949852
53.900 5.787426
53.905 5.747515
53.910 5.668035
53.915 5.792235
53.920 5.868308
53.925 5.545591
53.930 5.245198
53.935 5.428992
53.940 5.408607
53.945 5.19765
53.950 4.832833
53.955 4.65626
53.960 4.814571
53.965 5.089812
53.970 4.865837
53.975 4.867912
53.980 4.909023
53.985 5.182056
53.990 5.488392
53.995 5.410909
54.000 5.346435
54.005 5.275023
54.010 5.164194
54.015 5.395545
54.020 5.43991
54.025 5.473021
54.030 5.848598
54.035 5.640099
54.040 5.572696
54.045 5.581377
54.050 5.228926
54.055 5.273567
54.060 4.827607
54.065 4.872983
54.070 4.99251
54.075 5.050081
54.080 5.205651
54.085 5.418137
54.090 5.497523
54.095 5.758484
54.100 5.580737
54.105 5.923541
54.110 6.130771
54.115 6.143601
54.120 6.000271
54.125 5.913049
54.130 5.89096
54.135 5.814457
54.140 5.497007
54.145 5.272254
54.150 5.380095
54.155 5.671662
54.160 5.693146
54.165 5.550262
54.170 5.50796
54.175 5.559782
54.180 5.542707
54.185 5.430605
54.190 5.608783
54.195 5.49326
54.200 5.793293
54.205 5.798417
54.210 6.285185
54.215 6.471122
54.220 6.240451
54.225 5.902292
54.230 5.840567
54.235 6.09735
54.240 6.399042
54.245 6.646175
54.250 6.791934
54.255 7.191248
54.260 7.447614
54.265 7.53795
54.270 7.344417
54.275 6.994658
54.280 6.592104
54.285 6.517633
54.290 6.29976
54.295 5.964819
54.300 5.747197
54.305 5.511336
54.310 5.501218
54.315 5.437855
54.320 4.978597
54.325 5.033833
54.330 5.438121
54.335 5.733542
54.340 6.199293
54.345 5.977314
54.350 5.709794
54.355 5.741947
54.360 5.64133
54.365 5.348731
54.370 5.021273
54.375 4.821694
54.380 4.734047
54.385 4.655687
54.390 4.939749
54.395 5.276673
54.400 5.535576
54.405 5.618884
54.410 5.704211
54.415 6.025608
54.420 6.421532
54.425 6.364967
54.430 6.267235
54.435 5.967433
54.440 6.148117
54.445 6.184813
54.450 6.386734
54.455 6.254153
54.460 6.204548
54.465 6.26497
54.470 6.478688
54.475 6.527784
54.480 6.362594
54.485 6.312394
54.490 6.302806
54.495 5.989854
54.500 6.079652
54.505 6.022944
54.510 6.255396
54.515 6.512328
54.520 6.564994
54.525 6.481145
54.530 6.479546
54.535 6.155072
54.540 5.763126
54.545 5.658745
54.550 5.307441
54.555 5.014778
54.560 5.10282
54.565 5.289275
54.570 5.567086
54.575 5.727406
54.580 5.644918
54.585 5.616361
54.590 5.766505
54.595 5.610605
54.600 5.452523
54.605 5.730594
54.610 5.807993
54.615 6.001561
54.620 6.273191
54.625 6.098882
54.630 5.902314
54.635 5.7076
54.640 5.074082
54.645 4.899197
54.650 4.7136
54.655 4.625641
54.660 4.836308
54.665 5.149528
54.670 5.254954
54.675 5.374979
54.680 4.977339
54.685 5.032023
54.690 5.266987
54.695 5.06946
54.700 5.003179
54.705 5.173877
54.710 5.593378
54.715 5.957655
54.720 5.956501
54.725 6.089848
54.730 6.479592
54.735 6.535676
54.740 6.586819
54.745 6.776392
54.750 6.790767
54.755 6.742964
54.760 6.826807
54.765 6.784689
54.770 6.845578
54.775 6.617972
54.780 6.266
54.785 5.980453
54.790 6.010719
54.795 6.078454
54.800 6.120397
54.805 6.313305
54.810 5.942708
54.815 6.047203
54.820 6.184444
54.825 5.575844
54.830 5.111894
54.835 5.106636
54.840 4.980703
54.845 5.180965
54.850 5.249369
54.855 5.421848
54.860 5.754371
54.865 6.163365
54.870 6.26058
54.875 6.713706
54.880 7.349947
54.885 7.620943
54.890 7.769759
54.895 7.362082
54.900 6.843274
54.905 6.668125
54.910 6.370301
54.915 6.03408
54.920 5.864392
54.925 5.576461
54.930 5.891716
54.935 5.868141
54.940 5.624481
54.945 5.531878
54.950 5.392012
54.955 5.662997
54.960 6.094378
54.965 6.131914
54.970 6.278581
54.975 6.372612
54.980 6.5764
54.985 6.541384
54.990 5.867075
54.995 5.732062
55.000 5.673356
55.005 5.527128
55.010 5.465837
55.015 5.614597
55.020 5.903951
55.025 5.89663
55.030 5.762493
55.035 5.657472
55.040 5.570343
55.045 5.306768
55.050 5.089441
55.055 5.143758
55.060 5.530871
55.065 5.619179
55.070 5.838427
55.075 6.054401
55.080 6.240113
55.085 5.985476
55.090 5.84864
55.095 5.674984
55.100 5.933136
55.105 5.869493
55.110 6.106925
55.115 6.227476
55.120 6.001808
55.125 6.027948
55.130 6.163181
55.135 5.715121
55.140 5.585916
55.145 5.378665
55.150 5.335483
55.155 5.686201
55.160 5.771007
55.165 6.083416
55.170 6.257004
55.175 6.302878
55.180 5.980525
55.185 6.096623
55.190 6.067962
55.195 6.021315
55.200 6.282673
55.205 6.715867
55.210 6.77278
55.215 6.903518
55.220 6.919043
55.225 7.228193
55.230 6.845712
55.235 6.315999
55.240 5.849249
55.245 6.006169
55.250 5.977379
55.255 6.028779
55.260 5.684448
55.265 6.040296
55.270 6.499019
55.275 6.890259
55.280 6.958751
55.285 7.217002
55.290 7.259685
55.295 7.421981
55.300 6.948988
55.305 6.536638
55.310 6.512842
55.315 6.492732
55.320 6.647113
55.325 6.654433
55.330 6.39658
55.335 6.610059
55.340 6.648978
55.345 6.625041
55.350 6.384295
55.355 6.183344
55.360 5.931067
55.365 5.833241
55.370 5.836948
55.375 5.684942
55.380 5.247002
55.385 5.07151
55.390 5.345531
55.395 6.193
55.400 6.615061
55.405 6.943463
55.410 7.309506
55.415 7.746019
55.420 7.745871
55.425 7.359372
55.430 6.848177
55.435 6.680987
55.440 6.338174
55.445 6.113247
55.450 5.897224
55.455 6.047672
55.460 6.556937
55.465 6.827938
55.470 6.804578
55.475 6.630698
55.480 6.654729
55.485 7.142674
55.490 7.058195
55.495 6.460171
55.500 6.141693
55.505 6.353773
55.510 6.998464
55.515 7.089799
55.520 6.710908
55.525 6.778081
55.530 6.527709
55.535 6.744009
55.540 6.383844
55.545 5.993793
55.550 6.308949
55.555 6.301876
55.560 6.37409
55.565 6.461428
55.570 6.327997
55.575 6.627028
55.580 6.921527
55.585 6.685862
55.590 6.949775
55.595 7.239233
55.600 7.454214
55.605 7.500241
55.610 7.294976
55.615 6.938768
55.620 6.739999
55.625 6.34238
55.630 6.119401
55.635 6.382912
55.640 6.337244
55.645 6.242957
55.650 5.810266
55.655 6.029035
55.660 6.021321
55.665 5.458505
55.670 4.972682
55.675 5.133089
55.680 5.54105
55.685 5.879724
55.690 5.925444
55.695 6.276129
55.700 6.931976
55.705 6.800417
55.710 6.520288
55.715 6.233629
55.720 6.017419
55.725 5.914888
55.730 5.79305
55.735 5.898588
55.740 6.047053
55.745 5.849493
55.750 5.970011
55.755 6.519574
55.760 6.477849
55.765 6.184473
55.770 6.323164
55.775 6.935713
55.780 7.197971
55.785 7.271531
55.790 6.667907
55.795 6.557546
55.800 6.630855
55.805 6.283034
55.810 6.052833
55.815 6.333735
55.820 6.753808
55.825 7.402406
55.830 7.169353
55.835 7.608218
55.840 7.875607
55.845 7.764672
55.850 7.378169
55.855 7.300256
55.860 7.246537
55.865 7.325896
55.870 6.883747
55.875 6.648507
55.880 6.913613
55.885 6.832958
55.890 6.448282
55.895 6.395679
55.900 6.459491
55.905 6.376741
55.910 6.440628
55.915 6.203563
55.920 6.637735
55.925 6.803282
55.930 6.823003
55.935 7.011342
55.940 7.058533
55.945 7.024642
55.950 7.162479
55.955 7.146115
55.960 7.078172
55.965 6.802857
55.970 7.053666
55.975 7.665834
55.980 7.776159
55.985 7.517062
55.990 7.061519
55.995 6.929122
56.000 7.748983
56.005 7.637401
56.010 7.262456
56.015 7.195763
56.020 7.148832
56.025 7.438234
56.030 7.437666
56.035 6.742411
56.040 6.523543
56.045 6.537066
56.050 6.392628
56.055 6.324976
56.060 6.314781
56.065 6.650054
56.070 6.696904
56.075 6.791644
56.080 6.627316
56.085 6.605906
56.090 6.600689
56.095 6.737634
56.100 6.613613
56.105 6.770945
56.110 6.83879
56.115 6.909194
56.120 7.18426
56.125 7.00811
56.130 7.127682
56.135 7.459955
56.140 7.74984
56.145 7.710388
56.150 7.508068
56.155 7.582059
56.160 8.398641
56.165 8.364436
56.170 8.050691
56.175 7.68895
56.180 7.49828
56.185 7.715617
56.190 7.278039
56.195 6.738478
56.200 6.531485
56.205 6.521901
56.210 6.482963
56.215 7.014737
56.220 7.308896
56.225 7.674302
56.230 7.526485
56.235 7.372746
56.240 7.336791
56.245 7.470698
56.250 7.228522
56.255 7.234612
56.260 7.162832
56.265 7.278946
56.270 7.28203
56.275 7.535485
56.280 7.390525
56.285 7.330967
56.290 6.853388
56.295 7.373029
56.300 7.505888
56.305 7.632385
56.310 7.699859
56.315 7.920934
56.320 7.892308
56.325 8.069325
56.330 7.401949
56.335 7.029483
56.340 6.937256
56.345 6.493426
56.350 6.524041
56.355 6.713395
56.360 6.421042
56.365 6.436068
56.370 6.718142
56.375 6.745664
56.380 6.447558
56.385 6.358305
56.390 6.328358
56.395 6.590128
56.400 6.948192
56.405 6.663522
56.410 6.713933
56.415 7.090129
56.420 7.177459
56.425 7.100492
56.430 7.013456
56.435 7.009704
56.440 7.131214
56.445 7.048261
56.450 7.340913
56.455 7.425104
56.460 7.641223
56.465 7.449503
56.470 7.239863
56.475 7.332882
56.480 7.131753
56.485 6.723616
56.490 6.569461
56.495 6.588283
56.500 6.973848
56.505 7.208789
56.510 7.253236
56.515 7.462037
56.520 7.260567
56.525 6.864033
56.530 6.984592
56.535 7.14215
56.540 7.343011
56.545 7.241935
56.550 7.196457
56.555 7.223481
56.560 6.906604
56.565 6.343874
56.570 6.185604
56.575 5.983517
56.580 6.027379
56.585 6.188879
56.590 6.827351
56.595 7.179349
56.600 7.398084
56.605 7.257237
56.610 7.41688
56.615 7.297981
56.620 7.092493
56.625 6.730738
56.630 6.698187
56.635 6.412229
56.640 6.653152
56.645 6.598231
56.650 6.46197
56.655 6.387746
56.660 6.217452
56.665 6.478736
56.670 6.636197
56.675 6.42612
56.680 6.774084
56.685 6.918657
56.690 7.441853
56.695 7.73329
56.700 7.59738
56.705 7.443678
56.710 7.401877
56.715 7.11737
56.720 7.058083
56.725 7.075747
56.730 7.174267
56.735 7.249566
56.740 7.250014
56.745 6.928759
56.750 7.047118
56.755 6.967857
56.760 6.615932
56.765 6.626225
56.770 7.216714
56.775 7.461658
56.780 7.716441
56.785 7.869254
56.790 8.164874
56.795 8.569336
56.800 8.366303
56.805 8.012909
56.810 8.043317
56.815 7.81801
56.820 7.359505
56.825 7.258038
56.830 7.369639
56.835 7.497413
56.840 7.30037
56.845 7.498595
56.850 7.41571
56.855 7.517073
56.860 7.106246
56.865 7.102529
56.870 6.97146
56.875 7.023549
56.880 7.052189
56.885 7.389558
56.890 7.638878
56.895 7.580664
56.900 7.536106
56.905 8.045413
56.910 8.236764
56.915 8.234956
56.920 8.364192
56.925 8.369511
56.930 8.577534
56.935 8.410158
56.940 8.007072
56.945 7.68259
56.950 7.296934
56.955 7.181212
56.960 7.023895
56.965 6.917892
56.970 7.159683
56.975 7.017334
56.980 7.151771
56.985 7.422565
56.990 7.6417
56.995 8.178844
57.000 8.371925
57.005 8.567607
57.010 8.992876
57.015 8.756656
57.020 8.583882
57.025 8.741822
57.030 8.660687
57.035 8.339092
57.040 8.042309
57.045 7.992448
57.050 8.277646
57.055 8.593565
57.060 8.126039
57.065 7.688896
57.070 7.310717
57.075 7.302711
57.080 7.167056
57.085 7.169688
57.090 6.763347
57.095 6.703278
57.100 6.713405
57.105 7.066186
57.110 7.277151
57.115 7.006083
57.120 6.717752
57.125 6.566007
57.130 7.05914
57.135 7.648265
57.140 7.64176
57.145 7.545006
57.150 8.035537
57.155 8.274155
57.160 8.513187
57.165 8.426369
57.170 8.398991
57.175 8.726046
57.180 8.832298
57.185 8.751002
57.190 8.756259
57.195 8.476199
57.200 8.41255
57.205 7.898824
57.210 7.371131
57.215 6.995462
57.220 7.079591
57.225 6.998843
57.230 6.783369
57.235 6.801458
57.240 7.238416
57.245 7.325954
57.250 6.901978
57.255 6.8744
57.260 7.052706
57.265 7.642522
57.270 7.371358
57.275 7.119083
57.280 7.417258
57.285 8.087722
57.290 7.886826
57.295 7.689536
57.300 7.605055
57.305 7.956035
57.310 8.068283
57.315 7.887941
57.320 7.664733
57.325 8.381607
57.330 8.614055
57.335 8.989416
57.340 8.942932
57.345 9.0927
57.350 9.521877
57.355 9.393719
57.360 8.635742
57.365 8.25116
57.370 7.89754
57.375 7.685053
57.380 7.629506
57.385 7.271207
57.390 7.533181
57.395 7.987663
57.400 8.017232
57.405 7.854697
57.410 7.753892
57.415 7.742911
57.420 8.436909
57.425 8.706098
57.430 8.857518
57.435 8.895366
57.440 9.14811
57.445 9.156664
57.450 8.504702
57.455 7.797101
57.460 7.489221
57.465 7.426664
57.470 7.30775
57.475 7.148838
57.480 7.389579
57.485 7.813298
57.490 8.139403
57.495 7.680957
57.500 7.518911
57.505 7.64366
57.510 7.74686
57.515 8.00305
57.520 8.007623
57.525 8.156967
57.530 8.613013
57.535 8.777952
57.540 9.0218
57.545 9.059123
57.550 9.091889
57.555 9.251708
57.560 9.250072
57.565 9.113844
57.570 9.179338
57.575 8.804974
57.580 8.942914
57.585 8.9952
57.590 8.764663
57.595 8.643765
57.600 8.75851
57.605 8.361253
57.610 7.947948
57.615 7.449614
57.620 7.143238
57.625 7.164188
57.630 7.458646
57.635 7.799
57.640 8.187534
57.645 8.541167
57.650 8.691598
57.655 8.744267
57.660 8.875796
57.665 8.963732
57.670 8.366292
57.675 8.382936
57.680 8.908445
57.685 9.406738
57.690 9.63663
57.695 9.848683
57.700 9.888651
57.705 10.121268
57.710 10.73549
57.715 10.545665
57.720 10.227985
57.725 9.64662
57.730 9.123703
57.735 9.095381
57.740 9.386883
57.745 8.420801
57.750 7.860018
57.755 7.550956
57.760 7.987046
57.765 8.125761
57.770 7.838978
57.775 7.962757
57.780 8.28145
57.785 8.769845
57.790 9.084742
57.795 9.103328
57.800 9.355875
57.805 9.291326
57.810 9.041758
57.815 9.307074
57.820 9.370573
57.825 9.614223
57.830 9.350895
57.835 8.933225
57.840 8.871578
57.845 8.820026
57.850 8.249125
57.855 8.023469
57.860 7.647723
57.865 7.45747
57.870 7.571026
57.875 7.842115
57.880 8.171457
57.885 8.776269
57.890 8.936582
57.895 8.88952
57.900 9.164914
57.905 9.193163
57.910 8.994396
57.915 8.662463
57.920 8.410847
57.925 8.313127
57.930 8.55597
57.935 8.529326
57.940 8.825483
57.945 8.859664
57.950 9.026125
57.955 9.137576
57.960 9.251036
57.965 9.67417
57.970 9.999823
57.975 10.097403
57.980 10.237491
57.985 10.071002
57.990 9.933728
57.995 9.993766
58.000 9.40106
58.005 9.378922
58.010 9.278318
58.015 9.307127
58.020 9.202802
58.025 9.390068
58.030 9.230917
58.035 9.357135
58.040 9.476738
58.045 9.343275
58.050 9.142464
58.055 9.144366
58.060 8.87872
58.065 8.579531
58.070 8.80859
58.075 8.537613
58.080 8.588276
58.085 8.800969
58.090 9.053926
58.095 9.174278
58.100 9.536878
58.105 9.489578
58.110 8.963776
58.115 9.025105
58.120 9.22906
58.125 9.592047
58.130 10.007605
58.135 10.03675
58.140 10.07287
58.145 10.54185
58.150 10.280287
58.155 10.000185
58.160 9.414811
58.165 8.965278
58.170 9.067977
58.175 9.105659
58.180 9.248229
58.185 9.250366
58.190 9.264016
58.195 9.630228
58.200 9.614266
58.205 9.47114
58.210 9.593283
58.215 9.517254
58.220 9.566817
58.225 9.415448
58.230 9.139984
58.235 9.506917
58.240 9.357034
58.245 9.572681
58.250 9.400776
58.255 9.696743
58.260 10.181604
58.265 10.28969
58.270 9.957654
58.275 10.062898
58.280 9.762514
58.285 10.127881
58.290 9.780922
58.295 9.39601
58.300 9.366263
58.305 9.714467
58.310 9.582937
58.315 9.288844
58.320 9.24296
58.325 9.151247
58.330 9.092123
58.335 8.891189
58.340 9.022974
58.345 9.319373
58.350 9.4315
58.355 9.182326
58.360 9.450824
58.365 9.57006
58.370 9.604275
58.375 10.043127
58.380 10.124833
58.385 10.10657
58.390 10.364937
58.395 10.496047
58.400 10.714322
58.405 10.447762
58.410 9.834468
58.415 9.778487
58.420 10.153848
58.425 10.225509
58.430 10.373776
58.435 10.39231
58.440 10.405316
58.445 10.615367
58.450 10.585916
58.455 10.485401
58.460 10.71755
58.465 10.728892
58.470 11.039176
58.475 11.10173
58.480 10.878269
58.485 11.295153
58.490 11.089983
58.495 11.042327
58.500 11.004291
58.505 11.03022
58.510 11.989569
58.515 12.609932
58.520 13.142297
58.525 14.389838
58.530 15.017791
58.535 15.371048
58.540 15.787813
58.545 15.217737
58.550 14.963588
58.555 14.602728
58.560 14.479128
58.565 14.303425
58.570 14.299669
58.575 14.400846
58.580 14.881827
58.585 15.464747
58.590 15.73129
58.595 16.487829
58.600 16.363539
58.605 16.681751
58.610 16.908936
58.615 17.079157
58.620 16.670235
58.625 16.505022
58.630 16.304337
58.635 16.477867
58.640 16.691854
58.645 16.643335
58.650 16.138063
58.655 16.769455
58.660 17.419886
58.665 17.494642
58.670 17.484695
58.675 17.432411
58.680 17.870735
58.685 18.202677
58.690 18.338058
58.695 18.665539
58.700 18.857443
58.705 19.464731
58.710 18.837023
58.715 18.673023
58.720 19.458815
58.725 19.333221
58.730 18.839981
58.735 18.95962
