!@!!GADDS PLOTSO FILE: Chi integration type
!@!!Title/SampleName: map-91
!@!!Comment: ?
!@!!User: Bruker Instrument Administrator
!@!!Site: University of Illinois Chicago
!@!!Frame: map-91_01_000.gfrm
!@!!Wavelengths    1.54184   1.54056   1.54439
!@!!Frame angles: 2Theta: 63.000 Omega: 50.000 Phi: 0.000 Chi: 90.000
!@!!Integration range: 2Theta: 53.000 to 73.000  Gamma: -105.000 to -75.000
!@!!Integration method: bin normalized
!@!N
!@!SS
!@!M
!@!L 0.0 0.0 0.0 0.0
!@!XDegrees
!@!YCounts
53.000 8.462152
53.005 8.419452
53.010 8.434328
53.015 8.339615
53.020 8.538363
53.025 8.241416
53.030 7.928187
53.035 7.617265
53.040 7.562737
53.045 7.372913
53.050 7.017948
53.055 6.79948
53.060 6.860184
53.065 6.668537
53.070 6.718314
53.075 7.174519
53.080 7.485726
53.085 7.535924
53.090 7.61986
53.095 8.072831
53.100 8.551452
53.105 8.798387
53.110 8.741666
53.115 8.594376
53.120 8.650821
53.125 8.627317
53.130 8.400816
53.135 8.682858
53.140 8.111507
53.145 7.944385
53.150 8.25495
53.155 8.33414
53.160 8.413013
53.165 8.471541
53.170 7.892182
53.175 7.87927
53.180 7.514233
53.185 7.299263
53.190 7.595819
53.195 7.257527
53.200 7.145524
53.205 7.378845
53.210 7.537059
53.215 7.970022
53.220 7.868082
53.225 8.159296
53.230 8.465995
53.235 8.768624
53.240 9.20402
53.245 9.381234
53.250 9.349869
53.255 9.179032
53.260 9.17527
53.265 8.736971
53.270 8.289326
53.275 7.690502
53.280 7.823626
53.285 7.936344
53.290 8.48651
53.295 8.107545
53.300 8.621369
53.305 8.848854
53.310 8.93594
53.315 9.208931
53.320 8.674844
53.325 8.009186
53.330 7.98627
53.335 7.777016
53.340 8.147471
53.345 7.829278
53.350 7.468776
53.355 7.866216
53.360 8.171957
53.365 8.38925
53.370 8.446031
53.375 7.9834
53.380 8.077972
53.385 8.530695
53.390 8.688571
53.395 8.839177
53.400 9.006795
53.405 9.266337
53.410 9.346249
53.415 9.249749
53.420 8.618608
53.425 8.399384
53.430 8.077904
53.435 7.621867
53.440 7.283884
53.445 7.232944
53.450 6.963587
53.455 6.897484
53.460 7.143353
53.465 7.074144
53.470 7.384612
53.475 7.522127
53.480 7.892112
53.485 8.186989
53.490 8.080182
53.495 8.129204
53.500 8.197351
53.505 8.235545
53.510 8.197751
53.515 8.228637
53.520 7.874849
53.525 7.523645
53.530 7.432828
53.535 7.231742
53.540 7.315987
53.545 7.473056
53.550 7.491198
53.555 7.864777
53.560 7.877859
53.565 7.645258
53.570 8.085364
53.575 8.060244
53.580 8.274591
53.585 8.193096
53.590 8.26435
53.595 8.90014
53.600 8.918923
53.605 8.633313
53.610 8.35679
53.615 7.848779
53.620 8.134134
53.625 8.07032
53.630 7.722269
53.635 7.850282
53.640 7.593595
53.645 7.958663
53.650 8.470639
53.655 8.569211
53.660 8.815278
53.665 8.813893
53.670 8.929526
53.675 9.452016
53.680 9.310294
53.685 8.981074
53.690 8.776427
53.695 9.139967
53.700 9.208282
53.705 9.410345
53.710 9.504628
53.715 9.656363
53.720 9.975494
53.725 10.406362
53.730 10.129727
53.735 10.374321
53.740 10.118281
53.745 9.975483
53.750 9.912739
53.755 9.835701
53.760 9.775417
53.765 9.566136
53.770 9.388937
53.775 9.269679
53.780 9.254063
53.785 9.202318
53.790 9.025719
53.795 9.119105
53.800 9.551229
53.805 9.341908
53.810 9.144994
53.815 9.345011
53.820 9.33244
53.825 9.695144
53.830 9.379035
53.835 9.119223
53.840 9.535759
53.845 9.347547
53.850 9.025657
53.855 9.25683
53.860 8.708683
53.865 9.100481
53.870 9.537807
53.875 9.559383
53.880 10.013399
53.885 9.834898
53.890 9.650532
53.895 10.069846
53.900 9.919277
53.905 9.69673
53.910 9.383964
53.915 9.303473
53.920 9.327147
53.925 9.126584
53.930 8.669662
53.935 8.649938
53.940 8.880882
53.945 9.02375
53.950 9.203106
53.955 9.376653
53.960 9.381809
53.965 9.324277
53.970 9.022298
53.975 8.857326
53.980 8.732819
53.985 8.478854
53.990 8.494852
53.995 8.483391
54.000 8.709693
54.005 8.496016
54.010 8.328918
54.015 8.192252
54.020 8.06706
54.025 7.810757
54.030 7.898046
54.035 7.59928
54.040 7.902096
54.045 8.143147
54.050 8.462399
54.055 8.759364
54.060 8.874104
54.065 9.206738
54.070 9.582455
54.075 9.869267
54.080 9.754261
54.085 10.095383
54.090 10.415229
54.095 10.512708
54.100 10.108671
54.105 9.864927
54.110 9.450709
54.115 9.222992
54.120 8.789348
54.125 8.307681
54.130 8.171087
54.135 8.18513
54.140 8.433309
54.145 8.621783
54.150 8.601052
54.155 8.860399
54.160 9.03212
54.165 9.030444
54.170 9.322966
54.175 9.627604
54.180 10.200338
54.185 10.013124
54.190 9.56324
54.195 9.348872
54.200 9.713497
54.205 9.547231
54.210 9.223842
54.215 8.93714
54.220 9.0468
54.225 9.502825
54.230 9.565881
54.235 9.16205
54.240 8.9293
54.245 8.758785
54.250 8.693474
54.255 9.014345
54.260 9.099512
54.265 9.353914
54.270 10.075811
54.275 10.263823
54.280 10.431458
54.285 10.311522
54.290 9.95479
54.295 9.974144
54.300 9.612681
54.305 9.055187
54.310 8.939523
54.315 9.151646
54.320 9.292591
54.325 9.248178
54.330 9.419088
54.335 9.154731
54.340 9.259531
54.345 9.24999
54.350 9.101821
54.355 9.265443
54.360 9.390508
54.365 9.1523
54.370 9.24619
54.375 8.987257
54.380 8.688444
54.385 8.318354
54.390 8.258818
54.395 8.343298
54.400 8.85456
54.405 9.192792
54.410 9.575524
54.415 9.904263
54.420 10.211401
54.425 10.372746
54.430 9.972214
54.435 9.617528
54.440 10.291131
54.445 10.338811
54.450 10.005451
54.455 9.860907
54.460 10.187971
54.465 10.451899
54.470 10.045832
54.475 9.212344
54.480 9.54908
54.485 9.460114
54.490 9.35863
54.495 9.171871
54.500 9.30807
54.505 9.906774
54.510 10.085499
54.515 10.397786
54.520 10.76096
54.525 10.762304
54.530 10.40882
54.535 10.290265
54.540 9.595891
54.545 9.801493
54.550 9.732806
54.555 10.146669
54.560 10.657507
54.565 10.733603
54.570 10.569653
54.575 10.974883
54.580 10.613557
54.585 10.209525
54.590 9.552587
54.595 9.493751
54.600 10.203206
54.605 10.418463
54.610 9.716071
54.615 9.715158
54.620 10.096082
54.625 10.014971
54.630 9.713285
54.635 9.137418
54.640 9.184279
54.645 9.659034
54.650 9.663412
54.655 9.773156
54.660 9.870904
54.665 9.677391
54.670 9.619338
54.675 9.982951
54.680 10.129447
54.685 9.764536
54.690 9.505357
54.695 9.803523
54.700 10.412366
54.705 10.768497
54.710 10.538995
54.715 10.381264
54.720 10.639499
54.725 10.586619
54.730 10.149211
54.735 9.85369
54.740 9.666696
54.745 9.903462
54.750 10.307654
54.755 10.168186
54.760 10.631379
54.765 11.273004
54.770 11.789041
54.775 11.606994
54.780 11.201915
54.785 11.090313
54.790 11.266115
54.795 10.742363
54.800 9.927681
54.805 9.810283
54.810 9.823446
54.815 10.093068
54.820 9.977764
54.825 9.661566
54.830 9.571874
54.835 9.418289
54.840 9.192681
54.845 9.431772
54.850 9.267203
54.855 9.382099
54.860 9.002138
54.865 8.914708
54.870 8.870677
54.875 8.730175
54.880 8.990514
54.885 8.611168
54.890 8.633908
54.895 9.14216
54.900 9.475252
54.905 9.991518
54.910 10.298554
54.915 10.094523
54.920 10.360833
54.925 10.207213
54.930 10.354975
54.935 10.354968
54.940 10.214767
54.945 10.555472
54.950 11.248858
54.955 11.276913
54.960 11.648057
54.965 11.591515
54.970 11.82699
54.975 12.061045
54.980 11.700376
54.985 11.34055
54.990 11.614739
54.995 11.270556
55.000 10.969517
55.005 10.626669
55.010 10.064285
55.015 9.686553
55.020 9.617429
55.025 9.520843
55.030 10.179887
55.035 10.26424
55.040 9.866341
55.045 9.945177
55.050 10.051359
55.055 10.385335
55.060 9.99126
55.065 9.889208
55.070 10.044276
55.075 10.431861
55.080 10.632478
55.085 10.381026
55.090 10.114863
55.095 10.231927
55.100 10.087844
55.105 9.919132
55.110 10.213542
55.115 10.040781
55.120 9.961025
55.125 9.855777
55.130 9.940742
55.135 10.393788
55.140 10.496093
55.145 9.950026
55.150 10.152761
55.155 10.390479
55.160 10.60869
55.165 10.494894
55.170 10.205153
55.175 10.383677
55.180 10.606427
55.185 10.61253
55.190 10.108292
55.195 9.675261
55.200 9.466043
55.205 9.507762
55.210 9.408373
55.215 9.052727
55.220 9.271199
55.225 9.569925
55.230 9.673613
55.235 9.553123
55.240 9.303025
55.245 9.469769
55.250 9.594933
55.255 9.034086
55.260 9.215934
55.265 9.687004
55.270 10.217676
55.275 10.397048
55.280 10.751267
55.285 11.011365
55.290 11.495657
55.295 11.59466
55.300 11.145563
55.305 10.606309
55.310 10.34807
55.315 10.111476
55.320 10.233895
55.325 10.087911
55.330 10.065353
55.335 10.344693
55.340 10.697148
55.345 11.011755
55.350 11.221354
55.355 11.049316
55.360 11.272746
55.365 11.135758
55.370 10.963794
55.375 11.20592
55.380 11.040629
55.385 10.819081
55.390 10.98769
55.395 11.163454
55.400 11.638238
55.405 12.018316
55.410 11.799956
55.415 11.735631
55.420 11.744587
55.425 11.525349
55.430 11.201413
55.435 10.801009
55.440 10.759633
55.445 11.032016
55.450 10.99924
55.455 11.528247
55.460 12.446256
55.465 12.469423
55.470 12.629686
55.475 12.185396
55.480 11.984064
55.485 11.799484
55.490 11.451496
55.495 10.674116
55.500 10.240316
55.505 9.967343
55.510 10.284482
55.515 10.158002
55.520 9.718595
55.525 9.470604
55.530 9.764011
55.535 10.333477
55.540 10.509367
55.545 10.76634
55.550 11.133976
55.555 11.590495
55.560 11.412821
55.565 11.205463
55.570 11.143337
55.575 11.178373
55.580 10.789329
55.585 10.808624
55.590 10.56552
55.595 10.874285
55.600 10.53276
55.605 10.338552
55.610 10.074574
55.615 10.070486
55.620 10.068296
55.625 10.111287
55.630 10.049988
55.635 10.14697
55.640 10.051229
55.645 9.543562
55.650 9.580006
55.655 9.645564
55.660 10.093912
55.665 10.285578
55.670 9.982302
55.675 10.230053
55.680 10.644318
55.685 10.86676
55.690 10.976498
55.695 10.412745
55.700 10.272176
55.705 10.807805
55.710 11.229418
55.715 11.264168
55.720 11.129169
55.725 10.958639
55.730 10.88352
55.735 10.94689
55.740 10.760372
55.745 10.22648
55.750 10.10996
55.755 10.199756
55.760 9.914042
55.765 10.265356
55.770 9.986137
55.775 10.208589
55.780 10.623375
55.785 10.587623
55.790 10.611682
55.795 10.656288
55.800 10.863989
55.805 11.141126
55.810 10.722201
55.815 10.673639
55.820 10.495364
55.825 10.604494
55.830 10.546037
55.835 10.725947
55.840 10.991022
55.845 11.212987
55.850 11.560297
55.855 11.616435
55.860 11.718104
55.865 12.027237
55.870 11.450163
55.875 11.67443
55.880 11.908065
55.885 11.949902
55.890 12.157151
55.895 11.817937
55.900 11.641295
55.905 11.880828
55.910 11.822658
55.915 11.33598
55.920 10.780874
55.925 10.341398
55.930 10.576796
55.935 10.653399
55.940 10.426411
55.945 10.285669
55.950 10.694952
55.955 11.008874
55.960 11.444177
55.965 11.495231
55.970 11.70407
55.975 11.553843
55.980 11.82756
55.985 12.295322
55.990 12.469056
55.995 12.272132
56.000 12.071096
56.005 12.134718
56.010 12.354649
56.015 12.473371
56.020 11.957532
56.025 12.04689
56.030 12.48899
56.035 12.687212
56.040 12.727805
56.045 12.095958
56.050 11.423151
56.055 11.226488
56.060 10.884281
56.065 10.62075
56.070 10.447418
56.075 10.539526
56.080 11.038705
56.085 11.018809
56.090 11.32762
56.095 11.544064
56.100 11.309362
56.105 11.002581
56.110 10.824045
56.115 10.531071
56.120 10.298388
56.125 9.609841
56.130 9.433293
56.135 9.990986
56.140 10.745368
56.145 11.076975
56.150 11.328235
56.155 11.748323
56.160 12.466396
56.165 12.813113
56.170 12.70296
56.175 12.190937
56.180 11.592122
56.185 11.514357
56.190 11.669548
56.195 11.532424
56.200 11.414883
56.205 11.507157
56.210 11.713106
56.215 11.938768
56.220 12.146996
56.225 12.35806
56.230 12.085557
56.235 11.547853
56.240 11.343621
56.245 11.535542
56.250 12.179163
56.255 12.098938
56.260 11.550829
56.265 11.236339
56.270 12.04756
56.275 11.704301
56.280 11.046516
56.285 10.41629
56.290 10.746743
56.295 11.145596
56.300 11.711264
56.305 11.232569
56.310 11.522537
56.315 12.265604
56.320 12.800044
56.325 12.486114
56.330 12.661176
56.335 12.561608
56.340 12.902752
56.345 13.019799
56.350 12.719679
56.355 12.703434
56.360 12.995654
56.365 13.093427
56.370 12.804228
56.375 12.47662
56.380 12.368004
56.385 12.760187
56.390 12.523296
56.395 11.984701
56.400 11.788131
56.405 11.529448
56.410 11.170916
56.415 11.273516
56.420 10.78295
56.425 10.48359
56.430 10.696341
56.435 11.086447
56.440 11.38483
56.445 11.696911
56.450 11.348542
56.455 11.542548
56.460 11.904455
56.465 11.951002
56.470 11.471358
56.475 11.644229
56.480 11.651246
56.485 11.802505
56.490 11.769781
56.495 11.369511
56.500 11.010218
56.505 11.241083
56.510 11.129949
56.515 11.328317
56.520 11.788757
56.525 11.976251
56.530 12.251328
56.535 12.807017
56.540 12.720594
56.545 12.594332
56.550 12.255438
56.555 11.684558
56.560 11.878184
56.565 11.951582
56.570 11.750419
56.575 11.531985
56.580 11.291802
56.585 11.568921
56.590 11.331802
56.595 11.27385
56.600 11.188402
56.605 10.893275
56.610 10.835249
56.615 11.159368
56.620 11.287547
56.625 11.832736
56.630 11.875551
56.635 11.909125
56.640 11.992213
56.645 12.037098
56.650 12.196896
56.655 12.132409
56.660 12.098303
56.665 12.111367
56.670 11.868726
56.675 11.907307
56.680 12.298592
56.685 12.399196
56.690 12.357591
56.695 12.856026
56.700 12.87556
56.705 13.447374
56.710 14.049194
56.715 14.066535
56.720 14.000348
56.725 13.95825
56.730 13.421198
56.735 13.455218
56.740 13.260146
56.745 13.1016
56.750 12.352293
56.755 12.09399
56.760 11.685077
56.765 11.486237
56.770 11.035578
56.775 11.020896
56.780 11.488272
56.785 11.829794
56.790 11.645433
56.795 12.030167
56.800 12.245125
56.805 12.556332
56.810 12.447095
56.815 11.977991
56.820 12.109819
56.825 12.570936
56.830 12.115327
56.835 11.727348
56.840 12.097758
56.845 12.010446
56.850 12.377235
56.855 12.435652
56.860 12.001347
56.865 12.44126
56.870 12.654218
56.875 12.388097
56.880 12.352603
56.885 12.063451
56.890 12.214256
56.895 12.533538
56.900 12.556589
56.905 12.771911
56.910 12.781887
56.915 12.637965
56.920 12.765512
56.925 12.612128
56.930 12.357614
56.935 11.93315
56.940 11.58607
56.945 11.790942
56.950 12.013874
56.955 12.436397
56.960 12.422321
56.965 13.315905
56.970 14.316453
56.975 15.056256
56.980 15.073445
56.985 14.911654
56.990 14.564265
56.995 14.46225
57.000 14.34687
57.005 14.079223
57.010 13.561915
57.015 13.274687
57.020 13.407025
57.025 13.417706
57.030 12.933135
57.035 11.939932
57.040 11.334025
57.045 11.066832
57.050 11.387441
57.055 11.449833
57.060 11.337835
57.065 11.345355
57.070 11.678838
57.075 12.059775
57.080 12.573653
57.085 12.549962
57.090 12.247249
57.095 12.475519
57.100 12.728031
57.105 12.138989
57.110 11.667609
57.115 11.171175
57.120 10.678205
57.125 10.844484
57.130 10.943188
57.135 11.102734
57.140 11.948427
57.145 12.613394
57.150 13.388153
57.155 13.750032
57.160 13.575095
57.165 13.129901
57.170 12.906474
57.175 12.342664
57.180 11.831748
57.185 11.201364
57.190 11.275681
57.195 11.401496
57.200 11.75315
57.205 12.266567
57.210 12.602722
57.215 12.548915
57.220 12.906313
57.225 13.004496
57.230 13.195426
57.235 13.526572
57.240 13.601954
57.245 13.148053
57.250 12.846293
57.255 12.635467
57.260 12.323366
57.265 12.439907
57.270 12.381824
57.275 11.884275
57.280 12.742773
57.285 12.746064
57.290 12.651972
57.295 12.771277
57.300 12.321889
57.305 12.246727
57.310 12.388736
57.315 12.088307
57.320 13.057115
57.325 13.406761
57.330 13.793958
57.335 14.239732
57.340 13.997636
57.345 13.961719
57.350 13.743467
57.355 13.241256
57.360 12.835181
57.365 12.301442
57.370 11.876687
57.375 11.848555
57.380 12.625627
57.385 13.273409
57.390 13.477888
57.395 13.713407
57.400 14.189662
57.405 14.627956
57.410 14.833071
57.415 14.254179
57.420 13.901336
57.425 13.750406
57.430 13.656013
57.435 13.512493
57.440 13.116645
57.445 12.853398
57.450 12.281532
57.455 12.455276
57.460 12.372365
57.465 12.558034
57.470 12.145782
57.475 12.522321
57.480 12.696021
57.485 12.87995
57.490 12.98513
57.495 13.29451
57.500 13.553603
57.505 14.156143
57.510 14.061499
57.515 14.024345
57.520 14.200772
57.525 14.261301
57.530 14.689177
57.535 14.276813
57.540 14.054069
57.545 14.445051
57.550 14.54368
57.555 15.020221
57.560 14.839067
57.565 14.293005
57.570 14.595901
57.575 14.430688
57.580 13.944225
57.585 13.989216
57.590 13.430575
57.595 13.107424
57.600 13.198726
57.605 13.071599
57.610 12.648419
57.615 12.664187
57.620 12.6597
57.625 12.10539
57.630 12.08504
57.635 12.022573
57.640 12.068622
57.645 12.535975
57.650 12.509297
57.655 12.400103
57.660 12.748288
57.665 12.774325
57.670 13.104943
57.675 13.437376
57.680 13.472189
57.685 14.191066
57.690 14.624275
57.695 14.812783
57.700 15.091836
57.705 14.894454
57.710 14.539716
57.715 14.406665
57.720 14.113832
57.725 14.25425
57.730 14.348574
57.735 14.153644
57.740 14.193908
57.745 14.416841
57.750 14.650906
57.755 14.127299
57.760 13.840687
57.765 13.500896
57.770 13.351908
57.775 13.491715
57.780 13.369037
57.785 13.228913
57.790 13.459435
57.795 13.584594
57.800 13.821062
57.805 14.042678
57.810 13.964408
57.815 14.030913
57.820 14.255483
57.825 14.310643
57.830 14.354337
57.835 14.371317
57.840 14.869807
57.845 14.890295
57.850 14.888374
57.855 14.391071
57.860 14.385789
57.865 14.369946
57.870 14.671005
57.875 14.682193
57.880 14.672569
57.885 14.653799
57.890 15.244313
57.895 15.245838
57.900 14.913628
57.905 14.554829
57.910 14.446157
57.915 14.584353
57.920 15.14499
57.925 15.379539
57.930 15.8234
57.935 16.234274
57.940 16.320225
57.945 16.278847
57.950 16.065514
57.955 15.628676
57.960 15.159779
57.965 14.50697
57.970 14.304362
57.975 14.240005
57.980 13.909251
57.985 13.764813
57.990 13.415468
57.995 13.442376
58.000 13.827848
58.005 13.862086
58.010 13.697863
58.015 13.504992
58.020 13.336226
58.025 13.661553
58.030 13.954662
58.035 14.419357
58.040 14.987737
58.045 15.428024
58.050 15.520409
58.055 16.290216
58.060 16.039352
58.065 15.574679
58.070 14.822075
58.075 14.498078
58.080 14.143244
58.085 14.244098
58.090 14.076572
58.095 14.265896
58.100 14.292239
58.105 14.506312
58.110 14.251024
58.115 14.6552
58.120 14.988256
58.125 14.310745
58.130 14.69842
58.135 15.191133
58.140 15.700212
58.145 16.220366
58.150 15.666107
58.155 15.848382
58.160 16.182915
58.165 15.951106
58.170 15.560939
58.175 15.213742
58.180 15.504632
58.185 15.509491
58.190 15.642751
58.195 15.858665
58.200 16.158617
58.205 16.273149
58.210 16.427156
58.215 16.014572
58.220 16.549316
58.225 16.478443
58.230 16.157663
58.235 16.103924
58.240 15.74939
58.245 15.458973
58.250 15.503577
58.255 15.812074
58.260 15.888652
58.265 15.791404
58.270 15.479156
58.275 15.271677
58.280 15.619111
58.285 15.864505
58.290 15.948314
58.295 16.216677
58.300 16.609331
58.305 17.252865
58.310 17.847586
58.315 17.661491
58.320 17.241182
58.325 16.854052
58.330 16.575729
58.335 16.125584
58.340 15.622176
58.345 15.871296
58.350 15.660852
58.355 16.125694
58.360 16.292149
58.365 17.373146
58.370 18.08807
58.375 18.325403
58.380 17.935184
58.385 18.280365
58.390 18.739708
58.395 18.994633
58.400 18.853874
58.405 19.402054
58.410 19.764858
58.415 20.542515
58.420 20.760641
58.425 20.720245
58.430 21.073757
58.435 21.44935
58.440 21.494621
58.445 21.36195
58.450 21.197369
58.455 21.662292
58.460 22.21929
58.465 21.763603
58.470 21.200939
58.475 21.108622
58.480 21.866076
58.485 22.767841
58.490 23.713167
58.495 24.537783
58.500 25.650148
58.505 26.464054
58.510 27.132599
58.515 27.107861
58.520 26.817711
58.525 26.715612
58.530 26.982401
58.535 27.618734
58.540 28.20257
