!@!!GADDS PLOTSO FILE: Chi integration type
!@!!Title/SampleName: map-116
!@!!Comment: ?
!@!!User: Bruker Instrument Administrator
!@!!Site: University of Illinois Chicago
!@!!Frame: map-116_01_000.gfrm
!@!!Wavelengths    1.54184   1.54056   1.54439
!@!!Frame angles: 2Theta: 63.000 Omega: 50.000 Phi: 0.000 Chi: 90.000
!@!!Integration range: 2Theta: 53.000 to 73.000  Gamma: -105.000 to -75.000
!@!!Integration method: bin normalized
!@!N
!@!SS
!@!M
!@!L 0.0 0.0 0.0 0.0
!@!XDegrees
!@!YCounts
53.000 7.924792
53.005 7.750951
53.010 7.808431
53.015 7.771235
53.020 7.448613
53.025 7.456028
53.030 7.615583
53.035 7.811468
53.040 7.957758
53.045 8.108067
53.050 8.202779
53.055 8.26256
53.060 8.653181
53.065 8.537509
53.070 8.667662
53.075 8.483472
53.080 8.322518
53.085 8.357094
53.090 8.613052
53.095 8.682286
53.100 8.754649
53.105 8.785165
53.110 8.815256
53.115 9.396549
53.120 9.548126
53.125 9.460492
53.130 9.397179
53.135 8.958004
53.140 8.99478
53.145 9.223063
53.150 8.955006
53.155 8.490833
53.160 8.129203
53.165 7.949466
53.170 8.043084
53.175 7.719809
53.180 7.695832
53.185 7.696568
53.190 8.075212
53.195 8.136006
53.200 8.545024
53.205 9.23852
53.210 9.308548
53.215 9.335662
53.220 9.424819
53.225 9.486845
53.230 9.346746
53.235 8.608195
53.240 7.831265
53.245 7.245718
53.250 7.458797
53.255 6.966608
53.260 7.126443
53.265 7.762943
53.270 8.263062
53.275 8.640015
53.280 8.805458
53.285 8.292009
53.290 8.689734
53.295 8.430568
53.300 8.219255
53.305 8.214722
53.310 8.340682
53.315 8.564319
53.320 8.981758
53.325 9.036598
53.330 9.036314
53.335 8.564642
53.340 8.352017
53.345 8.003851
53.350 7.800808
53.355 7.280876
53.360 7.309497
53.365 7.566022
53.370 8.043133
53.375 8.446716
53.380 8.751636
53.385 8.592811
53.390 8.583828
53.395 8.349286
53.400 8.192519
53.405 8.093455
53.410 8.023246
53.415 8.19448
53.420 8.643834
53.425 8.794474
53.430 8.788998
53.435 8.698723
53.440 8.761422
53.445 8.482101
53.450 8.404413
53.455 8.461556
53.460 8.281119
53.465 8.328141
53.470 8.801961
53.475 8.708289
53.480 8.944737
53.485 8.970521
53.490 8.787278
53.495 8.913651
53.500 8.794882
53.505 8.700982
53.510 8.88075
53.515 8.906121
53.520 8.669553
53.525 8.551394
53.530 8.772161
53.535 8.986141
53.540 8.610463
53.545 8.353452
53.550 8.039936
53.555 7.903556
53.560 7.644835
53.565 7.579822
53.570 7.553641
53.575 7.601748
53.580 7.912036
53.585 8.221472
53.590 8.396183
53.595 8.260513
53.600 8.074027
53.605 7.920567
53.610 8.037705
53.615 7.984404
53.620 8.148431
53.625 8.331549
53.630 8.523683
53.635 8.915443
53.640 9.382793
53.645 9.423404
53.650 9.048705
53.655 8.963417
53.660 9.027633
53.665 9.284845
53.670 8.841149
53.675 8.952226
53.680 8.646229
53.685 8.950307
53.690 8.921975
53.695 8.742645
53.700 8.735002
53.705 8.717846
53.710 8.816807
53.715 9.282282
53.720 9.152072
53.725 9.45707
53.730 8.968559
53.735 8.867825
53.740 8.841418
53.745 8.528074
53.750 8.292415
53.755 8.40406
53.760 8.837077
53.765 9.420719
53.770 9.679598
53.775 9.724447
53.780 9.963921
53.785 9.935385
53.790 9.799219
53.795 9.345878
53.800 8.8345
53.805 8.415716
53.810 8.063822
53.815 8.112128
53.820 8.060397
53.825 8.1903
53.830 8.230824
53.835 8.830917
53.840 8.949094
53.845 8.915866
53.850 8.742326
53.855 8.826495
53.860 9.088358
53.865 9.002205
53.870 8.911857
53.875 9.291104
53.880 9.388053
53.885 9.21344
53.890 9.146277
53.895 9.088967
53.900 8.995915
53.905 8.418442
53.910 8.03507
53.915 8.007199
53.920 8.00741
53.925 7.866215
53.930 8.044781
53.935 8.35094
53.940 8.886258
53.945 9.384754
53.950 9.381208
53.955 9.065445
53.960 8.705086
53.965 8.8522
53.970 8.774699
53.975 8.60129
53.980 8.691833
53.985 8.976585
53.990 9.415091
53.995 9.344369
54.000 8.802689
54.005 8.560396
54.010 8.212916
54.015 8.106729
54.020 8.485077
54.025 8.574965
54.030 8.784422
54.035 8.930657
54.040 8.960621
54.045 8.846103
54.050 8.522883
54.055 8.117205
54.060 8.067041
54.065 8.141848
54.070 8.362976
54.075 8.126983
54.080 8.189016
54.085 7.90179
54.090 8.100082
54.095 7.92778
54.100 7.519328
54.105 7.526109
54.110 7.789906
54.115 7.793145
54.120 7.849766
54.125 7.67521
54.130 7.971807
54.135 8.212512
54.140 8.706991
54.145 9.036508
54.150 9.15392
54.155 9.105152
54.160 8.977869
54.165 8.740884
54.170 8.926256
54.175 8.911763
54.180 8.749583
54.185 8.996016
54.190 9.534899
54.195 9.602516
54.200 9.81918
54.205 9.557069
54.210 9.399841
54.215 9.486191
54.220 9.089542
54.225 8.895456
54.230 9.025379
54.235 8.845468
54.240 8.291404
54.245 8.028463
54.250 7.555444
54.255 7.43466
54.260 7.667206
54.265 8.166835
54.270 8.520802
54.275 8.771446
54.280 9.324097
54.285 9.719504
54.290 9.85695
54.295 9.480888
54.300 8.893509
54.305 8.828361
54.310 8.777121
54.315 8.65107
54.320 8.994798
54.325 9.088898
54.330 9.051448
54.335 9.635365
54.340 10.022027
54.345 10.14299
54.350 9.865122
54.355 9.625467
54.360 9.622103
54.365 9.635862
54.370 8.978988
54.375 8.656806
54.380 8.406505
54.385 8.412421
54.390 8.473629
54.395 8.577288
54.400 8.553552
54.405 8.489104
54.410 8.743481
54.415 9.149505
54.420 9.285759
54.425 9.251897
54.430 9.194236
54.435 9.200802
54.440 9.218994
54.445 8.61909
54.450 8.333965
54.455 7.91692
54.460 7.7131
54.465 7.638876
54.470 7.539083
54.475 7.416036
54.480 7.687668
54.485 7.675997
54.490 7.967532
54.495 8.030681
54.500 8.209682
54.505 8.160846
54.510 8.363372
54.515 8.315757
54.520 8.507151
54.525 8.574566
54.530 8.372942
54.535 8.188745
54.540 8.255909
54.545 8.633346
54.550 8.903691
54.555 9.021219
54.560 9.196405
54.565 8.94151
54.570 8.835859
54.575 8.59595
54.580 8.304708
54.585 8.44873
54.590 8.319138
54.595 8.313024
54.600 8.903212
54.605 9.325047
54.610 9.470175
54.615 9.802446
54.620 9.914094
54.625 9.822579
54.630 9.57325
54.635 9.42152
54.640 9.265831
54.645 8.844076
54.650 8.36526
54.655 8.182934
54.660 8.799882
54.665 9.207566
54.670 8.97671
54.675 9.251904
54.680 9.809858
54.685 9.763015
54.690 9.451438
54.695 8.986311
54.700 8.751655
54.705 8.92018
54.710 8.732072
54.715 8.326365
54.720 8.367578
54.725 8.588449
54.730 8.719327
54.735 8.986263
54.740 8.833885
54.745 8.590648
54.750 9.026264
54.755 9.209062
54.760 9.13868
54.765 9.090025
54.770 9.166439
54.775 9.545699
54.780 9.612652
54.785 9.589005
54.790 9.169464
54.795 9.01053
54.800 9.244663
54.805 9.358581
54.810 9.460782
54.815 9.324137
54.820 9.270706
54.825 9.722419
54.830 9.640211
54.835 9.373965
54.840 9.594316
54.845 9.599329
54.850 9.638875
54.855 9.488653
54.860 9.570414
54.865 9.723722
54.870 9.838135
54.875 9.64043
54.880 9.655253
54.885 9.465983
54.890 9.56277
54.895 9.601988
54.900 9.78572
54.905 10.03313
54.910 10.39645
54.915 10.517309
54.920 11.150617
54.925 10.854844
54.930 10.507885
54.935 9.960541
54.940 9.033025
54.945 8.86533
54.950 9.134094
54.955 8.966219
54.960 8.822762
54.965 8.624451
54.970 8.669756
54.975 8.916031
54.980 8.765804
54.985 8.849823
54.990 8.547819
54.995 8.759664
55.000 8.917164
55.005 9.320819
55.010 9.547776
55.015 9.429183
55.020 9.081263
55.025 9.456276
55.030 9.993099
55.035 10.293709
55.040 10.128963
55.045 9.915669
55.050 10.336374
55.055 10.488962
55.060 10.561879
55.065 9.813064
55.070 9.815268
55.075 9.643399
55.080 9.430777
55.085 8.823842
55.090 8.751092
55.095 8.490988
55.100 8.638972
55.105 8.685556
55.110 8.902713
55.115 9.443016
55.120 9.42478
55.125 9.57412
55.130 9.779963
55.135 9.898417
55.140 9.871552
55.145 9.689569
55.150 9.517746
55.155 9.226046
55.160 9.016506
55.165 9.456731
55.170 9.388487
55.175 9.383203
55.180 9.509526
55.185 9.611444
55.190 10.105608
55.195 10.230312
55.200 9.88064
55.205 9.881835
55.210 9.778549
55.215 9.544912
55.220 9.286368
55.225 8.775917
55.230 8.533652
55.235 8.553532
55.240 8.684642
55.245 8.84676
55.250 8.564002
55.255 8.782109
55.260 9.231658
55.265 9.435712
55.270 9.687544
55.275 9.702567
55.280 10.051233
55.285 10.155496
55.290 9.873291
55.295 10.093285
55.300 10.071416
55.305 9.639384
55.310 9.352609
55.315 8.953751
55.320 9.323786
55.325 9.474981
55.330 9.354905
55.335 9.479736
55.340 9.552374
55.345 9.432085
55.350 9.386966
55.355 9.795893
55.360 9.584291
55.365 9.544125
55.370 9.890922
55.375 10.184332
55.380 10.427764
55.385 10.246388
55.390 9.848212
55.395 9.516883
55.400 8.80373
55.405 8.531687
55.410 8.912604
55.415 9.153635
55.420 9.504253
55.425 9.69173
55.430 9.836236
55.435 10.340049
55.440 10.401002
55.445 10.135757
55.450 9.381689
55.455 8.913166
55.460 9.489861
55.465 9.949948
55.470 9.989037
55.475 9.534657
55.480 9.203858
55.485 9.524792
55.490 9.604986
55.495 9.144588
55.500 8.813715
55.505 8.365005
55.510 9.088293
55.515 9.350709
55.520 9.389157
55.525 9.562508
55.530 9.536958
55.535 9.788287
55.540 9.670187
55.545 9.19182
55.550 9.335839
55.555 9.401856
55.560 9.050326
55.565 9.287192
55.570 9.075788
55.575 9.135183
55.580 9.239236
55.585 9.367566
55.590 9.020323
55.595 9.266452
55.600 9.086379
55.605 9.368351
55.610 9.181151
55.615 9.10364
55.620 9.158753
55.625 9.553566
55.630 9.790507
55.635 9.388002
55.640 9.271705
55.645 9.367395
55.650 9.056288
55.655 8.806383
55.660 8.290388
55.665 7.640305
55.670 7.501674
55.675 7.656571
55.680 7.664271
55.685 7.675938
55.690 8.183585
55.695 8.805982
55.700 9.399863
55.705 9.605782
55.710 9.69848
55.715 9.864239
55.720 9.478756
55.725 9.406251
55.730 9.64143
55.735 9.431876
55.740 9.568862
55.745 9.27981
55.750 9.232513
55.755 9.517722
55.760 9.35782
55.765 8.942898
55.770 8.99173
55.775 9.235443
55.780 9.42103
55.785 9.645612
55.790 9.31559
55.795 9.193398
55.800 9.296057
55.805 9.232051
55.810 9.211442
55.815 9.461957
55.820 9.820409
55.825 10.265022
55.830 10.638309
55.835 11.334466
55.840 11.527235
55.845 11.606875
55.850 11.516252
55.855 11.21602
55.860 10.841961
55.865 10.530728
55.870 9.757906
55.875 9.418112
55.880 9.205546
55.885 9.359532
55.890 9.527396
55.895 9.297
55.900 9.218317
55.905 9.765838
55.910 10.012332
55.915 10.054809
55.920 10.249044
55.925 10.426924
55.930 10.558199
55.935 10.756547
55.940 10.457402
55.945 10.587604
55.950 10.913494
55.955 10.861123
55.960 11.122177
55.965 11.039357
55.970 10.963579
55.975 11.100637
55.980 10.715312
55.985 10.034153
55.990 9.740853
55.995 9.289121
56.000 8.906957
56.005 9.027322
56.010 8.942546
56.015 9.336567
56.020 9.2054
56.025 9.211833
56.030 9.569002
56.035 9.763187
56.040 9.311217
56.045 9.212758
56.050 8.761086
56.055 9.18982
56.060 9.665805
56.065 9.927602
56.070 10.179646
56.075 10.238974
56.080 10.804874
56.085 11.031303
56.090 10.513251
56.095 10.357805
56.100 9.953312
56.105 10.059943
56.110 10.177135
56.115 9.823668
56.120 9.650223
56.125 9.487951
56.130 9.200528
56.135 9.244262
56.140 9.008748
56.145 8.833024
56.150 8.693088
56.155 8.632485
56.160 8.802308
56.165 9.212251
56.170 9.397871
56.175 9.326552
56.180 8.891808
56.185 8.83275
56.190 8.882352
56.195 8.927197
56.200 8.848747
56.205 8.701242
56.210 9.097898
56.215 9.94585
56.220 10.280709
56.225 10.500615
56.230 11.190888
56.235 11.169629
56.240 11.29022
56.245 11.413884
56.250 11.365876
56.255 11.552064
56.260 11.280415
56.265 10.781051
56.270 10.887897
56.275 10.497301
56.280 10.354238
56.285 10.534269
56.290 10.507775
56.295 10.482661
56.300 10.228005
56.305 9.914697
56.310 10.55936
56.315 10.757218
56.320 10.666717
56.325 10.621817
56.330 10.801038
56.335 11.021811
56.340 11.379136
56.345 11.144616
56.350 10.836284
56.355 10.789615
56.360 10.627613
56.365 10.601575
56.370 10.531784
56.375 10.149364
56.380 9.846792
56.385 10.100746
56.390 9.70118
56.395 9.398809
56.400 9.091556
56.405 8.804651
56.410 8.831711
56.415 8.751404
56.420 8.629484
56.425 8.875559
56.430 9.399278
56.435 9.907405
56.440 10.873524
56.445 11.868633
56.450 12.283266
56.455 12.472041
56.460 12.270025
56.465 12.327443
56.470 12.095103
56.475 11.360441
56.480 10.884637
56.485 11.127729
56.490 11.579702
56.495 12.161497
56.500 12.094865
56.505 12.004089
56.510 12.145178
56.515 11.683595
56.520 11.147992
56.525 10.740915
56.530 10.403294
56.535 10.520269
56.540 10.818096
56.545 11.517663
56.550 11.706779
56.555 11.683827
56.560 11.509952
56.565 11.203136
56.570 10.790697
56.575 10.466246
56.580 9.689063
56.585 9.762677
56.590 9.88507
56.595 9.980157
56.600 10.366751
56.605 10.562446
56.610 10.688416
56.615 11.17852
56.620 11.012418
56.625 10.965903
56.630 10.88166
56.635 10.743693
56.640 10.754415
56.645 10.208219
56.650 10.471884
56.655 10.649728
56.660 10.918367
56.665 11.644478
56.670 11.935111
56.675 11.909636
56.680 11.854164
56.685 11.544434
56.690 11.604249
56.695 11.338139
56.700 11.007381
56.705 10.935629
56.710 11.092587
56.715 11.907323
56.720 11.965466
56.725 12.312868
56.730 12.755246
56.735 12.764227
56.740 12.820375
56.745 12.628521
56.750 12.165859
56.755 12.029626
56.760 11.723798
56.765 11.074971
56.770 11.09224
56.775 10.596298
56.780 10.981215
56.785 11.150146
56.790 11.010386
56.795 11.008294
56.800 10.959509
56.805 11.094423
56.810 11.129808
56.815 10.401369
56.820 9.991061
56.825 9.592482
56.830 9.17188
56.835 9.158954
56.840 8.662127
56.845 8.888889
56.850 9.130226
56.855 9.478765
56.860 9.50237
56.865 9.637772
56.870 9.704152
56.875 10.092433
56.880 10.246367
56.885 9.844244
56.890 9.762134
56.895 9.597741
56.900 9.52618
56.905 9.48628
56.910 9.172572
56.915 8.963932
56.920 9.107942
56.925 9.06834
56.930 9.417826
56.935 9.791991
56.940 9.836129
56.945 10.09897
56.950 10.217549
56.955 10.327672
56.960 10.638196
56.965 10.407388
56.970 10.134103
56.975 10.336671
56.980 9.990062
56.985 10.339508
56.990 10.424382
56.995 10.339102
57.000 10.279592
57.005 9.991902
57.010 10.029075
57.015 10.104117
57.020 9.600011
57.025 9.780659
57.030 9.994832
57.035 10.564768
57.040 10.883945
57.045 11.131752
57.050 11.208567
57.055 11.203614
57.060 11.290899
57.065 10.961342
57.070 10.893876
57.075 10.612473
57.080 10.496988
57.085 10.690466
57.090 10.45189
57.095 10.118304
57.100 10.145866
57.105 9.968486
57.110 9.800362
57.115 9.211745
57.120 8.976504
57.125 9.163661
57.130 9.474001
57.135 9.563237
57.140 9.687245
57.145 9.740823
57.150 9.740935
57.155 10.499867
57.160 10.852342
57.165 10.783
57.170 10.801367
57.175 10.957429
57.180 11.707184
57.185 12.074487
57.190 11.993595
57.195 12.057178
57.200 12.245519
57.205 12.417114
57.210 12.248364
57.215 12.26654
57.220 12.447881
57.225 12.352324
57.230 12.067559
57.235 12.232073
57.240 12.272444
57.245 11.865704
57.250 11.146468
57.255 10.637531
57.260 10.084427
57.265 9.939857
57.270 9.62978
57.275 9.48644
57.280 10.250062
57.285 10.756379
57.290 10.834488
57.295 10.597623
57.300 10.33112
57.305 10.653584
57.310 10.55907
57.315 10.141727
57.320 10.06051
57.325 10.142192
57.330 10.694205
57.335 11.125894
57.340 10.787331
57.345 10.54424
57.350 10.297382
57.355 10.471822
57.360 10.579003
57.365 10.523827
57.370 10.340949
57.375 10.483402
57.380 10.863245
57.385 11.267574
57.390 11.521876
57.395 11.762109
57.400 12.138664
57.405 12.365324
57.410 12.461323
57.415 12.145749
57.420 11.759604
57.425 11.251627
57.430 11.015112
57.435 10.442793
57.440 10.063549
57.445 9.953049
57.450 10.215315
57.455 10.197681
57.460 10.03836
57.465 10.075876
57.470 10.032458
57.475 10.066052
57.480 10.236736
57.485 9.985225
57.490 10.386735
57.495 11.011228
57.500 10.512435
57.505 10.504591
57.510 10.761937
57.515 10.98821
57.520 11.080588
57.525 10.74453
57.530 10.49079
57.535 10.913154
57.540 11.256908
57.545 11.087161
57.550 10.920149
57.555 10.69336
57.560 10.566397
57.565 10.311394
57.570 10.183714
57.575 10.226295
57.580 10.291161
57.585 10.372046
57.590 10.73136
57.595 10.944429
57.600 11.552786
57.605 11.831559
57.610 11.612584
57.615 11.32824
57.620 11.515856
57.625 11.418133
57.630 11.031027
57.635 10.569433
57.640 10.428934
57.645 10.728724
57.650 11.201599
57.655 11.024468
57.660 10.761868
57.665 10.903754
57.670 11.090313
57.675 11.411389
57.680 11.397865
57.685 11.196464
57.690 11.385861
57.695 11.730584
57.700 11.532792
57.705 11.472607
57.710 11.204109
57.715 10.839073
57.720 10.666437
57.725 10.735786
57.730 10.552184
57.735 10.548339
57.740 10.615308
57.745 10.554531
57.750 10.64519
57.755 10.675042
57.760 10.583864
57.765 11.513115
57.770 11.854261
57.775 12.155428
57.780 12.47727
57.785 12.694851
57.790 12.848364
57.795 12.200533
57.800 11.433105
57.805 11.322002
57.810 11.191642
57.815 10.984142
57.820 10.751769
57.825 10.812459
57.830 11.214544
57.835 11.791301
57.840 11.847466
57.845 11.465376
57.850 11.035646
57.855 11.014395
57.860 10.93716
57.865 11.188943
57.870 10.787511
57.875 10.582987
57.880 10.877053
57.885 11.362143
57.890 11.474117
57.895 11.679249
57.900 11.386813
57.905 11.201818
57.910 11.166778
57.915 11.332479
57.920 11.059799
57.925 10.734272
57.930 10.759148
57.935 10.706934
57.940 10.760197
57.945 11.000293
57.950 10.8309
57.955 10.675587
57.960 10.521672
57.965 10.688678
57.970 10.97517
57.975 11.061351
57.980 11.149194
57.985 11.317261
57.990 11.836541
57.995 11.750801
58.000 11.311756
58.005 11.149122
58.010 11.060349
58.015 11.337966
58.020 11.76354
58.025 11.493211
58.030 11.370111
58.035 11.565712
58.040 11.880415
58.045 12.114991
58.050 12.077201
58.055 11.653301
58.060 11.759634
58.065 12.106338
58.070 12.237203
58.075 11.928524
58.080 11.669136
58.085 11.223861
58.090 11.388658
58.095 11.208087
58.100 11.14921
58.105 10.579109
58.110 10.782717
58.115 11.289765
58.120 11.664
58.125 11.808199
58.130 11.639777
58.135 11.692797
58.140 12.125935
58.145 11.564162
58.150 11.129817
58.155 11.006266
58.160 11.223645
58.165 11.900608
58.170 12.250724
58.175 12.472083
58.180 12.678881
58.185 12.568739
58.190 12.555564
58.195 12.406325
58.200 12.296241
58.205 12.28255
58.210 12.299129
58.215 12.574027
58.220 12.8032
58.225 12.560223
58.230 12.405146
58.235 12.311163
58.240 12.228598
58.245 12.383327
58.250 12.882799
58.255 13.423971
58.260 13.902833
58.265 14.191276
58.270 14.070354
58.275 14.117236
58.280 13.871831
58.285 13.518041
58.290 13.053284
58.295 13.011909
58.300 12.78616
58.305 13.087819
58.310 13.184145
58.315 13.223137
58.320 13.271364
58.325 13.749131
58.330 13.810029
58.335 14.386888
58.340 14.562792
58.345 14.850273
58.350 15.330882
58.355 15.622319
58.360 15.853774
58.365 15.918836
58.370 15.809173
58.375 16.127224
58.380 15.982471
58.385 16.318083
58.390 16.194061
58.395 16.109003
58.400 16.664818
58.405 16.548622
58.410 16.402813
58.415 16.570904
58.420 16.79998
58.425 16.673647
58.430 16.472
58.435 16.52565
58.440 16.570942
58.445 16.587116
58.450 16.416609
58.455 16.329342
58.460 16.732975
58.465 17.217497
58.470 16.967165
58.475 16.903809
58.480 17.213436
58.485 17.511206
58.490 17.547829
58.495 17.778919
58.500 17.19986
58.505 17.33996
58.510 17.147068
58.515 16.69544
58.520 16.511015
58.525 16.77873
58.530 17.3211
58.535 17.714548
58.540 18.21908
58.545 18.493086
58.550 18.770988
58.555 19.11688
58.560 18.814983
58.565 18.316492
58.570 17.855595
58.575 17.473392
58.580 17.641827
58.585 17.387922
58.590 16.647839
58.595 16.666336
58.600 16.438602
58.605 16.118114
58.610 15.623267
58.615 15.491442
58.620 16.055403
