!@!!GADDS PLOTSO FILE: Chi integration type
!@!!Title/SampleName: map-14e
!@!!Comment: ?
!@!!User: Bruker Instrument Administrator
!@!!Site: University of Illinois Chicago
!@!!Frame: map-14e_01_000.gfrm
!@!!Wavelengths    1.54184   1.54056   1.54439
!@!!Frame angles: 2Theta: 63.000 Omega: 50.000 Phi: 0.000 Chi: 90.000
!@!!Integration range: 2Theta: 53.000 to 73.000  Gamma: -105.000 to -75.000
!@!!Integration method: bin normalized
!@!N
!@!SS
!@!M
!@!L 0.0 0.0 0.0 0.0
!@!XDegrees
!@!YCounts
53.000 9.290241
53.005 9.50338
53.010 9.529534
53.015 9.831809
53.020 9.804113
53.025 9.668572
53.030 9.347688
53.035 9.403813
53.040 9.334779
53.045 9.331136
53.050 8.952931
53.055 8.650696
53.060 9.006421
53.065 8.83058
53.070 8.572158
53.075 8.594839
53.080 8.565883
53.085 9.083532
53.090 9.310705
53.095 9.001846
53.100 8.932199
53.105 9.0198
53.110 8.89315
53.115 8.743418
53.120 8.425991
53.125 8.534224
53.130 8.744277
53.135 8.885313
53.140 8.869308
53.145 9.154062
53.150 8.796139
53.155 8.587224
53.160 8.063334
53.165 8.326604
53.170 8.087677
53.175 7.650002
53.180 7.904707
53.185 8.223288
53.190 8.328371
53.195 8.386254
53.200 8.2922
53.205 8.549721
53.210 8.845346
53.215 8.701989
53.220 8.527345
53.225 8.720359
53.230 8.527767
53.235 8.446887
53.240 8.26342
53.245 7.987112
53.250 8.117165
53.255 8.298101
53.260 8.048125
53.265 7.687982
53.270 7.79129
53.275 7.885762
53.280 8.003236
53.285 7.799882
53.290 7.624261
53.295 8.187428
53.300 8.661172
53.305 8.75361
53.310 8.729306
53.315 8.739761
53.320 8.901523
53.325 9.216882
53.330 9.600392
53.335 9.25423
53.340 9.579911
53.345 10.334572
53.350 10.616447
53.355 10.653446
53.360 10.056527
53.365 9.378676
53.370 9.221025
53.375 8.595075
53.380 8.014349
53.385 7.839835
53.390 8.078489
53.395 8.138266
53.400 8.465418
53.405 8.776352
53.410 8.74203
53.415 8.768798
53.420 8.777551
53.425 8.900869
53.430 8.878668
53.435 8.713956
53.440 8.577024
53.445 8.452431
53.450 8.51965
53.455 8.562964
53.460 8.43332
53.465 8.822928
53.470 8.844754
53.475 9.047132
53.480 9.399152
53.485 9.860924
53.490 9.852381
53.495 9.492208
53.500 9.145135
53.505 9.317554
53.510 9.517927
53.515 9.143968
53.520 8.193971
53.525 7.794477
53.530 8.077744
53.535 7.683141
53.540 7.557572
53.545 7.303608
53.550 7.523101
53.555 7.882952
53.560 8.224499
53.565 8.21117
53.570 8.455894
53.575 8.435502
53.580 8.344567
53.585 8.11305
53.590 8.098098
53.595 7.885598
53.600 8.217729
53.605 8.428981
53.610 8.357625
53.615 8.652517
53.620 9.003473
53.625 9.321628
53.630 9.244834
53.635 9.341147
53.640 9.073705
53.645 9.035526
53.650 9.176974
53.655 9.192803
53.660 9.557972
53.665 9.620529
53.670 9.936529
53.675 9.971479
53.680 10.103398
53.685 9.717861
53.690 9.439187
53.695 9.344955
53.700 9.260538
53.705 9.29349
53.710 9.764172
53.715 9.636932
53.720 9.841515
53.725 9.772612
53.730 9.842348
53.735 9.680572
53.740 9.058087
53.745 8.769555
53.750 8.914854
53.755 8.873055
53.760 9.024878
53.765 8.817734
53.770 8.941936
53.775 8.971612
53.780 8.875676
53.785 8.87136
53.790 8.97415
53.795 9.141722
53.800 9.175852
53.805 8.952883
53.810 8.95076
53.815 9.091122
53.820 9.007524
53.825 8.695866
53.830 8.595834
53.835 8.429046
53.840 8.509539
53.845 8.89365
53.850 9.0927
53.855 8.96051
53.860 8.741658
53.865 8.48579
53.870 8.679433
53.875 8.471416
53.880 8.200732
53.885 7.85408
53.890 8.023953
53.895 8.076607
53.900 8.452265
53.905 8.774631
53.910 8.863653
53.915 8.901732
53.920 9.000355
53.925 9.054882
53.930 8.637572
53.935 8.199431
53.940 8.511414
53.945 8.460031
53.950 7.768801
53.955 7.679416
53.960 7.741351
53.965 8.022244
53.970 7.739404
53.975 7.549404
53.980 8.050495
53.985 8.482642
53.990 8.812802
53.995 9.059406
54.000 9.171382
54.005 9.123956
54.010 8.85535
54.015 8.92471
54.020 9.026883
54.025 9.010465
54.030 8.861065
54.035 8.676873
54.040 8.623897
54.045 8.402831
54.050 8.18055
54.055 8.279587
54.060 8.458936
54.065 8.559935
54.070 8.515047
54.075 8.905618
54.080 8.945624
54.085 8.976881
54.090 8.539248
54.095 8.49297
54.100 8.781133
54.105 8.50858
54.110 8.380755
54.115 8.008895
54.120 8.437122
54.125 8.50637
54.130 8.386436
54.135 8.778045
54.140 9.362177
54.145 9.507386
54.150 9.787679
54.155 9.575915
54.160 9.771708
54.165 10.144699
54.170 10.114835
54.175 10.171907
54.180 10.177655
54.185 9.816059
54.190 9.951988
54.195 9.584097
54.200 9.151849
54.205 8.847433
54.210 8.975413
54.215 9.191976
54.220 9.265465
54.225 9.417658
54.230 9.342331
54.235 9.439561
54.240 9.245625
54.245 8.833913
54.250 8.718274
54.255 8.774675
54.260 8.618335
54.265 8.709988
54.270 8.893339
54.275 8.967752
54.280 8.988464
54.285 8.861718
54.290 8.601301
54.295 8.367151
54.300 8.319968
54.305 8.533745
54.310 8.813414
54.315 8.866761
54.320 8.755727
54.325 8.860526
54.330 9.12656
54.335 8.679652
54.340 8.34234
54.345 8.172293
54.350 8.217353
54.355 8.483624
54.360 8.485391
54.365 8.373714
54.370 8.470423
54.375 8.936252
54.380 8.965016
54.385 8.918566
54.390 8.494966
54.395 8.73898
54.400 8.733855
54.405 8.71709
54.410 8.690687
54.415 8.988933
54.420 9.375471
54.425 9.69353
54.430 9.590691
54.435 9.768009
54.440 9.907868
54.445 9.864483
54.450 9.854401
54.455 9.88486
54.460 9.892623
54.465 9.920376
54.470 9.812665
54.475 9.142314
54.480 8.845337
54.485 8.632577
54.490 8.531081
54.495 8.418917
54.500 8.625323
54.505 8.431528
54.510 8.612668
54.515 8.718135
54.520 8.775419
54.525 9.264054
54.530 9.115548
54.535 9.029684
54.540 9.106036
54.545 9.37148
54.550 9.331885
54.555 9.396161
54.560 8.986856
54.565 9.048266
54.570 9.020551
54.575 8.804034
54.580 8.605037
54.585 8.480781
54.590 8.067769
54.595 7.885002
54.600 7.714196
54.605 7.576616
54.610 7.235929
54.615 6.878359
54.620 6.916966
54.625 6.776781
54.630 7.187754
54.635 7.749753
54.640 8.462053
54.645 9.388746
54.650 9.845265
54.655 10.034476
54.660 10.342884
54.665 10.22013
54.670 9.92449
54.675 9.73023
54.680 9.312624
54.685 9.066942
54.690 9.137081
54.695 8.784148
54.700 8.379497
54.705 8.372416
54.710 8.605525
54.715 8.665489
54.720 8.870732
54.725 9.191151
54.730 9.746002
54.735 10.132053
54.740 10.016796
54.745 10.030617
54.750 10.078084
54.755 9.959767
54.760 9.430723
54.765 9.229921
54.770 9.051565
54.775 8.947489
54.780 8.928252
54.785 9.142304
54.790 8.780785
54.795 9.16856
54.800 9.167757
54.805 9.488584
54.810 9.523774
54.815 9.388412
54.820 9.57151
54.825 9.952375
54.830 9.875175
54.835 9.762755
54.840 9.691183
54.845 9.382403
54.850 9.07467
54.855 8.678364
54.860 8.700394
54.865 8.856906
54.870 9.278104
54.875 9.120095
54.880 9.141995
54.885 9.248856
54.890 9.129394
54.895 9.060917
54.900 8.922622
54.905 8.786152
54.910 9.122922
54.915 9.536784
54.920 9.546927
54.925 9.95821
54.930 9.666371
54.935 9.755895
54.940 9.876762
54.945 9.71543
54.950 9.666429
54.955 9.846425
54.960 9.743856
54.965 9.77098
54.970 9.415315
54.975 9.179724
54.980 9.101955
54.985 8.871255
54.990 8.85414
54.995 9.114554
55.000 9.25556
55.005 9.050061
55.010 8.987947
55.015 8.975973
55.020 8.724835
55.025 8.997471
55.030 9.11834
55.035 9.237663
55.040 9.026525
55.045 9.247531
55.050 9.674149
55.055 10.064886
55.060 10.011295
55.065 9.777549
55.070 9.941765
55.075 10.326156
55.080 10.320453
55.085 9.899814
55.090 9.518656
55.095 9.289268
55.100 9.217512
55.105 9.192703
55.110 9.132238
55.115 8.933689
55.120 9.15788
55.125 9.526978
55.130 9.47533
55.135 9.445307
55.140 9.285578
55.145 9.577695
55.150 9.503176
55.155 9.422675
55.160 9.32626
55.165 8.979594
55.170 9.125175
55.175 9.274704
55.180 9.286505
55.185 9.738604
55.190 9.924029
55.195 10.393806
55.200 10.541228
55.205 10.349524
55.210 10.344307
55.215 10.516661
55.220 10.032073
55.225 9.602437
55.230 9.307073
55.235 9.266101
55.240 9.560376
55.245 9.727268
55.250 9.197064
55.255 9.190227
55.260 8.607376
55.265 8.496498
55.270 8.813369
55.275 8.494603
55.280 8.512934
55.285 9.050049
55.290 9.06075
55.295 9.033891
55.300 9.059766
55.305 9.079972
55.310 8.815673
55.315 8.208917
55.320 8.130013
55.325 8.627736
55.330 9.014198
55.335 9.036321
55.340 9.02227
55.345 8.957945
55.350 8.973574
55.355 9.072504
55.360 8.896762
55.365 9.035852
55.370 8.753169
55.375 8.452349
55.380 8.610332
55.385 8.368059
55.390 8.164821
55.395 8.194091
55.400 8.366546
55.405 8.709815
55.410 9.041631
55.415 9.203842
55.420 10.110718
55.425 10.343412
55.430 10.281988
55.435 10.051558
55.440 10.048175
55.445 10.562936
55.450 11.089839
55.455 10.568085
55.460 9.631867
55.465 9.530578
55.470 9.823708
55.475 10.239994
55.480 9.801626
55.485 9.17926
55.490 9.239621
55.495 9.890096
55.500 9.778578
55.505 9.194289
55.510 8.629566
55.515 8.721566
55.520 9.267635
55.525 9.206062
55.530 9.666031
55.535 10.144761
55.540 10.267757
55.545 10.390581
55.550 10.322277
55.555 10.134838
55.560 10.049668
55.565 9.239397
55.570 9.036203
55.575 8.933608
55.580 8.835979
55.585 8.935094
55.590 9.005607
55.595 9.319944
55.600 9.550031
55.605 9.602634
55.610 9.546042
55.615 9.104484
55.620 9.034285
55.625 9.243488
55.630 9.205233
55.635 9.1578
55.640 9.341397
55.645 9.461213
55.650 9.974031
55.655 9.750927
55.660 9.506975
55.665 9.526535
55.670 9.52355
55.675 9.461432
55.680 9.452875
55.685 9.403799
55.690 9.618667
55.695 9.645067
55.700 9.390302
55.705 9.664586
55.710 9.483988
55.715 9.289942
55.720 9.158739
55.725 8.622415
55.730 8.654683
55.735 8.86979
55.740 8.602062
55.745 8.922408
55.750 9.186444
55.755 8.932014
55.760 8.89823
55.765 8.96461
55.770 9.496103
55.775 9.938528
55.780 9.426092
55.785 9.336053
55.790 9.66996
55.795 9.701302
55.800 9.51788
55.805 9.072423
55.810 8.587088
55.815 8.514925
55.820 8.513055
55.825 8.830127
55.830 8.896981
55.835 8.776716
55.840 8.6297
55.845 9.340852
55.850 9.866041
55.855 9.851325
55.860 9.673309
55.865 10.104406
55.870 9.680008
55.875 9.675161
55.880 9.655262
55.885 9.872502
55.890 9.830297
55.895 9.6387
55.900 9.606668
55.905 10.076695
55.910 9.747432
55.915 8.943152
55.920 8.67018
55.925 8.932771
55.930 8.594944
55.935 8.641621
55.940 8.930054
55.945 9.228344
55.950 9.774157
55.955 10.100405
55.960 10.041687
55.965 10.508775
55.970 10.107755
55.975 9.742569
55.980 10.025018
55.985 9.680484
55.990 9.402719
55.995 9.586325
56.000 9.77388
56.005 9.986778
56.010 10.439568
56.015 10.099826
56.020 10.154929
56.025 10.129124
56.030 10.012645
56.035 9.991732
56.040 9.985855
56.045 10.001962
56.050 10.3984
56.055 10.018691
56.060 9.513091
56.065 9.189372
56.070 8.986813
56.075 8.492231
56.080 8.593285
56.085 8.334288
56.090 8.483629
56.095 9.000033
56.100 9.178086
56.105 9.229239
56.110 9.184026
56.115 8.833321
56.120 9.356558
56.125 9.761595
56.130 9.701084
56.135 9.712921
56.140 9.686959
56.145 9.516375
56.150 9.353495
56.155 8.956717
56.160 8.946397
56.165 8.937619
56.170 9.433423
56.175 9.794761
56.180 10.20206
56.185 10.198442
56.190 10.85834
56.195 10.298329
56.200 9.963328
56.205 9.958041
56.210 9.881104
56.215 9.735782
56.220 9.8279
56.225 9.453085
56.230 10.074749
56.235 10.320559
56.240 10.179172
56.245 10.538454
56.250 10.4259
56.255 10.235937
56.260 10.035157
56.265 9.856521
56.270 9.553021
56.275 9.303527
56.280 9.1554
56.285 9.653243
56.290 9.604341
56.295 9.449471
56.300 9.268093
56.305 9.584818
56.310 9.367464
56.315 9.129025
56.320 8.797513
56.325 9.154015
56.330 9.3381
56.335 9.784144
56.340 9.435483
56.345 9.403501
56.350 9.240171
56.355 9.383021
56.360 9.387317
56.365 9.371755
56.370 9.21266
56.375 9.577882
56.380 9.759496
56.385 9.872705
56.390 9.527646
56.395 9.373661
56.400 9.739557
56.405 9.74125
56.410 9.758801
56.415 9.358394
56.420 9.531031
56.425 10.095016
56.430 10.244965
56.435 9.579771
56.440 9.435246
56.445 9.546601
56.450 9.813725
56.455 9.508569
56.460 9.175006
56.465 8.851515
56.470 8.960122
56.475 9.022403
56.480 8.917871
56.485 8.907402
56.490 9.317459
56.495 9.676978
56.500 9.914959
56.505 10.164872
56.510 10.443617
56.515 10.415471
56.520 10.483878
56.525 10.031706
56.530 9.811982
56.535 9.95031
56.540 9.865735
56.545 9.663605
56.550 10.004681
56.555 10.215356
56.560 10.275395
56.565 10.535707
56.570 10.559144
56.575 10.575856
56.580 10.72573
56.585 10.628675
56.590 10.466215
56.595 10.089014
56.600 9.803851
56.605 9.653257
56.610 10.088567
56.615 10.377126
56.620 10.593881
56.625 11.007998
56.630 11.543653
56.635 11.928102
56.640 11.730989
56.645 11.174257
56.650 10.863581
56.655 10.510079
56.660 10.387641
56.665 9.975718
56.670 9.487336
56.675 9.874645
56.680 10.03385
56.685 9.77459
56.690 9.722381
56.695 9.501939
56.700 9.996531
56.705 10.17233
56.710 10.064415
56.715 9.955034
56.720 10.115687
56.725 10.032649
56.730 9.916654
56.735 10.025386
56.740 10.034479
56.745 9.97206
56.750 10.019923
56.755 10.089408
56.760 10.263247
56.765 10.403091
56.770 10.271001
56.775 10.214387
56.780 10.213416
56.785 10.394648
56.790 10.235694
56.795 9.975386
56.800 9.831052
56.805 9.712778
56.810 9.763579
56.815 9.370568
56.820 8.976284
56.825 9.633827
56.830 9.44665
56.835 9.218383
56.840 9.370621
56.845 9.424687
56.850 9.359204
56.855 9.713384
56.860 9.707277
56.865 10.420392
56.870 10.352776
56.875 9.548098
56.880 9.153507
56.885 9.482038
56.890 9.351383
56.895 9.317129
56.900 9.137904
56.905 9.475193
56.910 9.821566
56.915 10.020097
56.920 9.948558
56.925 9.641171
56.930 9.252449
56.935 9.238592
56.940 8.871202
56.945 8.807275
56.950 8.641911
56.955 8.591129
56.960 8.464494
56.965 8.456049
56.970 8.452352
56.975 8.802981
56.980 9.193134
56.985 9.388914
56.990 9.71192
56.995 9.98474
57.000 9.976665
57.005 10.427078
57.010 10.651467
57.015 10.803673
57.020 10.545976
57.025 10.345512
57.030 10.197944
57.035 10.125742
57.040 10.115482
57.045 9.874329
57.050 9.632368
57.055 9.681033
57.060 9.68894
57.065 9.703542
57.070 9.746019
57.075 9.856337
57.080 9.765494
57.085 9.402498
57.090 9.746297
57.095 9.57628
57.100 9.496685
57.105 9.144359
57.110 8.887705
57.115 8.767139
57.120 8.895667
57.125 8.578134
57.130 8.973589
57.135 9.587085
57.140 9.561595
57.145 9.54515
57.150 10.021887
57.155 10.133759
57.160 10.329669
57.165 10.121252
57.170 9.674251
57.175 9.460063
57.180 9.26832
57.185 9.244653
57.190 9.261775
57.195 8.790398
57.200 9.10917
57.205 9.876655
57.210 11.128491
57.215 11.526678
57.220 11.334589
57.225 11.469931
57.230 11.64986
57.235 11.198606
57.240 10.469837
57.245 9.141277
57.250 8.787589
57.255 8.54069
57.260 8.758709
57.265 8.863367
57.270 8.911821
57.275 9.495127
57.280 10.323004
57.285 10.284807
57.290 10.317669
57.295 10.257638
57.300 10.400408
57.305 10.475368
57.310 10.316856
57.315 10.156163
57.320 10.487063
57.325 10.868525
57.330 10.601219
57.335 10.596733
57.340 10.842542
57.345 10.517859
57.350 10.671887
57.355 10.529492
57.360 10.60116
57.365 10.80095
57.370 10.70004
57.375 10.769244
57.380 10.676321
57.385 9.855165
57.390 9.499253
57.395 9.170172
57.400 8.775888
57.405 8.37906
57.410 7.837107
57.415 7.665873
57.420 7.940409
57.425 8.11619
57.430 8.475189
57.435 8.914906
57.440 9.279552
57.445 9.334949
57.450 9.648845
57.455 10.295371
57.460 10.771423
57.465 10.550569
57.470 10.746138
57.475 10.979373
57.480 11.776285
57.485 11.959088
57.490 12.008089
57.495 11.790865
57.500 11.678171
57.505 11.507735
57.510 11.327394
57.515 11.21258
57.520 11.233332
57.525 10.670929
57.530 10.717529
57.535 10.561972
57.540 10.08798
57.545 9.513916
57.550 9.408791
57.555 9.254248
57.560 9.160541
57.565 8.999669
57.570 8.902563
57.575 9.193314
57.580 9.297938
57.585 8.695945
57.590 8.880123
57.595 9.170967
57.600 8.852811
57.605 8.899084
57.610 8.896485
57.615 9.090793
57.620 9.724851
57.625 10.104542
57.630 10.30896
57.635 10.732456
57.640 11.120776
57.645 11.094927
57.650 11.360804
57.655 10.898214
57.660 10.723653
57.665 10.392931
57.670 10.268227
57.675 10.220984
57.680 10.073535
57.685 9.743065
57.690 9.552483
57.695 9.201465
57.700 9.155383
57.705 9.326536
57.710 9.373315
57.715 9.587353
57.720 10.144437
57.725 10.739103
57.730 10.63011
57.735 10.739049
57.740 10.622453
57.745 10.32922
57.750 10.349321
57.755 9.899122
57.760 10.082707
57.765 10.233615
57.770 10.014707
57.775 9.933433
57.780 10.13159
57.785 10.31375
57.790 10.151188
57.795 9.726609
57.800 9.551064
57.805 9.740321
57.810 9.93165
57.815 9.898244
57.820 10.039175
57.825 10.047184
57.830 10.269999
57.835 10.334273
57.840 10.664355
57.845 10.524302
57.850 10.467555
57.855 10.116188
57.860 9.96524
57.865 9.962223
57.870 10.227079
57.875 10.051757
57.880 9.898741
57.885 9.959487
57.890 10.156543
57.895 10.393853
57.900 10.403135
57.905 10.219492
57.910 9.883098
57.915 9.672495
57.920 9.746355
57.925 9.351433
57.930 8.951977
57.935 8.632497
57.940 8.367883
57.945 8.397252
57.950 8.624583
57.955 8.652267
57.960 8.687787
57.965 9.250081
57.970 9.716275
57.975 10.257834
57.980 11.140084
57.985 11.263184
57.990 11.262182
57.995 11.641797
58.000 11.328128
58.005 11.002003
58.010 10.925479
58.015 10.635739
58.020 10.639722
58.025 10.601522
58.030 10.472939
58.035 10.903
58.040 11.395687
58.045 11.24964
58.050 10.903771
58.055 10.964096
58.060 10.994051
58.065 10.882518
58.070 10.486603
58.075 9.999159
58.080 10.026926
58.085 9.861709
58.090 9.902355
58.095 9.70977
58.100 9.478458
58.105 9.545088
58.110 9.572112
58.115 9.571949
58.120 9.696318
58.125 9.374784
58.130 9.433202
58.135 9.503415
58.140 9.277368
58.145 9.382698
58.150 9.442502
58.155 9.362396
58.160 9.248149
58.165 9.399136
58.170 9.617372
58.175 9.783357
58.180 9.804316
58.185 9.745573
58.190 9.600618
58.195 10.119938
58.200 10.597215
58.205 10.44313
58.210 10.210909
58.215 10.033852
58.220 10.100245
58.225 10.454313
58.230 10.092474
58.235 9.625014
58.240 9.522941
58.245 10.167196
58.250 10.435386
58.255 10.512341
58.260 10.792916
58.265 10.882361
58.270 11.034507
58.275 10.972665
58.280 10.922818
58.285 11.325832
58.290 11.169519
58.295 10.945317
58.300 11.073385
58.305 11.390683
58.310 11.241722
58.315 10.58987
58.320 10.419999
58.325 10.955973
58.330 10.884213
58.335 10.742182
58.340 10.74951
58.345 11.232045
58.350 11.127968
58.355 10.912144
58.360 10.703222
58.365 10.553235
58.370 10.50366
58.375 10.153852
58.380 10.131369
58.385 10.268294
58.390 10.5639
58.395 10.78199
58.400 10.877172
58.405 10.786816
58.410 11.448215
58.415 11.868567
58.420 12.400284
58.425 11.909174
58.430 11.942549
58.435 12.162514
58.440 12.392964
58.445 12.380507
58.450 11.934126
58.455 11.815019
58.460 11.84547
58.465 11.7232
58.470 11.615657
58.475 10.815204
58.480 11.136471
58.485 11.268813
58.490 10.902717
58.495 11.019696
58.500 11.257324
58.505 11.623254
58.510 12.18599
58.515 11.630931
58.520 11.426764
58.525 11.9884
58.530 12.357228
58.535 11.847974
58.540 11.684802
58.545 11.510099
58.550 11.581476
58.555 11.994106
58.560 11.783933
58.565 11.474432
58.570 11.733751
58.575 11.697563
58.580 11.836427
58.585 11.544759
58.590 11.246052
58.595 11.227181
58.600 10.890005
58.605 10.767947
58.610 11.057379
58.615 10.965255
58.620 11.590298
58.625 11.59719
58.630 12.26195
58.635 12.517651
58.640 12.199395
58.645 11.527671
58.650 11.575177
58.655 11.718605
58.660 12.131562
58.665 11.753942
58.670 11.593408
