!@!!GADDS PLOTSO FILE: Chi integration type
!@!!Title/SampleName: map-c7
!@!!Comment: ?
!@!!User: Bruker Instrument Administrator
!@!!Site: University of Illinois Chicago
!@!!Frame: map-c7_01_000.gfrm
!@!!Wavelengths    1.54184   1.54056   1.54439
!@!!Frame angles: 2Theta: 63.000 Omega: 50.000 Phi: 0.000 Chi: 90.000
!@!!Integration range: 2Theta: 53.000 to 73.000  Gamma: -105.000 to -75.000
!@!!Integration method: bin normalized
!@!N
!@!SS
!@!M
!@!L 0.0 0.0 0.0 0.0
!@!XDegrees
!@!YCounts
53.000 6.587574
53.005 6.463053
53.010 6.57078
53.015 6.352978
53.020 6.266792
53.025 6.756524
53.030 6.847883
53.035 6.778952
53.040 6.684479
53.045 6.351404
53.050 6.28551
53.055 6.59026
53.060 6.533308
53.065 6.806701
53.070 6.809439
53.075 7.21341
53.080 7.261734
53.085 7.033383
53.090 6.909619
53.095 6.862381
53.100 7.220672
53.105 7.527045
53.110 7.633627
53.115 7.953859
53.120 7.803691
53.125 7.562396
53.130 7.407053
53.135 6.786691
53.140 6.469346
53.145 5.751373
53.150 5.528034
53.155 5.777822
53.160 6.165808
53.165 6.283686
53.170 6.31254
53.175 6.639529
53.180 7.03217
53.185 7.441906
53.190 8.025778
53.195 8.119135
53.200 8.278578
53.205 8.091284
53.210 8.160889
53.215 7.845904
53.220 7.40032
53.225 6.868644
53.230 6.803795
53.235 6.631559
53.240 6.818261
53.245 6.823449
53.250 7.159906
53.255 7.401882
53.260 7.357363
53.265 7.504939
53.270 7.794914
53.275 8.200569
53.280 8.513329
53.285 8.032745
53.290 7.689442
53.295 7.593071
53.300 7.227091
53.305 6.87569
53.310 6.474741
53.315 6.309831
53.320 6.42579
53.325 6.319385
53.330 6.325949
53.335 6.186624
53.340 6.168591
53.345 6.343337
53.350 6.755294
53.355 6.86906
53.360 6.921561
53.365 6.839545
53.370 6.881794
53.375 7.070642
53.380 6.762537
53.385 6.565127
53.390 6.632304
53.395 6.954803
53.400 7.548525
53.405 7.810997
53.410 7.495894
53.415 7.53652
53.420 7.145945
53.425 6.873396
53.430 6.492091
53.435 6.287307
53.440 6.363584
53.445 6.674053
53.450 6.887462
53.455 7.005568
53.460 7.112087
53.465 7.23339
53.470 7.208889
53.475 7.145528
53.480 7.104459
53.485 7.339677
53.490 7.590883
53.495 7.534752
53.500 7.339047
53.505 7.254129
53.510 7.19045
53.515 7.528811
53.520 7.474779
53.525 7.554107
53.530 7.679015
53.535 7.435822
53.540 7.354624
53.545 7.157089
53.550 6.879065
53.555 6.844096
53.560 6.619654
53.565 6.88378
53.570 7.362236
53.575 7.534376
53.580 7.804126
53.585 7.965658
53.590 7.926746
53.595 8.157468
53.600 7.799053
53.605 7.782931
53.610 7.742117
53.615 7.375682
53.620 7.193662
53.625 7.378807
53.630 7.384923
53.635 7.669822
53.640 7.672735
53.645 7.374434
53.650 7.427174
53.655 7.596655
53.660 7.787621
53.665 8.096561
53.670 7.748356
53.675 7.300852
53.680 7.527592
53.685 7.681186
53.690 7.362002
53.695 7.176092
53.700 6.976748
53.705 7.218582
53.710 7.45155
53.715 6.965889
53.720 7.036454
53.725 7.460378
53.730 7.319748
53.735 6.986157
53.740 7.301639
53.745 7.602079
53.750 7.893682
53.755 8.085848
53.760 7.715613
53.765 7.89476
53.770 8.025314
53.775 7.542847
53.780 7.271066
53.785 7.206276
53.790 6.934093
53.795 7.077387
53.800 7.575983
53.805 7.668089
53.810 7.885698
53.815 7.677662
53.820 7.581308
53.825 7.442997
53.830 7.093013
53.835 6.788478
53.840 6.586616
53.845 6.726377
53.850 6.579252
53.855 6.400439
53.860 6.562381
53.865 6.405507
53.870 6.280332
53.875 6.376947
53.880 6.336242
53.885 6.797275
53.890 7.131133
53.895 7.34854
53.900 7.51068
53.905 7.442633
53.910 7.89805
53.915 8.02331
53.920 7.941591
53.925 7.904754
53.930 7.855938
53.935 7.891978
53.940 8.136797
53.945 7.936307
53.950 7.821851
53.955 7.704468
53.960 7.708671
53.965 8.090979
53.970 8.083694
53.975 8.00868
53.980 8.083752
53.985 8.129366
53.990 8.076447
53.995 7.659658
54.000 7.243822
54.005 7.348154
54.010 7.407785
54.015 7.736403
54.020 8.003351
54.025 8.166911
54.030 8.995243
54.035 9.738974
54.040 10.181854
54.045 9.788985
54.050 9.533188
54.055 9.286347
54.060 8.915417
54.065 7.978683
54.070 7.186868
54.075 6.862754
54.080 7.020621
54.085 7.264189
54.090 7.364395
54.095 7.490819
54.100 7.867228
54.105 7.784247
54.110 7.952408
54.115 8.081599
54.120 7.990564
54.125 8.018939
54.130 8.063564
54.135 8.457438
54.140 8.493545
54.145 8.133492
54.150 7.743273
54.155 7.649388
54.160 7.896501
54.165 7.949452
54.170 7.763273
54.175 8.109329
54.180 8.51547
54.185 8.599171
54.190 8.369212
54.195 8.327261
54.200 8.492818
54.205 8.341796
54.210 7.882961
54.215 7.521543
54.220 7.530933
54.225 7.855487
54.230 7.842413
54.235 7.988326
54.240 8.388475
54.245 8.875844
54.250 8.888227
54.255 8.989611
54.260 8.725047
54.265 8.37824
54.270 8.34373
54.275 7.815483
54.280 7.510499
54.285 7.4243
54.290 7.42804
54.295 7.768509
54.300 8.034749
54.305 7.888658
54.310 8.126654
54.315 8.463079
54.320 8.846771
54.325 9.053855
54.330 9.084905
54.335 9.029056
54.340 9.132353
54.345 9.176017
54.350 9.143277
54.355 8.973108
54.360 8.621571
54.365 8.525971
54.370 8.161388
54.375 8.065041
54.380 8.149729
54.385 8.249483
54.390 8.115153
54.395 8.001247
54.400 7.980959
54.405 8.040651
54.410 8.056137
54.415 7.862388
54.420 7.45127
54.425 7.792917
54.430 8.009035
54.435 8.279955
54.440 8.530076
54.445 8.37532
54.450 8.124821
54.455 8.332563
54.460 8.159912
54.465 7.822846
54.470 7.807321
54.475 7.714582
54.480 8.453573
54.485 8.709981
54.490 8.57421
54.495 8.455942
54.500 8.339134
54.505 7.689143
54.510 7.238939
54.515 6.873121
54.520 7.042806
54.525 6.865842
54.530 6.882975
54.535 7.224336
54.540 7.791207
54.545 8.061337
54.550 7.989195
54.555 7.738934
54.560 8.062519
54.565 8.339751
54.570 8.165718
54.575 8.13314
54.580 8.524417
54.585 8.933988
54.590 9.356406
54.595 9.098285
54.600 8.715908
54.605 8.852963
54.610 8.621394
54.615 8.02615
54.620 7.547968
54.625 7.221946
54.630 7.411695
54.635 7.531609
54.640 7.701336
54.645 7.998907
54.650 8.359324
54.655 8.517826
54.660 8.810531
54.665 8.898729
54.670 8.995997
54.675 8.800856
54.680 8.765422
54.685 8.641153
54.690 8.691986
54.695 8.613485
54.700 8.644782
54.705 8.699242
54.710 8.464945
54.715 8.294718
54.720 8.108818
54.725 7.874438
54.730 7.763793
54.735 7.29582
54.740 7.61349
54.745 7.381933
54.750 7.49352
54.755 7.676601
54.760 8.202516
54.765 8.740877
54.770 8.737086
54.775 8.359383
54.780 8.573103
54.785 8.615767
54.790 8.751369
54.795 8.845364
54.800 8.95419
54.805 9.303974
54.810 9.40134
54.815 9.532654
54.820 9.338163
54.825 9.265677
54.830 8.698997
54.835 8.523135
54.840 8.500649
54.845 8.535048
54.850 8.414201
54.855 8.598424
54.860 8.443024
54.865 8.482131
54.870 8.361913
54.875 8.440096
54.880 9.259521
54.885 9.24405
54.890 9.188878
54.895 9.010193
54.900 9.039194
54.905 9.028523
54.910 8.817722
54.915 8.153419
54.920 8.27389
54.925 8.173865
54.930 8.288738
54.935 8.480806
54.940 8.92514
54.945 9.687738
54.950 9.981977
54.955 10.03293
54.960 10.212052
54.965 10.245406
54.970 10.193671
54.975 10.094359
54.980 9.502028
54.985 9.219154
54.990 9.399057
54.995 9.383913
55.000 9.141038
55.005 9.405803
55.010 9.0107
55.015 8.952413
55.020 8.86478
55.025 8.885882
55.030 8.944431
55.035 8.77459
55.040 8.111281
55.045 8.026255
55.050 8.483467
55.055 9.204178
55.060 9.105408
55.065 8.993449
55.070 8.988962
55.075 9.323848
55.080 9.473594
55.085 9.413085
55.090 8.883061
55.095 8.630174
55.100 8.785434
55.105 8.787283
55.110 8.76591
55.115 8.766866
55.120 8.306326
55.125 8.746191
55.130 8.854975
55.135 9.258451
55.140 9.445385
55.145 9.656879
55.150 9.660007
55.155 9.343398
55.160 8.727522
55.165 8.81002
55.170 8.823112
55.175 8.693427
55.180 8.894309
55.185 8.613251
55.190 8.923843
55.195 9.729296
55.200 9.820278
55.205 9.745406
55.210 10.066695
55.215 10.056933
55.220 10.247769
55.225 10.398507
55.230 9.754441
55.235 9.491671
55.240 9.468863
55.245 9.562726
55.250 9.228626
55.255 8.910515
55.260 8.724185
55.265 8.775661
55.270 8.802706
55.275 8.204969
55.280 7.529838
55.285 7.389819
55.290 7.639764
55.295 7.873951
55.300 8.072782
55.305 8.264999
55.310 8.480707
55.315 8.760696
55.320 9.287143
55.325 9.173217
55.330 8.955224
55.335 8.637817
55.340 8.675039
55.345 9.077215
55.350 9.317799
55.355 9.359298
55.360 9.529641
55.365 9.697248
55.370 9.702836
55.375 9.984203
55.380 10.485876
55.385 10.494946
55.390 11.003997
55.395 11.183771
55.400 11.278028
55.405 11.206369
55.410 10.718387
55.415 10.385056
55.420 10.077122
55.425 9.459214
55.430 9.468138
55.435 9.723869
55.440 9.576468
55.445 9.604409
55.450 9.579252
55.455 9.885098
55.460 9.994676
55.465 9.798069
55.470 10.255624
55.475 10.431828
55.480 10.230931
55.485 10.329834
55.490 10.413249
55.495 10.346892
55.500 9.829081
55.505 9.533305
55.510 9.770329
55.515 9.975958
55.520 9.909863
55.525 9.571406
55.530 9.67866
55.535 10.076714
55.540 9.943618
55.545 9.875938
55.550 10.068964
55.555 9.838326
55.560 9.994823
55.565 10.240073
55.570 9.935376
55.575 10.078293
55.580 9.831389
55.585 9.696548
55.590 10.016198
55.595 9.945234
55.600 9.975914
55.605 9.777616
55.610 9.341892
55.615 9.064963
55.620 8.790372
55.625 8.790067
55.630 8.576491
55.635 8.250262
55.640 8.582513
55.645 8.885945
55.650 8.877323
55.655 9.046932
55.660 9.003721
55.665 9.041807
55.670 8.912821
55.675 8.605337
55.680 8.883767
55.685 8.864336
55.690 8.893315
55.695 8.823484
55.700 9.029395
55.705 9.368197
55.710 9.57473
55.715 9.964951
55.720 10.110249
55.725 10.308022
55.730 10.192967
55.735 10.024446
55.740 9.940568
55.745 9.885061
55.750 9.595648
55.755 9.780453
55.760 9.553024
55.765 10.237377
55.770 10.487098
55.775 10.502213
55.780 10.745003
55.785 10.819558
55.790 10.353191
55.795 10.222223
55.800 9.78336
55.805 9.413805
55.810 9.310548
55.815 9.068349
55.820 9.346039
55.825 9.83505
55.830 9.646698
55.835 9.975179
55.840 10.302211
55.845 10.587549
55.850 9.926545
55.855 9.140788
55.860 8.874748
55.865 8.928825
55.870 8.52317
55.875 8.65999
55.880 8.591059
55.885 9.280636
55.890 9.837749
55.895 9.963014
55.900 10.083241
55.905 10.045941
55.910 10.218803
55.915 10.165723
55.920 10.499443
55.925 10.302839
55.930 10.123286
55.935 10.314252
55.940 10.773135
55.945 10.817765
55.950 10.964646
55.955 10.664571
55.960 10.56819
55.965 10.583195
55.970 10.210716
55.975 10.189215
55.980 9.904522
55.985 9.665997
55.990 9.580997
55.995 9.993496
56.000 10.206895
56.005 10.312458
56.010 9.943165
56.015 10.012634
56.020 10.17518
56.025 10.231814
56.030 10.204282
56.035 10.358792
56.040 10.528661
56.045 10.730145
56.050 10.500669
56.055 10.362699
56.060 10.220116
56.065 10.488368
56.070 10.283675
56.075 10.415718
56.080 10.400134
56.085 11.090154
56.090 11.167233
56.095 10.614458
56.100 10.422709
56.105 10.684161
56.110 10.629858
56.115 10.313228
56.120 9.910346
56.125 9.813864
56.130 10.287328
56.135 10.358623
56.140 10.154929
56.145 10.06326
56.150 9.874375
56.155 9.825587
56.160 10.248163
56.165 9.799464
56.170 10.115012
56.175 10.234048
56.180 10.598949
56.185 11.114186
56.190 11.398018
56.195 11.780997
56.200 11.740185
56.205 10.953142
56.210 10.550767
56.215 10.176232
56.220 10.016246
56.225 9.874661
56.230 9.867584
56.235 10.097462
56.240 10.490582
56.245 11.072905
56.250 10.948528
56.255 10.983487
56.260 10.625433
56.265 10.324192
56.270 10.216079
56.275 10.178946
56.280 9.890661
56.285 10.335838
56.290 10.502504
56.295 10.556153
56.300 10.400436
56.305 10.624104
56.310 10.719513
56.315 10.651964
56.320 10.299182
56.325 10.132875
56.330 10.243346
56.335 10.775575
56.340 10.669619
56.345 10.791262
56.350 10.778216
56.355 11.068998
56.360 11.035727
56.365 10.811438
56.370 10.806534
56.375 10.970454
56.380 10.886992
56.385 11.028237
56.390 10.770745
56.395 11.334857
56.400 11.569218
56.405 11.742683
56.410 11.614638
56.415 11.314679
56.420 11.22033
56.425 10.87699
56.430 10.58312
56.435 11.03325
56.440 11.249885
56.445 11.374307
56.450 11.457862
56.455 11.077664
56.460 11.243983
56.465 10.998139
56.470 10.008781
56.475 9.360875
56.480 9.445043
56.485 9.99943
56.490 11.047705
56.495 11.201694
56.500 10.904612
56.505 11.201521
56.510 11.083412
56.515 11.186052
56.520 11.044932
56.525 10.189754
56.530 10.019521
56.535 10.57386
56.540 10.55418
56.545 10.699273
56.550 10.319351
56.555 10.303143
56.560 10.225887
56.565 10.116889
56.570 10.152224
56.575 10.117264
56.580 10.258695
56.585 10.118996
56.590 9.719681
56.595 10.07382
56.600 9.985856
56.605 9.988864
56.610 9.845492
56.615 9.981411
56.620 10.511878
56.625 10.880041
56.630 10.694916
56.635 10.507545
56.640 10.260868
56.645 10.403804
56.650 10.139891
56.655 9.757404
56.660 9.589137
56.665 9.792539
56.670 9.888971
56.675 9.678457
56.680 9.753513
56.685 10.011456
56.690 10.341144
56.695 10.917507
56.700 11.084088
56.705 11.79529
56.710 12.387771
56.715 12.126914
56.720 12.117313
56.725 12.153944
56.730 12.034701
56.735 12.021465
56.740 12.100389
56.745 12.365395
56.750 12.420169
56.755 12.42675
56.760 12.351091
56.765 11.702665
56.770 11.479815
56.775 11.233257
56.780 11.408762
56.785 11.676721
56.790 11.49824
56.795 11.370966
56.800 11.818623
56.805 11.698833
56.810 11.264684
56.815 10.513851
56.820 10.386721
56.825 10.29385
56.830 10.421759
56.835 10.629
56.840 11.218962
56.845 11.282027
56.850 11.01515
56.855 10.667759
56.860 10.595592
56.865 10.398088
56.870 9.74472
56.875 9.294674
56.880 9.926976
56.885 10.690176
56.890 10.411698
56.895 10.716107
56.900 11.114397
56.905 11.566339
56.910 11.337235
56.915 10.955857
56.920 10.943694
56.925 10.931319
56.930 10.653116
56.935 10.117547
56.940 9.71913
56.945 9.609951
56.950 9.666167
56.955 10.106509
56.960 10.740849
56.965 10.49859
56.970 10.339461
56.975 10.957786
56.980 11.22564
56.985 11.2668
56.990 11.125963
56.995 11.128901
57.000 11.834171
57.005 11.966273
57.010 11.993009
57.015 11.828458
57.020 11.796418
57.025 11.684084
57.030 11.35378
57.035 11.346972
57.040 11.746435
57.045 11.827273
57.050 11.845301
57.055 11.734694
57.060 11.717457
57.065 11.812865
57.070 12.106493
57.075 12.129976
57.080 11.645839
57.085 11.470757
57.090 11.960702
57.095 12.313994
57.100 11.957351
57.105 11.240857
57.110 11.422692
57.115 11.526673
57.120 11.388036
57.125 10.695787
57.130 10.948125
57.135 11.104184
57.140 10.799287
57.145 10.620687
57.150 10.911128
57.155 11.415732
57.160 11.672688
57.165 11.24693
57.170 11.152954
57.175 11.907932
57.180 12.190497
57.185 11.668746
57.190 11.042145
57.195 11.197355
57.200 11.207884
57.205 11.567348
57.210 11.618568
57.215 11.43893
57.220 11.733775
57.225 12.15946
57.230 11.87423
57.235 12.004982
57.240 11.968211
57.245 11.216566
57.250 10.722485
57.255 10.367577
57.260 10.050838
57.265 10.306354
57.270 10.783067
57.275 10.638505
57.280 11.308111
57.285 11.769367
57.290 11.745721
57.295 11.639141
57.300 11.193356
57.305 10.91926
57.310 11.121551
57.315 11.061813
57.320 11.358834
57.325 11.642393
57.330 11.811923
57.335 11.880721
57.340 11.884237
57.345 12.060869
57.350 12.12735
57.355 12.138313
57.360 12.198683
57.365 12.192089
57.370 12.506801
57.375 12.29565
57.380 12.202955
57.385 12.189527
57.390 11.969234
57.395 11.846387
57.400 12.046224
57.405 11.97366
57.410 12.046515
57.415 12.26631
57.420 12.489563
57.425 12.166101
57.430 12.483956
57.435 12.636074
57.440 12.929466
57.445 13.043775
57.450 13.158875
57.455 13.268967
57.460 13.629557
57.465 13.264948
57.470 13.118769
57.475 13.068267
57.480 12.702692
57.485 12.37687
57.490 11.94726
57.495 12.486225
57.500 12.185027
57.505 11.988119
57.510 12.331869
57.515 12.878704
57.520 12.973077
57.525 12.795132
57.530 12.77786
57.535 13.402411
57.540 13.584332
57.545 13.148668
57.550 12.780096
57.555 13.414685
57.560 13.75567
57.565 13.495185
57.570 13.08325
57.575 12.935777
57.580 13.09446
57.585 13.253963
57.590 12.64029
57.595 12.785958
57.600 13.199099
57.605 13.339653
57.610 13.286265
57.615 13.126213
57.620 13.211278
57.625 13.658929
57.630 13.868327
57.635 13.599627
57.640 13.579939
57.645 13.36721
57.650 13.264649
57.655 12.899744
57.660 12.653884
57.665 12.301281
57.670 12.067288
57.675 12.009241
57.680 12.314452
57.685 12.145241
57.690 12.413626
57.695 11.983145
57.700 11.236385
57.705 10.857188
57.710 10.885372
57.715 11.085311
57.720 11.138033
57.725 11.77479
57.730 12.536654
57.735 13.458623
57.740 13.771433
57.745 13.885515
57.750 14.174231
57.755 14.433115
57.760 13.971833
57.765 13.733904
57.770 13.703517
57.775 13.705508
57.780 13.420407
57.785 13.009826
57.790 13.313112
57.795 12.934839
57.800 12.620532
57.805 12.541244
57.810 12.81922
57.815 13.423271
57.820 13.667255
57.825 13.627504
57.830 13.887362
57.835 14.34979
57.840 14.523534
57.845 14.120675
57.850 14.050714
57.855 13.562053
57.860 13.192813
57.865 13.128723
57.870 13.110351
57.875 13.329818
57.880 13.924443
57.885 14.061502
57.890 13.980773
57.895 14.365139
57.900 14.560163
57.905 14.47518
57.910 14.74558
57.915 14.351543
57.920 14.241554
57.925 14.666025
57.930 14.617455
57.935 14.351268
57.940 13.961194
57.945 13.76695
57.950 13.935859
57.955 14.144834
57.960 13.980955
57.965 14.159632
57.970 14.811244
57.975 15.395782
57.980 15.213428
57.985 15.188899
57.990 15.203806
57.995 15.507074
58.000 15.407508
58.005 15.358569
58.010 15.582379
58.015 15.721117
58.020 16.069599
58.025 15.84924
58.030 15.870925
58.035 16.359669
58.040 16.112204
58.045 15.768174
58.050 15.858267
58.055 15.774139
58.060 15.79502
58.065 15.242387
58.070 14.762431
58.075 14.927377
58.080 15.498261
58.085 15.487169
58.090 15.273953
58.095 15.55283
58.100 16.14233
58.105 16.191027
58.110 15.710674
58.115 15.263144
58.120 15.244211
58.125 15.155931
58.130 14.348492
58.135 13.828018
58.140 14.485531
58.145 14.790928
58.150 14.829378
58.155 14.924747
58.160 14.925545
58.165 15.383267
58.170 15.293067
58.175 14.565763
58.180 14.24112
58.185 14.008067
58.190 13.68816
58.195 13.576934
58.200 13.385669
58.205 13.51033
58.210 13.491152
58.215 13.617258
58.220 13.729239
58.225 14.461181
58.230 15.130887
58.235 15.204688
58.240 15.208812
58.245 14.86398
58.250 15.143477
58.255 15.162712
58.260 14.446446
58.265 14.50472
58.270 14.887321
58.275 15.520031
58.280 16.225826
58.285 16.165571
58.290 15.942406
58.295 15.828748
58.300 15.75808
58.305 15.711624
58.310 15.197992
58.315 15.580635
58.320 15.910379
58.325 15.927287
58.330 15.715519
58.335 15.775768
58.340 15.896322
58.345 16.15188
58.350 15.592803
58.355 15.620742
58.360 16.157049
58.365 16.782352
58.370 16.842714
58.375 16.964592
58.380 17.080343
58.385 18.04756
58.390 18.537136
58.395 19.080296
58.400 19.318968
58.405 19.488232
58.410 19.799875
58.415 20.060371
58.420 19.361958
58.425 19.379549
58.430 19.479387
58.435 19.555063
58.440 19.929638
58.445 20.031168
58.450 20.20846
58.455 21.278358
58.460 21.681736
58.465 21.619724
58.470 22.091187
58.475 22.213343
58.480 22.702456
58.485 22.873972
58.490 23.049068
58.495 23.723267
58.500 23.88504
58.505 23.871111
58.510 23.583237
58.515 23.229202
58.520 23.875423
58.525 24.010927
58.530 23.797834
58.535 23.883348
58.540 24.401489
58.545 25.220924
58.550 25.888939
58.555 25.924015
58.560 26.200453
58.565 26.709433
58.570 27.341791
58.575 27.120243
58.580 27.035278
58.585 27.10376
58.590 27.540485
58.595 27.266199
58.600 27.170727
