!@!!GADDS PLOTSO FILE: Chi integration type
!@!!Title/SampleName: map-113
!@!!Comment: ?
!@!!User: Bruker Instrument Administrator
!@!!Site: University of Illinois Chicago
!@!!Frame: map-113_01_000.gfrm
!@!!Wavelengths    1.54184   1.54056   1.54439
!@!!Frame angles: 2Theta: 63.000 Omega: 50.000 Phi: 0.000 Chi: 90.000
!@!!Integration range: 2Theta: 53.000 to 73.000  Gamma: -105.000 to -75.000
!@!!Integration method: bin normalized
!@!N
!@!SS
!@!M
!@!L 0.0 0.0 0.0 0.0
!@!XDegrees
!@!YCounts
53.000 10.988855
53.005 10.895457
53.010 11.174685
53.015 10.71707
53.020 10.971207
53.025 11.470364
53.030 11.539428
53.035 11.463794
53.040 11.514581
53.045 11.149643
53.050 10.752626
53.055 9.682014
53.060 9.700038
53.065 9.703839
53.070 9.328408
53.075 9.706032
53.080 9.98385
53.085 10.327153
53.090 10.622699
53.095 10.414486
53.100 10.670697
53.105 10.841973
53.110 10.874926
53.115 11.337254
53.120 11.354589
53.125 11.206669
53.130 11.326591
53.135 11.035952
53.140 11.091659
53.145 11.396129
53.150 11.368752
53.155 11.028554
53.160 11.048226
53.165 10.728371
53.170 10.7084
53.175 10.278728
53.180 9.9044
53.185 9.746281
53.190 9.857682
53.195 9.854149
53.200 10.014426
53.205 10.366325
53.210 10.42147
53.215 10.433032
53.220 10.682837
53.225 10.946479
53.230 10.772796
53.235 10.763535
53.240 10.309619
53.245 9.924576
53.250 10.066947
53.255 9.778104
53.260 9.574749
53.265 9.534061
53.270 9.561842
53.275 9.456475
53.280 9.663774
53.285 9.595833
53.290 9.598722
53.295 9.624701
53.300 9.939073
53.305 10.297395
53.310 10.634251
53.315 10.390727
53.320 10.206711
53.325 10.206868
53.330 10.067409
53.335 9.605851
53.340 9.562928
53.345 9.936153
53.350 9.745329
53.355 9.740353
53.360 9.889367
53.365 10.222453
53.370 9.999667
53.375 9.711565
53.380 9.211119
53.385 9.560091
53.390 9.246215
53.395 9.063945
53.400 9.441731
53.405 9.929507
53.410 9.80482
53.415 9.715573
53.420 10.005618
53.425 10.265697
53.430 10.028231
53.435 9.664034
53.440 9.675151
53.445 10.241381
53.450 10.373868
53.455 10.202451
53.460 10.525039
53.465 10.502804
53.470 10.317941
53.475 10.234316
53.480 10.238186
53.485 10.821796
53.490 11.317183
53.495 11.075723
53.500 11.386048
53.505 11.418712
53.510 11.352108
53.515 11.705042
53.520 11.111944
53.525 10.973752
53.530 11.627015
53.535 11.745951
53.540 11.820465
53.545 11.463293
53.550 10.973362
53.555 10.83724
53.560 10.900187
53.565 11.000596
53.570 11.066576
53.575 11.622243
53.580 12.050039
53.585 12.102946
53.590 12.354697
53.595 11.917809
53.600 11.194366
53.605 10.979685
53.610 10.534849
53.615 10.313654
53.620 10.72549
53.625 11.049398
53.630 11.103632
53.635 11.368489
53.640 11.442162
53.645 11.515594
53.650 11.482987
53.655 11.106955
53.660 10.787807
53.665 10.99535
53.670 10.862678
53.675 10.975297
53.680 11.207729
53.685 11.586353
53.690 11.728455
53.695 11.863134
53.700 12.291117
53.705 12.519793
53.710 12.958517
53.715 12.742555
53.720 12.335345
53.725 12.080193
53.730 12.355843
53.735 12.001369
53.740 11.599529
53.745 11.435105
53.750 11.357494
53.755 11.618239
53.760 11.915687
53.765 11.642925
53.770 12.031277
53.775 11.971297
53.780 12.110877
53.785 12.221368
53.790 12.267731
53.795 12.03041
53.800 11.621427
53.805 11.495088
53.810 11.792173
53.815 11.57876
53.820 11.615325
53.825 11.510318
53.830 11.600253
53.835 11.610574
53.840 11.936442
53.845 11.716677
53.850 11.933974
53.855 12.356628
53.860 12.336745
53.865 12.309509
53.870 12.28781
53.875 11.772938
53.880 12.223705
53.885 12.370204
53.890 12.371812
53.895 12.927471
53.900 12.794578
53.905 13.059638
53.910 12.931838
53.915 12.796481
53.920 12.691804
53.925 11.901218
53.930 11.876789
53.935 11.691555
53.940 10.992436
53.945 10.992532
53.950 11.013029
53.955 11.257834
53.960 11.375495
53.965 11.07881
53.970 11.409472
53.975 12.411448
53.980 12.756186
53.985 12.622994
53.990 12.442966
53.995 12.827546
54.000 12.931659
54.005 12.337039
54.010 11.819642
54.015 11.049184
54.020 10.741988
54.025 10.406512
54.030 10.670431
54.035 11.154629
54.040 12.058629
54.045 12.081272
54.050 12.2835
54.055 12.629812
54.060 12.79119
54.065 12.603338
54.070 12.23794
54.075 11.677472
54.080 12.149608
54.085 12.07627
54.090 11.932309
54.095 11.860149
54.100 11.669135
54.105 11.662004
54.110 12.253635
54.115 11.754484
54.120 11.562766
54.125 11.409495
54.130 11.655812
54.135 11.395893
54.140 11.084332
54.145 10.782504
54.150 11.163881
54.155 11.527943
54.160 11.51248
54.165 12.231966
54.170 12.711511
54.175 13.195534
54.180 13.43956
54.185 13.100602
54.190 12.88995
54.195 12.777815
54.200 12.810878
54.205 12.793061
54.210 12.460729
54.215 12.398026
54.220 12.275865
54.225 11.978296
54.230 11.446779
54.235 10.63081
54.240 10.395493
54.245 10.41875
54.250 10.486737
54.255 10.673981
54.260 10.967789
54.265 11.925247
54.270 12.990431
54.275 13.37552
54.280 13.722493
54.285 13.947745
54.290 13.998144
54.295 13.624244
54.300 12.432773
54.305 11.5835
54.310 11.285586
54.315 10.626031
54.320 10.429933
54.325 10.515195
54.330 10.851496
54.335 11.241459
54.340 11.281112
54.345 10.94057
54.350 11.249855
54.355 11.319654
54.360 11.037739
54.365 10.953227
54.370 11.078985
54.375 11.41716
54.380 11.476805
54.385 11.410682
54.390 11.304851
54.395 11.488347
54.400 11.233689
54.405 10.728086
54.410 10.396674
54.415 10.49902
54.420 10.782145
54.425 11.302271
54.430 11.497528
54.435 11.612979
54.440 11.890287
54.445 11.833231
54.450 11.61326
54.455 11.222326
54.460 11.162419
54.465 11.318301
54.470 11.246226
54.475 11.03734
54.480 11.394593
54.485 11.697865
54.490 12.079433
54.495 11.51006
54.500 11.196237
54.505 11.140376
54.510 11.063546
54.515 10.910687
54.520 10.861588
54.525 10.444722
54.530 10.435384
54.535 10.483181
54.540 11.176861
54.545 11.861208
54.550 12.189852
54.555 12.117616
54.560 12.103015
54.565 12.035443
54.570 12.182359
54.575 11.220777
54.580 10.917134
54.585 11.169732
54.590 11.700775
54.595 11.942821
54.600 11.963933
54.605 11.989861
54.610 12.418415
54.615 11.825587
54.620 11.258276
54.625 10.981249
54.630 11.20628
54.635 11.62967
54.640 11.758952
54.645 11.596228
54.650 12.188483
54.655 12.192543
54.660 12.033276
54.665 11.371776
54.670 10.919929
54.675 11.102175
54.680 11.299287
54.685 11.30334
54.690 11.323938
54.695 11.073679
54.700 11.194198
54.705 11.337792
54.710 10.927734
54.715 10.935674
54.720 10.486555
54.725 10.377624
54.730 10.739005
54.735 11.166801
54.740 11.298244
54.745 11.359107
54.750 11.154845
54.755 11.479071
54.760 11.724772
54.765 11.428948
54.770 10.843594
54.775 10.750814
54.780 11.378414
54.785 11.393997
54.790 11.04231
54.795 10.765729
54.800 10.857892
54.805 11.006128
54.810 10.896987
54.815 10.705584
54.820 10.696162
54.825 11.53021
54.830 11.785183
54.835 12.400597
54.840 12.757446
54.845 12.929527
54.850 12.827759
54.855 12.782557
54.860 12.725529
54.865 12.777272
54.870 12.552804
54.875 11.951069
54.880 11.775172
54.885 11.94942
54.890 12.02891
54.895 12.215853
54.900 12.424571
54.905 12.430884
54.910 12.902631
54.915 13.074089
54.920 12.835037
54.925 12.834109
54.930 12.749526
54.935 12.548166
54.940 12.307183
54.945 12.262718
54.950 12.432487
54.955 12.564969
54.960 12.04754
54.965 12.179705
54.970 12.459778
54.975 12.958182
54.980 12.892551
54.985 12.458684
54.990 12.759923
54.995 12.83434
55.000 12.69229
55.005 12.957256
55.010 12.617393
55.015 13.018595
55.020 13.576118
55.025 13.64227
55.030 13.498136
55.035 13.353463
55.040 13.13675
55.045 13.846731
55.050 13.411904
55.055 12.957832
55.060 13.000785
55.065 12.940079
55.070 12.86449
55.075 12.464813
55.080 11.928538
55.085 11.804888
55.090 11.798383
55.095 11.990073
55.100 12.331581
55.105 12.41466
55.110 12.951438
55.115 12.769801
55.120 12.492363
55.125 12.291459
55.130 12.300328
55.135 12.16887
55.140 11.622705
55.145 11.601089
55.150 11.955308
55.155 12.048384
55.160 12.88588
55.165 13.030297
55.170 13.702643
55.175 13.839205
55.180 13.683705
55.185 13.654989
55.190 14.308351
55.195 13.555383
55.200 13.322934
55.205 12.94244
55.210 13.421186
55.215 13.40061
55.220 13.505125
55.225 13.000637
55.230 12.84694
55.235 12.585335
55.240 12.599236
55.245 12.380169
55.250 12.52633
55.255 12.374026
55.260 12.10681
55.265 12.417718
55.270 12.377583
55.275 12.788534
55.280 12.818088
55.285 12.67194
55.290 12.343276
55.295 12.447131
55.300 12.416258
55.305 12.288443
55.310 11.915728
55.315 11.853662
55.320 12.055094
55.325 12.619681
55.330 12.706837
55.335 12.534255
55.340 12.621859
55.345 12.722111
55.350 12.681127
55.355 12.964368
55.360 12.75003
55.365 12.618699
55.370 12.247411
55.375 12.056271
55.380 11.879901
55.385 12.109245
55.390 11.971795
55.395 12.228487
55.400 12.487805
55.405 13.277425
55.410 13.848303
55.415 13.866252
55.420 13.87817
55.425 13.818587
55.430 13.606125
55.435 13.427743
55.440 12.957286
55.445 12.367398
55.450 12.130712
55.455 12.08697
55.460 12.121828
55.465 12.169791
55.470 12.253089
55.475 12.506554
55.480 12.671912
55.485 12.759899
55.490 13.126162
55.495 13.000877
55.500 12.954352
55.505 13.020017
55.510 12.966714
55.515 13.133182
55.520 13.390352
55.525 13.442314
55.530 13.56529
55.535 13.845664
55.540 14.481151
55.545 14.603754
55.550 14.086292
55.555 13.780209
55.560 13.68109
55.565 13.968161
55.570 13.828791
55.575 13.87475
55.580 14.73227
55.585 15.136911
55.590 14.925549
55.595 14.70478
55.600 14.369889
55.605 14.53008
55.610 13.95755
55.615 13.106076
55.620 13.335814
55.625 12.905538
55.630 12.669558
55.635 12.545138
55.640 12.297397
55.645 12.484906
55.650 12.896478
55.655 12.907654
55.660 13.094319
55.665 13.015396
55.670 12.931225
55.675 12.821646
55.680 12.759213
55.685 12.409927
55.690 12.191257
55.695 11.935453
55.700 12.089015
55.705 11.954611
55.710 12.041762
55.715 12.1011
55.720 12.226941
55.725 12.298379
55.730 12.976377
55.735 12.927543
55.740 12.813961
55.745 12.480224
55.750 12.823469
55.755 12.571626
55.760 12.756532
55.765 12.623365
55.770 12.915539
55.775 13.634672
55.780 13.743726
55.785 13.215855
55.790 13.374545
55.795 13.276834
55.800 13.411196
55.805 13.113694
55.810 12.997599
55.815 13.245919
55.820 13.756715
55.825 13.74784
55.830 13.950599
55.835 14.191546
55.840 14.603852
55.845 14.501568
55.850 14.181326
55.855 14.126814
55.860 14.358967
55.865 14.253238
55.870 13.518358
55.875 13.199668
55.880 13.080231
55.885 13.591153
55.890 13.881995
55.895 13.416942
55.900 13.306825
55.905 13.512812
55.910 13.627819
55.915 13.498805
55.920 13.002145
55.925 12.642747
55.930 12.480189
55.935 12.276276
55.940 12.063132
55.945 12.373964
55.950 12.699453
55.955 12.815612
55.960 13.364816
55.965 13.959495
55.970 14.228532
55.975 14.588764
55.980 14.657952
55.985 14.993191
55.990 14.906746
55.995 14.437122
56.000 14.027153
56.005 13.668982
56.010 13.244134
56.015 12.943731
56.020 12.168838
56.025 12.11258
56.030 12.154496
56.035 12.414774
56.040 13.04644
56.045 13.320747
56.050 13.077581
56.055 13.360989
56.060 13.547462
56.065 13.339536
56.070 13.160395
56.075 13.023361
56.080 12.899543
56.085 12.508112
56.090 12.171416
56.095 12.435566
56.100 12.693654
56.105 12.575765
56.110 12.515017
56.115 12.108813
56.120 12.796806
56.125 13.321274
56.130 13.019112
56.135 13.603621
56.140 14.356361
56.145 14.452676
56.150 15.058772
56.155 15.246491
56.160 14.978562
56.165 14.722044
56.170 14.292756
56.175 14.332477
56.180 14.571783
56.185 14.144978
56.190 13.937252
56.195 13.903738
56.200 13.899715
56.205 13.555803
56.210 13.569351
56.215 13.459592
56.220 13.688854
56.225 13.932978
56.230 14.617332
56.235 14.904146
56.240 14.747418
56.245 14.55434
56.250 14.119509
56.255 13.829218
56.260 13.635206
56.265 13.628445
56.270 13.96933
56.275 14.119297
56.280 13.982002
56.285 14.192698
56.290 14.005252
56.295 13.879381
56.300 13.264448
56.305 12.908694
56.310 12.664978
56.315 12.566505
56.320 12.370009
56.325 12.624601
56.330 12.375924
56.335 12.833319
56.340 13.083379
56.345 13.006853
56.350 13.35884
56.355 13.051375
56.360 13.261307
56.365 13.520654
56.370 13.639642
56.375 14.075513
56.380 14.207592
56.385 14.496913
56.390 14.861701
56.395 14.039181
56.400 14.054855
56.405 13.381885
56.410 13.206782
56.415 13.447147
56.420 13.88742
56.425 14.441742
56.430 15.108206
56.435 15.016818
56.440 15.292229
56.445 15.737995
56.450 15.934237
56.455 15.547988
56.460 15.741176
56.465 15.509639
56.470 15.453005
56.475 15.487469
56.480 15.07833
56.485 14.896661
56.490 15.161585
56.495 15.116169
56.500 15.11503
56.505 15.316319
56.510 15.515494
56.515 15.478768
56.520 15.54844
56.525 15.094084
56.530 14.692641
56.535 14.41589
56.540 14.035124
56.545 13.559224
56.550 13.4852
56.555 13.375945
56.560 13.944487
56.565 14.091517
56.570 14.877548
56.575 15.107618
56.580 15.366652
56.585 15.292449
56.590 15.011089
56.595 15.107396
56.600 15.24432
56.605 14.689187
56.610 14.550287
56.615 14.633961
56.620 14.706678
56.625 14.748384
56.630 14.151018
56.635 13.910979
56.640 13.632022
56.645 13.715721
56.650 13.365263
56.655 13.445817
56.660 13.81889
56.665 14.509151
56.670 14.842308
56.675 15.577668
56.680 15.852527
56.685 16.009985
56.690 15.579242
56.695 15.036024
56.700 14.339853
56.705 14.066394
56.710 14.155917
56.715 13.832278
56.720 13.823596
56.725 14.183835
56.730 14.165816
56.735 14.156944
56.740 14.019834
56.745 13.929781
56.750 14.184669
56.755 14.762287
56.760 15.195305
56.765 15.936074
56.770 16.379154
56.775 16.343914
56.780 16.382341
56.785 16.132849
56.790 15.886525
56.795 15.644843
56.800 15.305594
56.805 15.432186
56.810 15.590238
56.815 15.574863
56.820 15.517562
56.825 15.162729
56.830 15.103089
56.835 15.164649
56.840 15.356556
56.845 15.488988
56.850 15.232175
56.855 15.105614
56.860 14.883679
56.865 14.448392
56.870 14.146346
56.875 14.530496
56.880 14.408728
56.885 14.411021
56.890 13.976942
56.895 13.703603
56.900 13.913896
56.905 14.005306
56.910 13.828891
56.915 14.345064
56.920 14.574985
56.925 15.153444
56.930 15.351692
56.935 15.048851
56.940 14.614565
56.945 14.077909
56.950 13.344495
56.955 13.080079
56.960 12.99739
56.965 13.013664
56.970 12.698389
56.975 12.803659
56.980 12.568906
56.985 12.986513
56.990 13.413734
56.995 13.707034
57.000 14.051015
57.005 14.979498
57.010 15.301884
57.015 15.391975
57.020 15.334831
57.025 15.067533
57.030 14.972779
57.035 15.338352
57.040 14.814264
57.045 14.807061
57.050 15.345231
57.055 15.35663
57.060 15.146435
57.065 14.950593
57.070 14.887518
57.075 15.154257
57.080 15.130166
57.085 14.963783
57.090 14.968668
57.095 15.97972
57.100 16.413078
57.105 15.946483
57.110 16.090675
57.115 16.195681
57.120 16.08379
57.125 15.919381
57.130 14.942488
57.135 14.480078
57.140 14.618304
57.145 14.31937
57.150 14.423625
57.155 14.579977
57.160 14.617031
57.165 14.777128
57.170 14.832659
57.175 14.642682
57.180 14.520453
57.185 14.104268
57.190 13.791002
57.195 13.668266
57.200 13.865492
57.205 14.189855
57.210 14.297475
57.215 14.268491
57.220 13.776002
57.225 13.931312
57.230 14.11937
57.235 14.039396
57.240 13.938948
57.245 14.381669
57.250 14.754052
57.255 15.468855
57.260 15.684286
57.265 15.906098
57.270 16.013655
57.275 15.554699
57.280 14.892982
57.285 14.603035
57.290 14.627027
57.295 14.756838
57.300 14.895402
57.305 15.01578
57.310 15.295822
57.315 15.539371
57.320 15.571715
57.325 15.360329
57.330 15.379566
57.335 15.347667
57.340 15.473587
57.345 15.393647
57.350 16.159597
57.355 16.478714
57.360 16.566097
57.365 16.365559
57.370 16.281311
57.375 16.33374
57.380 16.173553
57.385 15.234388
57.390 14.800986
57.395 14.485153
57.400 14.603821
57.405 14.483151
57.410 14.413837
57.415 14.968283
57.420 15.902542
57.425 16.114756
57.430 16.272984
57.435 16.161448
57.440 15.666251
57.445 15.410795
57.450 14.807883
57.455 14.227738
57.460 14.206695
57.465 13.914125
57.470 14.134882
57.475 14.688332
57.480 15.024665
57.485 15.051088
57.490 14.737306
57.495 14.764742
57.500 14.455218
57.505 14.511992
57.510 14.879073
57.515 14.716167
57.520 14.537652
57.525 14.996116
57.530 14.969095
57.535 15.044151
57.540 14.556072
57.545 14.321699
57.550 14.715237
57.555 15.381329
57.560 15.64619
57.565 15.472089
57.570 15.511982
57.575 15.560369
57.580 15.169569
57.585 14.680325
57.590 14.170447
57.595 13.427225
57.600 13.527078
57.605 13.549887
57.610 14.153677
57.615 14.645712
57.620 15.399487
57.625 15.814089
57.630 15.846284
57.635 16.11898
57.640 16.00704
57.645 15.35461
57.650 14.904575
57.655 14.100393
57.660 13.249249
57.665 12.717584
57.670 12.448587
57.675 12.701298
57.680 12.764144
57.685 12.435426
57.690 12.993894
57.695 14.044544
57.700 14.690859
57.705 15.200119
57.710 15.542926
57.715 16.0779
57.720 16.854311
57.725 16.605865
57.730 16.563894
57.735 16.374659
57.740 16.076019
57.745 15.022749
57.750 14.815688
57.755 14.639399
57.760 14.405931
57.765 14.61437
57.770 14.612013
57.775 14.806422
57.780 15.025623
57.785 15.475506
57.790 15.337144
57.795 14.599297
57.800 14.099002
57.805 14.321707
57.810 14.57426
57.815 14.659357
57.820 14.190476
57.825 14.695436
57.830 15.43209
57.835 15.326356
57.840 14.974519
57.845 14.706473
57.850 15.077246
57.855 15.543098
57.860 15.674721
57.865 15.920732
57.870 16.419186
57.875 16.501026
57.880 16.020554
57.885 15.268707
57.890 15.10076
57.895 15.070936
57.900 15.071805
57.905 15.481474
57.910 15.44713
57.915 16.000296
57.920 16.654165
57.925 16.466866
57.930 16.388895
57.935 16.283556
57.940 15.873805
57.945 16.107367
57.950 15.878513
57.955 15.34412
57.960 15.006703
57.965 14.744565
57.970 14.650153
57.975 15.048723
57.980 14.964407
57.985 14.766856
57.990 14.929273
57.995 15.625189
58.000 15.53462
58.005 15.114735
58.010 15.003693
58.015 14.835792
58.020 14.944691
58.025 15.027039
58.030 14.842747
58.035 15.102224
58.040 15.167704
58.045 15.47638
58.050 15.903728
58.055 16.356339
58.060 16.358099
58.065 16.395086
58.070 16.741524
58.075 16.659864
58.080 16.729729
58.085 17.137426
58.090 16.838137
58.095 16.318285
58.100 16.165985
58.105 16.375322
58.110 16.98881
58.115 16.209063
58.120 15.822576
58.125 15.749562
58.130 15.947921
58.135 15.814373
58.140 15.343686
58.145 14.995928
58.150 15.305965
58.155 15.314755
58.160 15.205499
58.165 15.45428
58.170 15.312159
58.175 15.299448
58.180 15.168689
58.185 15.103429
58.190 14.967114
58.195 15.181531
58.200 15.214099
58.205 15.458754
58.210 14.958777
58.215 14.885662
58.220 14.89627
58.225 15.00871
58.230 15.1085
58.235 15.174515
58.240 15.184127
58.245 15.696705
58.250 16.045961
58.255 16.098719
58.260 16.302137
58.265 16.025414
58.270 16.210403
58.275 15.987645
58.280 16.000593
58.285 15.913459
58.290 15.779888
58.295 15.391641
58.300 15.56629
58.305 15.13159
58.310 15.14253
58.315 15.106185
58.320 15.264218
58.325 16.137121
58.330 16.308649
58.335 15.927791
58.340 16.398535
58.345 16.731722
58.350 16.355993
58.355 15.688611
58.360 14.782146
58.365 14.948768
58.370 15.472423
58.375 14.809006
58.380 14.297001
58.385 14.357858
58.390 14.867531
58.395 14.936437
58.400 15.270661
58.405 15.470284
58.410 16.177956
58.415 16.699991
58.420 17.129108
58.425 16.77965
58.430 16.398993
58.435 15.747927
58.440 14.955235
58.445 14.994453
58.450 14.913285
