!@!!GADDS PLOTSO FILE: Chi integration type
!@!!Title/SampleName: map-151
!@!!Comment: ?
!@!!User: Bruker Instrument Administrator
!@!!Site: University of Illinois Chicago
!@!!Frame: map-151_01_000.gfrm
!@!!Wavelengths    1.54184   1.54056   1.54439
!@!!Frame angles: 2Theta: 63.000 Omega: 50.000 Phi: 0.000 Chi: 90.000
!@!!Integration range: 2Theta: 53.000 to 73.000  Gamma: -105.000 to -75.000
!@!!Integration method: bin normalized
!@!N
!@!SS
!@!M
!@!L 0.0 0.0 0.0 0.0
!@!XDegrees
!@!YCounts
53.000 9.819839
53.005 9.22805
53.010 9.052929
53.015 8.433747
53.020 7.82695
53.025 7.46802
53.030 7.297448
53.035 7.612382
53.040 7.879104
53.045 7.579195
53.050 7.747593
53.055 7.691863
53.060 7.966794
53.065 8.035289
53.070 8.45122
53.075 8.76721
53.080 8.84386
53.085 8.831713
53.090 9.160787
53.095 9.34705
53.100 9.351356
53.105 8.82513
53.110 8.447401
53.115 8.945489
53.120 9.080227
53.125 9.125315
53.130 9.059483
53.135 8.809049
53.140 8.833303
53.145 8.82401
53.150 8.427711
53.155 8.242615
53.160 8.287135
53.165 8.309068
53.170 8.660329
53.175 8.657743
53.180 8.811304
53.185 9.102741
53.190 9.735725
53.195 9.813759
53.200 9.960291
53.205 10.138935
53.210 10.619975
53.215 10.634468
53.220 10.616464
53.225 10.646964
53.230 10.902554
53.235 11.267941
53.240 11.113054
53.245 10.965738
53.250 10.550015
53.255 10.355004
53.260 10.076788
53.265 9.433404
53.270 8.809193
53.275 8.505023
53.280 8.484316
53.285 8.809486
53.290 8.882378
53.295 8.485909
53.300 8.540697
53.305 8.623007
53.310 8.630187
53.315 8.760433
53.320 8.613443
53.325 9.165639
53.330 9.567502
53.335 9.857624
53.340 10.567206
53.345 10.595472
53.350 10.523986
53.355 10.179081
53.360 9.980089
53.365 10.262856
53.370 9.883924
53.375 9.672479
53.380 9.967528
53.385 10.092589
53.390 10.379514
53.395 9.912672
53.400 9.611229
53.405 9.669677
53.410 9.584232
53.415 9.189978
53.420 9.1636
53.425 9.124015
53.430 9.447711
53.435 9.61839
53.440 9.405406
53.445 9.400325
53.450 9.675707
53.455 9.888807
53.460 9.623999
53.465 9.735563
53.470 9.971254
53.475 10.146663
53.480 10.205358
53.485 9.787259
53.490 9.797982
53.495 9.91083
53.500 9.827587
53.505 9.216458
53.510 9.058372
53.515 8.834675
53.520 9.03725
53.525 9.013858
53.530 8.699109
53.535 8.85794
53.540 9.260547
53.545 9.553378
53.550 9.562783
53.555 9.188833
53.560 9.067477
53.565 9.102714
53.570 8.811193
53.575 8.658465
53.580 8.603838
53.585 8.723372
53.590 9.112796
53.595 8.913265
53.600 8.705549
53.605 8.35893
53.610 8.170515
53.615 7.886493
53.620 8.459034
53.625 8.800655
53.630 9.117139
53.635 9.629819
53.640 10.336763
53.645 10.650803
53.650 10.857741
53.655 10.443872
53.660 10.479339
53.665 10.694001
53.670 10.378386
53.675 9.981867
53.680 9.483163
53.685 9.515507
53.690 9.045541
53.695 8.239202
53.700 7.744987
53.705 7.501214
53.710 7.763299
53.715 8.325941
53.720 8.613699
53.725 9.250953
53.730 9.773493
53.735 9.956978
53.740 10.278129
53.745 9.981732
53.750 9.354983
53.755 8.965792
53.760 8.481404
53.765 8.752098
53.770 9.361959
53.775 9.411872
53.780 9.71767
53.785 10.296737
53.790 10.542752
53.795 10.525418
53.800 9.89525
53.805 9.297015
53.810 9.456758
53.815 9.37431
53.820 9.275207
53.825 9.783798
53.830 9.922859
53.835 10.0181
53.840 9.97992
53.845 9.91757
53.850 9.761832
53.855 9.634331
53.860 9.304667
53.865 9.418652
53.870 9.632284
53.875 9.659905
53.880 9.847826
53.885 9.984843
53.890 9.98386
53.895 10.321733
53.900 10.127957
53.905 10.08254
53.910 10.397552
53.915 10.420445
53.920 10.508106
53.925 9.995492
53.930 9.808131
53.935 9.966737
53.940 9.826664
53.945 9.741613
53.950 9.439502
53.955 9.326211
53.960 9.359123
53.965 9.517485
53.970 9.82373
53.975 9.907389
53.980 9.725418
53.985 9.26731
53.990 9.08985
53.995 9.136671
54.000 8.7837
54.005 8.65217
54.010 8.495703
54.015 8.659883
54.020 9.16622
54.025 9.55301
54.030 10.092151
54.035 10.436891
54.040 10.511522
54.045 10.831107
54.050 10.731397
54.055 10.649322
54.060 10.232344
54.065 9.483252
54.070 9.138471
54.075 8.941571
54.080 8.953361
54.085 8.891609
54.090 8.45632
54.095 8.220608
54.100 8.67148
54.105 9.031992
54.110 9.275333
54.115 9.218996
54.120 9.193654
54.125 9.242903
54.130 9.463456
54.135 9.024362
54.140 9.039028
54.145 8.87999
54.150 8.766618
54.155 8.881233
54.160 9.357244
54.165 9.803576
54.170 10.111328
54.175 10.055516
54.180 10.017858
54.185 10.233654
54.190 10.218335
54.195 10.224742
54.200 10.428129
54.205 10.583901
54.210 10.635598
54.215 10.452179
54.220 10.358303
54.225 10.611875
54.230 10.202914
54.235 9.884714
54.240 9.763252
54.245 9.764119
54.250 9.917639
54.255 10.33079
54.260 10.920596
54.265 11.496346
54.270 11.253416
54.275 11.14626
54.280 11.04087
54.285 11.131111
54.290 10.745909
54.295 9.793921
54.300 9.363878
54.305 9.570479
54.310 9.288841
54.315 9.34686
54.320 9.544177
54.325 9.916098
54.330 10.186631
54.335 10.415947
54.340 10.464963
54.345 10.250816
54.350 10.037154
54.355 10.041856
54.360 9.817579
54.365 9.68779
54.370 9.41065
54.375 9.580292
54.380 9.91036
54.385 9.677569
54.390 9.404144
54.395 9.2907
54.400 9.134828
54.405 9.246299
54.410 9.152841
54.415 9.1227
54.420 9.136851
54.425 9.061572
54.430 9.18633
54.435 9.064438
54.440 8.699384
54.445 8.546677
54.450 8.515662
54.455 8.695315
54.460 8.82727
54.465 8.886292
54.470 9.359294
54.475 9.954271
54.480 10.071813
54.485 10.298478
54.490 10.108161
54.495 9.962211
54.500 9.919171
54.505 9.466364
54.510 9.113129
54.515 9.287941
54.520 9.863679
54.525 10.032485
54.530 10.031026
54.535 9.86596
54.540 10.091188
54.545 10.369133
54.550 9.876356
54.555 9.13388
54.560 9.079783
54.565 9.459692
54.570 9.682144
54.575 9.795685
54.580 9.16524
54.585 9.508617
54.590 10.03476
54.595 10.182376
54.600 10.387376
54.605 10.971439
54.610 11.07493
54.615 11.440318
54.620 11.143603
54.625 10.960517
54.630 10.870466
54.635 10.66372
54.640 10.175943
54.645 10.326096
54.650 10.350819
54.655 10.790611
54.660 10.750247
54.665 10.369055
54.670 10.018622
54.675 9.393142
54.680 9.313264
54.685 9.768724
54.690 9.816538
54.695 10.189713
54.700 10.950637
54.705 11.322556
54.710 11.909575
54.715 11.549751
54.720 10.937177
54.725 10.74365
54.730 10.07053
54.735 9.606942
54.740 9.663816
54.745 9.732668
54.750 10.301364
54.755 10.410336
54.760 10.026077
54.765 9.857578
54.770 9.606844
54.775 9.448171
54.780 9.322414
54.785 8.814317
54.790 9.016994
54.795 9.801837
54.800 10.614896
54.805 11.028163
54.810 10.926465
54.815 11.370783
54.820 11.598154
54.825 11.506896
54.830 11.372782
54.835 11.037921
54.840 11.003448
54.845 10.590006
54.850 10.163568
54.855 9.665774
54.860 9.338592
54.865 9.068764
54.870 9.08763
54.875 9.223056
54.880 9.673099
54.885 9.778911
54.890 9.876042
54.895 9.636331
54.900 9.499439
54.905 9.518441
54.910 9.751587
54.915 9.925367
54.920 10.321128
54.925 10.263558
54.930 10.216327
54.935 9.885349
54.940 9.651988
54.945 9.878413
54.950 9.917326
54.955 9.832415
54.960 10.160677
54.965 10.506752
54.970 10.719642
54.975 10.694819
54.980 10.27907
54.985 10.344959
54.990 10.650601
54.995 10.445127
55.000 10.428992
55.005 10.666344
55.010 11.052987
55.015 11.19307
55.020 10.967575
55.025 11.438807
55.030 11.393747
55.035 11.487489
55.040 11.332708
55.045 10.765222
55.050 10.365933
55.055 10.042641
55.060 9.833083
55.065 10.091564
55.070 10.128345
55.075 10.159674
55.080 10.56521
55.085 10.598191
55.090 10.398307
55.095 10.177475
55.100 9.985678
55.105 10.295516
55.110 10.572274
55.115 10.12867
55.120 10.125227
55.125 10.238679
55.130 10.620247
55.135 10.318626
55.140 9.654138
55.145 9.558625
55.150 10.20985
55.155 10.231739
55.160 9.943214
55.165 9.936229
55.170 10.652316
55.175 10.75701
55.180 10.606717
55.185 10.29705
55.190 10.382121
55.195 10.067216
55.200 9.716049
55.205 9.570928
55.210 9.381331
55.215 9.338136
55.220 9.196136
55.225 9.466775
55.230 9.500057
55.235 9.357756
55.240 9.342307
55.245 9.507802
55.250 9.525989
55.255 9.012447
55.260 8.883575
55.265 9.24062
55.270 9.491661
55.275 9.440097
55.280 9.449201
55.285 9.891108
55.290 10.318756
55.295 10.423136
55.300 10.118335
55.305 9.86634
55.310 9.97801
55.315 9.918435
55.320 9.7508
55.325 9.909323
55.330 9.681965
55.335 9.740783
55.340 9.921549
55.345 9.875925
55.350 10.245756
55.355 10.418019
55.360 10.767458
55.365 11.037214
55.370 11.349579
55.375 11.345267
55.380 11.467299
55.385 11.229381
55.390 10.727057
55.395 10.470273
55.400 10.142178
55.405 9.93826
55.410 9.78182
55.415 9.524316
55.420 9.483681
55.425 9.933776
55.430 9.979346
55.435 10.386899
55.440 10.16985
55.445 10.21921
55.450 10.346725
55.455 10.097501
55.460 9.915811
55.465 9.658154
55.470 9.72871
55.475 10.234763
55.480 10.447791
55.485 10.578457
55.490 11.075119
55.495 11.100151
55.500 11.220008
55.505 10.988453
55.510 10.423918
55.515 10.013848
55.520 10.121675
55.525 10.310839
55.530 9.884499
55.535 9.882585
55.540 10.025241
55.545 10.586468
55.550 10.860002
55.555 10.618531
55.560 10.256016
55.565 10.582311
55.570 10.643875
55.575 10.699761
55.580 10.61844
55.585 10.419612
55.590 10.249026
55.595 10.013392
55.600 9.964268
55.605 9.81446
55.610 9.962047
55.615 9.823956
55.620 9.723246
55.625 9.965108
55.630 9.915807
55.635 10.395444
55.640 11.034951
55.645 10.793112
55.650 11.205
55.655 11.469193
55.660 11.394743
55.665 11.675106
55.670 11.596802
55.675 11.050362
55.680 10.793978
55.685 10.544933
55.690 10.326825
55.695 10.194643
55.700 9.946624
55.705 9.390203
55.710 9.430573
55.715 9.238199
55.720 9.230374
55.725 9.866853
55.730 10.020763
55.735 10.08889
55.740 10.058888
55.745 9.675779
55.750 10.361864
55.755 10.231755
55.760 10.355809
55.765 11.084002
55.770 11.298474
55.775 11.311009
55.780 11.53408
55.785 11.120029
55.790 10.739142
55.795 10.00081
55.800 9.484591
55.805 9.633806
55.810 9.859857
55.815 9.748152
55.820 9.92963
55.825 10.223443
55.830 10.16785
55.835 10.288727
55.840 10.420133
55.845 10.857136
55.850 11.667775
55.855 11.694527
55.860 11.771615
55.865 12.038419
55.870 11.594565
55.875 11.244335
55.880 10.786391
55.885 10.577236
55.890 10.506265
55.895 10.664963
55.900 10.28545
55.905 10.541606
55.910 10.127409
55.915 9.927938
55.920 9.299266
55.925 9.011503
55.930 8.847449
55.935 9.225964
55.940 9.486912
55.945 10.344813
55.950 11.163794
55.955 11.652092
55.960 11.45325
55.965 11.313501
55.970 11.064564
55.975 10.614302
55.980 9.900319
55.985 9.250113
55.990 8.935847
55.995 9.052388
56.000 9.28149
56.005 9.788929
56.010 9.863987
56.015 10.034851
56.020 10.612162
56.025 11.114869
56.030 11.236631
56.035 11.022947
56.040 10.799176
56.045 10.920279
56.050 11.178348
56.055 10.645686
56.060 10.386372
56.065 10.46798
56.070 10.290522
56.075 10.394958
56.080 10.305738
56.085 9.988931
56.090 9.963099
56.095 10.238464
56.100 10.190701
56.105 10.06311
56.110 9.895598
56.115 9.911831
56.120 10.042856
56.125 10.420249
56.130 10.135653
56.135 10.100732
56.140 10.311717
56.145 10.395933
56.150 10.231541
56.155 10.000044
56.160 9.549748
56.165 9.77587
56.170 10.241476
56.175 9.909611
56.180 10.060338
56.185 10.13905
56.190 10.457508
56.195 10.708194
56.200 10.50749
56.205 10.085392
56.210 9.914564
56.215 9.742604
56.220 9.407625
56.225 9.646469
56.230 10.018848
56.235 10.183904
56.240 10.37699
56.245 10.581211
56.250 10.383192
56.255 10.855522
56.260 10.722858
56.265 10.31111
56.270 10.214583
56.275 10.180961
56.280 10.337521
56.285 10.97164
56.290 10.876676
56.295 10.978159
56.300 11.085726
56.305 11.193352
56.310 11.392194
56.315 11.130371
56.320 10.716771
56.325 10.517264
56.330 10.814632
56.335 11.419994
56.340 11.753125
56.345 11.835381
56.350 12.023955
56.355 12.024212
56.360 11.748695
56.365 11.276537
56.370 10.814594
56.375 10.6083
56.380 10.329897
56.385 9.816339
56.390 9.553684
56.395 9.890138
56.400 9.725469
56.405 9.695915
56.410 9.698956
56.415 9.737144
56.420 10.21535
56.425 10.472932
56.430 10.445926
56.435 10.842055
56.440 11.068425
56.445 11.116851
56.450 11.262466
56.455 11.808309
56.460 12.119321
56.465 12.039634
56.470 12.03652
56.475 12.069933
56.480 12.002674
56.485 12.170637
56.490 12.046478
56.495 11.788498
56.500 12.121824
56.505 12.203153
56.510 12.257531
56.515 12.35201
56.520 12.415306
56.525 12.761975
56.530 12.891158
56.535 12.657037
56.540 12.524134
56.545 12.409546
56.550 12.503967
56.555 12.370187
56.560 12.273988
56.565 12.30553
56.570 11.520258
56.575 11.36632
56.580 11.520105
56.585 11.835514
56.590 12.054472
56.595 11.620792
56.600 11.686639
56.605 12.713404
56.610 12.835521
56.615 12.405247
56.620 11.870803
56.625 11.619161
56.630 11.633309
56.635 11.495466
56.640 11.073952
56.645 11.051927
56.650 11.203522
56.655 11.024161
56.660 11.176956
56.665 10.999079
56.670 11.188248
56.675 11.05908
56.680 10.942727
56.685 11.033736
56.690 11.09286
56.695 10.420665
56.700 10.439305
56.705 10.432734
56.710 10.558816
56.715 10.572509
56.720 10.874113
56.725 11.359278
56.730 12.151381
56.735 12.708836
56.740 12.7501
56.745 12.996453
56.750 12.59495
56.755 12.410974
56.760 12.543393
56.765 11.913094
56.770 11.010736
56.775 10.691054
56.780 10.538888
56.785 11.289385
56.790 11.503204
56.795 11.195868
56.800 11.491472
56.805 11.892701
56.810 12.073876
56.815 11.87678
56.820 11.741825
56.825 11.123728
56.830 10.94253
56.835 10.764658
56.840 10.577219
56.845 10.513216
56.850 10.201111
56.855 9.748773
56.860 9.776519
56.865 9.787553
56.870 10.200397
56.875 10.171165
56.880 10.228268
56.885 10.493114
56.890 10.49006
56.895 10.540992
56.900 10.618991
56.905 10.622441
56.910 10.859703
56.915 10.74472
56.920 10.625413
56.925 10.779783
56.930 10.702936
56.935 10.306567
56.940 9.908175
56.945 10.091394
56.950 10.504756
56.955 10.732741
56.960 10.847381
56.965 10.98696
56.970 11.307316
56.975 11.669871
56.980 11.115805
56.985 10.673982
56.990 10.724095
56.995 10.751692
57.000 10.594175
57.005 10.291762
57.010 9.822202
57.015 9.738386
57.020 10.046638
57.025 9.929479
57.030 10.061033
57.035 10.185316
57.040 10.512852
57.045 10.698657
57.050 10.92573
57.055 10.645106
57.060 10.342997
57.065 10.121493
57.070 9.971489
57.075 9.543095
57.080 9.837538
57.085 10.074375
57.090 10.4042
57.095 10.694
57.100 10.958283
57.105 11.121444
57.110 11.659063
57.115 11.718261
57.120 11.328777
57.125 10.989644
57.130 11.034845
57.135 10.70098
57.140 10.5048
57.145 10.216394
57.150 9.528095
57.155 9.337111
57.160 9.452612
57.165 9.280133
57.170 9.784435
57.175 9.950233
57.180 9.988933
57.185 10.257891
57.190 10.822462
57.195 10.906321
57.200 10.932707
57.205 10.856401
57.210 10.503343
57.215 10.49614
57.220 10.623627
57.225 10.54543
57.230 10.587608
57.235 10.436101
57.240 10.541987
57.245 10.614733
57.250 10.996453
57.255 11.208507
57.260 10.897469
57.265 10.586253
57.270 10.225183
57.275 10.234878
57.280 10.824224
57.285 10.626986
57.290 10.308746
57.295 10.436977
57.300 10.831921
57.305 11.719312
57.310 11.817125
57.315 11.16108
57.320 10.695478
57.325 10.588638
57.330 10.425691
57.335 10.258184
57.340 9.900817
57.345 9.931297
57.350 10.531439
57.355 10.92294
57.360 11.150886
57.365 11.743916
57.370 11.970243
57.375 12.026515
57.380 12.009078
57.385 11.694551
57.390 11.75975
57.395 11.826335
57.400 11.164462
57.405 10.778253
57.410 10.399107
57.415 9.849962
57.420 9.472782
57.425 9.229681
57.430 8.890936
57.435 9.385149
57.440 9.590205
57.445 9.849742
57.450 10.55272
57.455 10.622935
57.460 10.552157
57.465 10.587641
57.470 9.942805
57.475 9.436316
57.480 9.136744
57.485 8.592156
57.490 8.74934
57.495 9.04213
57.500 8.996017
57.505 9.3325
57.510 9.615872
57.515 9.886064
57.520 10.467546
57.525 10.437122
57.530 10.810512
57.535 10.982309
57.540 11.07058
57.545 11.295546
57.550 11.128596
57.555 11.020601
57.560 11.5674
57.565 11.648643
57.570 11.746053
57.575 12.095306
57.580 11.438884
57.585 11.421772
57.590 10.902551
57.595 10.24579
57.600 10.420072
57.605 10.60988
57.610 10.486923
57.615 11.031395
57.620 10.919724
57.625 11.245985
57.630 11.187805
57.635 10.777849
57.640 10.856938
57.645 10.84936
57.650 11.086119
57.655 11.328528
57.660 11.001759
57.665 10.887413
57.670 10.604273
57.675 10.118899
57.680 9.772974
57.685 9.445896
57.690 9.53878
57.695 9.470398
57.700 9.429128
57.705 9.731317
57.710 9.660318
57.715 9.778684
57.720 9.822953
57.725 9.803583
57.730 10.332823
57.735 10.70939
57.740 10.806625
57.745 11.235954
57.750 11.953202
57.755 11.874497
57.760 11.707705
57.765 11.481129
57.770 11.262616
57.775 11.349336
57.780 11.033667
57.785 10.644508
57.790 10.928861
57.795 11.105495
57.800 11.021077
57.805 10.960884
57.810 11.027162
57.815 11.363976
57.820 11.67958
57.825 11.648917
57.830 11.313623
57.835 11.4536
57.840 11.139899
57.845 10.996789
57.850 10.855281
57.855 10.541596
57.860 10.731956
57.865 10.794817
57.870 10.84337
57.875 10.841169
57.880 10.718182
57.885 10.637921
57.890 10.583611
57.895 10.312728
57.900 10.330372
57.905 10.444958
57.910 10.614427
57.915 10.610966
57.920 10.889479
57.925 10.975826
57.930 10.977306
57.935 10.983322
57.940 10.964442
57.945 11.086214
57.950 11.3199
57.955 11.534989
57.960 11.589035
57.965 11.674915
57.970 12.322536
57.975 12.695151
57.980 12.962199
57.985 12.749661
57.990 12.671888
57.995 12.681173
58.000 12.455512
58.005 11.748322
58.010 11.568655
58.015 11.768728
58.020 11.511154
58.025 11.120848
58.030 11.203254
58.035 11.080005
58.040 11.234495
58.045 10.927065
58.050 10.946464
58.055 11.085187
58.060 11.460591
58.065 12.07602
58.070 12.557773
58.075 12.656147
58.080 12.542952
58.085 12.315664
58.090 11.973444
58.095 11.638412
58.100 11.63613
58.105 11.788458
58.110 12.260815
58.115 12.524618
58.120 12.634449
58.125 12.991862
58.130 12.977754
58.135 12.145549
58.140 11.793025
58.145 11.24472
58.150 11.434644
58.155 11.626284
58.160 11.256631
58.165 11.233373
58.170 11.79914
58.175 11.507058
58.180 11.254629
58.185 10.641397
58.190 10.554612
58.195 10.980857
58.200 10.946778
58.205 11.007883
58.210 11.363816
58.215 12.045029
58.220 12.274308
58.225 12.214527
58.230 11.839891
58.235 11.35255
58.240 11.300912
58.245 11.244669
58.250 11.088315
58.255 11.135275
58.260 11.28721
58.265 11.765868
58.270 12.36229
58.275 12.390465
58.280 12.563062
58.285 12.793238
58.290 12.897208
58.295 12.400907
58.300 12.34873
58.305 12.3529
58.310 12.231021
58.315 12.287756
58.320 12.195377
58.325 12.275357
58.330 13.161427
58.335 13.231594
58.340 13.508733
58.345 13.841046
58.350 13.638652
58.355 13.580792
58.360 13.526784
58.365 13.385261
58.370 13.407148
58.375 13.202251
58.380 12.908053
58.385 12.969757
58.390 13.373113
58.395 13.083774
58.400 12.952699
58.405 13.069775
58.410 13.057641
58.415 12.899054
58.420 12.218141
58.425 12.386092
58.430 12.806562
58.435 13.120524
58.440 12.797828
58.445 13.034419
58.450 13.078678
58.455 13.277827
58.460 13.023661
58.465 13.186584
58.470 13.324559
58.475 13.070494
58.480 13.008129
58.485 13.241075
58.490 13.840245
58.495 14.065234
58.500 14.001211
58.505 14.154999
58.510 14.929324
58.515 15.616488
58.520 15.593865
58.525 14.988005
58.530 14.474289
58.535 14.385893
58.540 13.989285
58.545 13.559023
58.550 12.785598
58.555 13.288269
58.560 13.874888
58.565 14.038878
