!@!!GADDS PLOTSO FILE: Chi integration type
!@!!Title/SampleName: map-f4
!@!!Comment: ?
!@!!User: Bruker Instrument Administrator
!@!!Site: University of Illinois Chicago
!@!!Frame: map-f4_01_000.gfrm
!@!!Wavelengths    1.54184   1.54056   1.54439
!@!!Frame angles: 2Theta: 63.000 Omega: 50.000 Phi: 0.000 Chi: 90.000
!@!!Integration range: 2Theta: 53.000 to 73.000  Gamma: -105.000 to -75.000
!@!!Integration method: bin normalized
!@!N
!@!SS
!@!M
!@!L 0.0 0.0 0.0 0.0
!@!XDegrees
!@!YCounts
53.000 4.308369
53.005 3.873251
53.010 3.580801
53.015 3.439828
53.020 3.21687
53.025 3.455871
53.030 3.556374
53.035 3.640599
53.040 4.040255
53.045 4.240091
53.050 4.361279
53.055 4.548129
53.060 4.664295
53.065 4.389122
53.070 4.014992
53.075 3.816415
53.080 3.877528
53.085 3.996835
53.090 3.651512
53.095 3.53475
53.100 4.051123
53.105 4.085807
53.110 4.248987
53.115 3.75767
53.120 3.803081
53.125 4.128462
53.130 4.069705
53.135 3.852141
53.140 3.857503
53.145 3.822442
53.150 3.771062
53.155 3.47315
53.160 3.673587
53.165 3.846912
53.170 3.779066
53.175 3.855092
53.180 4.090776
53.185 4.310585
53.190 4.338839
53.195 4.435761
53.200 4.465784
53.205 4.539244
53.210 4.512524
53.215 4.26095
53.220 4.518159
53.225 4.470701
53.230 4.157388
53.235 4.051951
53.240 4.041127
53.245 3.867386
53.250 3.91368
53.255 3.842952
53.260 4.073513
53.265 4.121764
53.270 4.022884
53.275 3.956159
53.280 3.956567
53.285 3.977289
53.290 3.850696
53.295 3.942976
53.300 3.733308
53.305 3.921847
53.310 4.221463
53.315 4.600914
53.320 4.685835
53.325 4.498092
53.330 4.568066
53.335 4.636746
53.340 4.311552
53.345 4.203255
53.350 4.204717
53.355 4.319263
53.360 4.38341
53.365 4.158571
53.370 4.359146
53.375 4.655466
53.380 4.449005
53.385 4.790436
53.390 4.71004
53.395 4.894415
53.400 5.24226
53.405 5.314326
53.410 5.440922
53.415 5.500882
53.420 5.161734
53.425 4.936487
53.430 4.493678
53.435 4.142112
53.440 4.212147
53.445 4.29242
53.450 3.966471
53.455 4.190902
53.460 4.627673
53.465 4.996296
53.470 5.167629
53.475 4.927527
53.480 5.292749
53.485 5.30432
53.490 5.462632
53.495 5.217549
53.500 5.101727
53.505 5.231314
53.510 5.166747
53.515 4.989918
53.520 4.981941
53.525 4.484512
53.530 4.655271
53.535 4.717544
53.540 4.395051
53.545 4.307965
53.550 4.473977
53.555 4.76489
53.560 5.177583
53.565 4.969007
53.570 4.966241
53.575 5.122397
53.580 5.161798
53.585 5.142153
53.590 5.206256
53.595 5.066657
53.600 5.111291
53.605 5.172367
53.610 5.127761
53.615 4.995898
53.620 4.715561
53.625 4.90837
53.630 4.929102
53.635 5.075542
53.640 4.819203
53.645 4.807386
53.650 4.886195
53.655 4.881477
53.660 4.708528
53.665 4.806165
53.670 4.425783
53.675 4.397023
53.680 4.259408
53.685 4.145505
53.690 4.246275
53.695 3.953954
53.700 3.895946
53.705 4.138747
53.710 4.303396
53.715 4.411698
53.720 4.444522
53.725 4.562752
53.730 5.079544
53.735 5.057077
53.740 4.981164
53.745 4.811767
53.750 4.967023
53.755 4.766013
53.760 4.39242
53.765 4.387503
53.770 4.517366
53.775 4.521274
53.780 4.614751
53.785 4.398252
53.790 4.282857
53.795 4.246171
53.800 4.042442
53.805 4.358232
53.810 4.447651
53.815 4.518043
53.820 4.920905
53.825 5.320496
53.830 5.31539
53.835 5.320681
53.840 5.002722
53.845 4.740013
53.850 4.434449
53.855 4.168827
53.860 4.185775
53.865 4.656415
53.870 4.584478
53.875 4.704505
53.880 4.89195
53.885 4.951114
53.890 4.994605
53.895 4.810972
53.900 4.363775
53.905 4.626085
53.910 4.603758
53.915 4.396441
53.920 4.220958
53.925 3.973494
53.930 3.853585
53.935 3.972078
53.940 3.745419
53.945 3.922684
53.950 4.316713
53.955 4.523432
53.960 4.829483
53.965 5.064267
53.970 4.912522
53.975 4.848412
53.980 4.455627
53.985 4.052553
53.990 4.046448
53.995 3.719006
54.000 3.347517
54.005 3.236742
54.010 3.638185
54.015 3.723258
54.020 3.804709
54.025 3.817739
54.030 3.847392
54.035 4.135742
54.040 4.225407
54.045 4.131424
54.050 4.189664
54.055 4.213596
54.060 3.99467
54.065 3.993086
54.070 3.971437
54.075 4.031369
54.080 4.400095
54.085 4.500595
54.090 4.666671
54.095 4.872732
54.100 4.714629
54.105 4.576693
54.110 4.45653
54.115 4.392881
54.120 4.357742
54.125 4.09244
54.130 4.477111
54.135 4.584235
54.140 4.698998
54.145 4.721331
54.150 4.882269
54.155 5.090766
54.160 5.216991
54.165 4.815988
54.170 4.68174
54.175 4.846663
54.180 4.502916
54.185 4.28325
54.190 4.053391
54.195 4.102292
54.200 4.461013
54.205 4.752619
54.210 4.571329
54.215 4.719442
54.220 4.583653
54.225 4.483702
54.230 4.560466
54.235 4.451286
54.240 4.4169
54.245 4.551651
54.250 4.573994
54.255 4.677175
54.260 4.722858
54.265 4.584469
54.270 4.464607
54.275 4.409488
54.280 4.561525
54.285 4.530422
54.290 4.39747
54.295 4.17142
54.300 4.194402
54.305 4.350555
54.310 3.990114
54.315 3.820926
54.320 3.751009
54.325 3.974274
54.330 4.440534
54.335 4.63177
54.340 4.703634
54.345 4.79632
54.350 5.15748
54.355 5.237257
54.360 5.284723
54.365 5.051205
54.370 4.796705
54.375 4.954586
54.380 4.975605
54.385 5.007213
54.390 4.901983
54.395 4.998229
54.400 5.050563
54.405 4.896279
54.410 4.755525
54.415 4.598056
54.420 4.334463
54.425 4.282394
54.430 4.179749
54.435 4.092282
54.440 4.497859
54.445 4.528021
54.450 4.7848
54.455 4.697018
54.460 4.564064
54.465 4.508088
54.470 4.612787
54.475 4.484232
54.480 4.357095
54.485 4.330842
54.490 4.503743
54.495 4.730132
54.500 4.839306
54.505 4.461028
54.510 4.398043
54.515 4.363142
54.520 4.291317
54.525 4.298273
54.530 3.965486
54.535 3.908545
54.540 3.885022
54.545 3.656131
54.550 3.73822
54.555 3.87417
54.560 3.92251
54.565 3.97615
54.570 4.035674
54.575 4.099051
54.580 4.197498
54.585 4.39311
54.590 4.428281
54.595 4.76131
54.600 5.091308
54.605 5.463325
54.610 5.816629
54.615 5.933333
54.620 5.579241
54.625 5.330123
54.630 5.343168
54.635 5.107124
54.640 4.889506
54.645 4.653255
54.650 4.740752
54.655 5.100655
54.660 4.998012
54.665 4.781005
54.670 4.724233
54.675 4.646401
54.680 4.774228
54.685 4.591373
54.690 4.538683
54.695 4.567893
54.700 4.512063
54.705 4.570863
54.710 4.575275
54.715 4.609634
54.720 4.909618
54.725 5.133003
54.730 5.400372
54.735 5.366965
54.740 5.402577
54.745 5.183676
54.750 4.782003
54.755 4.42862
54.760 4.154789
54.765 4.256563
54.770 4.343867
54.775 4.425719
54.780 4.540043
54.785 5.145074
54.790 5.295532
54.795 5.476559
54.800 5.689904
54.805 5.942493
54.810 5.866621
54.815 5.631002
54.820 5.365941
54.825 5.054519
54.830 4.875719
54.835 4.485162
54.840 4.43153
54.845 4.76908
54.850 4.897151
54.855 4.603144
54.860 4.675215
54.865 4.74643
54.870 4.641643
54.875 4.616797
54.880 4.352215
54.885 4.188841
54.890 4.31573
54.895 4.219784
54.900 4.071675
54.905 4.091368
54.910 4.44073
54.915 4.999173
54.920 5.328706
54.925 5.451538
54.930 5.291523
54.935 5.303744
54.940 5.565666
54.945 5.336154
54.950 4.977579
54.955 4.612216
54.960 4.668114
54.965 4.949188
54.970 5.054043
54.975 4.851081
54.980 4.598174
54.985 4.81464
54.990 5.106388
54.995 5.121456
55.000 5.011975
55.005 4.828729
55.010 5.167439
55.015 5.447847
55.020 5.610966
55.025 5.838254
55.030 6.087502
55.035 6.033707
55.040 5.98167
55.045 5.690839
55.050 5.751656
55.055 5.505785
55.060 5.252215
55.065 4.732459
55.070 4.632739
55.075 4.763842
55.080 5.109169
55.085 5.038469
55.090 4.854466
55.095 5.164198
55.100 5.506338
55.105 5.732051
55.110 5.363081
55.115 4.963007
55.120 4.745646
55.125 4.958378
55.130 4.914174
55.135 5.23668
55.140 5.219266
55.145 5.166393
55.150 5.081775
55.155 5.205081
55.160 5.162407
55.165 5.035265
55.170 4.817497
55.175 4.963185
55.180 5.193952
55.185 5.193168
55.190 5.215708
55.195 5.340878
55.200 5.163071
55.205 5.05977
55.210 5.374972
55.215 5.575618
55.220 5.561108
55.225 5.385006
55.230 4.968807
55.235 5.057107
55.240 4.757897
55.245 4.508946
55.250 4.387461
55.255 4.597703
55.260 4.708197
55.265 4.855998
55.270 5.010145
55.275 4.975075
55.280 4.829999
55.285 4.524914
55.290 4.850742
55.295 4.819942
55.300 4.667508
55.305 4.42464
55.310 4.384535
55.315 4.33844
55.320 4.538205
55.325 4.301617
55.330 4.554744
55.335 5.004794
55.340 5.434397
55.345 5.729925
55.350 6.023056
55.355 5.758183
55.360 5.438329
55.365 5.007686
55.370 4.955986
55.375 4.809894
55.380 4.670983
55.385 4.758431
55.390 5.121701
55.395 5.382112
55.400 5.414772
55.405 5.404692
55.410 5.670776
55.415 5.977456
55.420 5.642229
55.425 5.328312
55.430 5.344371
55.435 5.51084
55.440 5.616423
55.445 5.826776
55.450 5.595018
55.455 5.866001
55.460 5.753141
55.465 5.974265
55.470 5.896316
55.475 5.755145
55.480 5.417825
55.485 5.416779
55.490 5.428162
55.495 5.38821
55.500 5.100617
55.505 4.875672
55.510 4.57719
55.515 4.440333
55.520 4.286446
55.525 4.398499
55.530 4.873926
55.535 4.960305
55.540 5.306897
55.545 5.492997
55.550 5.660105
55.555 5.684376
55.560 5.673489
55.565 5.288094
55.570 5.403812
55.575 5.359744
55.580 5.385838
55.585 5.198315
55.590 5.121515
55.595 5.233585
55.600 5.371298
55.605 5.247892
55.610 5.248549
55.615 5.404096
55.620 5.571982
55.625 5.532477
55.630 5.602278
55.635 5.646136
55.640 5.354127
55.645 5.102428
55.650 5.013706
55.655 4.944142
55.660 5.021789
55.665 4.862046
55.670 4.973319
55.675 5.462763
55.680 5.717193
55.685 5.752382
55.690 5.774774
55.695 5.661489
55.700 5.87215
55.705 5.739635
55.710 5.508693
55.715 5.40419
55.720 5.47525
55.725 5.597938
55.730 5.570073
55.735 5.18349
55.740 4.988907
55.745 4.848334
55.750 5.137523
55.755 5.370312
55.760 5.398699
55.765 5.223894
55.770 5.449768
55.775 5.789649
55.780 5.63143
55.785 5.295877
55.790 5.225612
55.795 5.365368
55.800 5.620875
55.805 5.983189
55.810 5.950062
55.815 5.94591
55.820 6.185616
55.825 5.911453
55.830 5.977918
55.835 6.081836
55.840 6.130493
55.845 6.297888
55.850 6.680402
55.855 6.680897
55.860 6.771321
55.865 6.715289
55.870 6.342584
55.875 5.844024
55.880 5.728483
55.885 5.600333
55.890 5.466518
55.895 5.339934
55.900 5.114832
55.905 5.088652
55.910 5.708506
55.915 5.984098
55.920 6.001375
55.925 6.072443
55.930 6.334426
55.935 6.522944
55.940 6.422446
55.945 5.92059
55.950 5.946634
55.955 5.979273
55.960 5.973833
55.965 5.754094
55.970 6.001639
55.975 6.061045
55.980 6.13809
55.985 6.134835
55.990 5.878624
55.995 5.618187
56.000 5.892035
56.005 5.833519
56.010 5.8142
56.015 5.505412
56.020 5.644548
56.025 5.97186
56.030 5.913124
56.035 5.52354
56.040 5.369732
56.045 5.66846
56.050 5.980895
56.055 5.731468
56.060 5.853454
56.065 6.146649
56.070 6.069611
56.075 6.234624
56.080 6.117946
56.085 5.780924
56.090 5.700413
56.095 5.461065
56.100 5.469233
56.105 5.563028
56.110 5.101799
56.115 5.204248
56.120 5.351305
56.125 5.559426
56.130 5.645885
56.135 5.58746
56.140 5.945396
56.145 6.414597
56.150 6.493074
56.155 6.26843
56.160 6.193534
56.165 6.440346
56.170 6.632317
56.175 6.440539
56.180 6.078535
56.185 5.726779
56.190 5.873741
56.195 5.554173
56.200 5.448691
56.205 5.58208
56.210 5.766061
56.215 6.053112
56.220 6.532155
56.225 6.475804
56.230 6.360335
56.235 6.040458
56.240 5.660161
56.245 5.368109
56.250 4.907016
56.255 4.602475
56.260 5.023102
56.265 5.253075
56.270 5.440732
56.275 5.369828
56.280 5.288316
56.285 5.751472
56.290 5.857476
56.295 5.746716
56.300 5.724254
56.305 6.168528
56.310 6.724436
56.315 6.901669
56.320 6.632225
56.325 6.112255
56.330 5.745334
56.335 5.789296
56.340 5.532857
56.345 5.333264
56.350 5.099371
56.355 5.090705
56.360 5.521674
56.365 5.875749
56.370 5.393928
56.375 5.198013
56.380 5.145028
56.385 5.229428
56.390 5.227176
56.395 5.324851
56.400 5.240813
56.405 5.426775
56.410 5.43866
56.415 5.563733
56.420 5.754644
56.425 5.362648
56.430 5.104019
56.435 5.344565
56.440 5.475994
56.445 5.44894
56.450 5.288662
56.455 5.114691
56.460 5.836627
56.465 6.177385
56.470 6.093814
56.475 6.138545
56.480 6.330008
56.485 6.512097
56.490 6.791067
56.495 6.595293
56.500 6.774994
56.505 6.713548
56.510 6.498882
56.515 6.490408
56.520 6.430422
56.525 6.805081
56.530 6.714859
56.535 6.347504
56.540 6.41071
56.545 6.72757
56.550 6.687737
56.555 6.732951
56.560 6.544964
56.565 6.852721
56.570 6.991616
56.575 6.696633
56.580 6.594443
56.585 6.786757
56.590 6.511139
56.595 6.243165
56.600 5.978444
56.605 5.861986
56.610 5.951076
56.615 5.599685
56.620 5.148575
56.625 5.241941
56.630 5.590524
56.635 5.503576
56.640 5.652327
56.645 5.750236
56.650 6.052187
56.655 6.04397
56.660 5.898538
56.665 5.515338
56.670 5.390391
56.675 5.471515
56.680 5.646831
56.685 5.748574
56.690 5.95176
56.695 5.968456
56.700 6.131531
56.705 6.2472
56.710 6.151391
56.715 6.091455
56.720 6.14861
56.725 6.151629
56.730 6.667089
56.735 7.075646
56.740 7.117022
56.745 7.091197
56.750 7.357756
56.755 7.383771
56.760 7.258502
56.765 6.779586
56.770 6.563209
56.775 6.894107
56.780 7.013202
56.785 6.506452
56.790 6.339493
56.795 6.210731
56.800 6.37076
56.805 6.669511
56.810 6.661189
56.815 6.504035
56.820 6.883797
56.825 7.088717
56.830 7.29385
56.835 7.329345
56.840 6.781532
56.845 6.498076
56.850 6.387418
56.855 6.138935
56.860 6.168938
56.865 6.385732
56.870 6.386904
56.875 6.624619
56.880 6.961648
56.885 7.162185
56.890 7.233925
56.895 7.074832
56.900 7.180487
56.905 7.239528
56.910 7.096821
56.915 7.158791
56.920 7.312488
56.925 7.276136
56.930 7.245632
56.935 6.816854
56.940 6.368835
56.945 6.133802
56.950 5.678813
56.955 5.364612
56.960 5.546999
56.965 5.406363
56.970 5.70262
56.975 6.255618
56.980 6.658959
56.985 6.913083
56.990 7.190804
56.995 7.238214
57.000 7.681174
57.005 7.445768
57.010 7.281755
57.015 7.296329
57.020 7.137277
57.025 6.969922
57.030 6.868315
57.035 6.724176
57.040 6.741501
57.045 6.41386
57.050 6.630863
57.055 6.828235
57.060 6.912656
57.065 6.713928
57.070 6.221078
57.075 5.994975
57.080 5.615354
57.085 5.130779
57.090 4.785831
57.095 5.100303
57.100 5.285151
57.105 5.379827
57.110 5.850473
57.115 6.550632
57.120 6.827017
57.125 7.13449
57.130 6.689545
57.135 6.762164
57.140 7.170395
57.145 7.623419
57.150 7.571849
57.155 7.43409
57.160 7.193839
57.165 7.306166
57.170 7.259947
57.175 7.053054
57.180 6.440079
57.185 6.389363
57.190 6.462834
57.195 6.615253
57.200 6.882729
57.205 6.683005
57.210 6.5047
57.215 6.17082
57.220 5.944401
57.225 5.867954
57.230 5.982299
57.235 5.692358
57.240 5.674849
57.245 5.63889
57.250 5.663313
57.255 5.555066
57.260 5.441241
57.265 5.161645
57.270 5.480469
57.275 5.553648
57.280 5.835438
57.285 6.093124
57.290 6.259488
57.295 6.003429
57.300 6.295159
57.305 6.203313
57.310 6.409692
57.315 6.34695
57.320 6.422982
57.325 6.915933
57.330 7.382092
57.335 7.073653
57.340 7.013967
57.345 7.038702
57.350 6.963691
57.355 6.759424
57.360 6.58684
57.365 6.416987
57.370 6.652281
57.375 6.559189
57.380 6.444105
57.385 6.560541
57.390 6.696484
57.395 6.506933
57.400 6.570917
57.405 6.619568
57.410 6.884782
57.415 6.719404
57.420 6.841943
57.425 6.653743
57.430 6.539734
57.435 6.661906
57.440 6.441593
57.445 5.996154
57.450 5.842364
57.455 5.708733
57.460 5.968179
57.465 6.42389
57.470 6.322575
57.475 6.810645
57.480 7.167507
57.485 7.239844
57.490 7.465781
57.495 7.741627
57.500 7.42953
57.505 7.614366
57.510 7.222492
57.515 7.544134
57.520 7.639512
57.525 7.471945
57.530 7.444942
57.535 7.5963
57.540 7.822858
57.545 7.760058
57.550 7.695658
57.555 7.760937
57.560 7.643614
57.565 7.754385
57.570 7.730546
57.575 7.582605
57.580 7.823283
57.585 7.766636
57.590 8.149872
57.595 8.231519
57.600 7.999568
57.605 7.937179
57.610 7.992215
57.615 7.773268
57.620 7.706978
57.625 7.668912
57.630 7.629136
57.635 7.258565
57.640 6.819965
57.645 6.54933
57.650 6.555123
57.655 6.465192
57.660 6.613199
57.665 6.524051
57.670 6.692423
57.675 6.973351
57.680 7.040411
57.685 7.015251
57.690 7.066679
57.695 6.675362
57.700 7.26967
57.705 7.383216
57.710 7.465008
57.715 7.408816
57.720 7.270353
57.725 7.183652
57.730 7.22965
57.735 6.907257
57.740 7.082506
57.745 7.143076
57.750 7.381492
57.755 7.602545
57.760 7.512054
57.765 7.44792
57.770 7.147849
57.775 6.965249
57.780 7.209165
57.785 7.373258
57.790 7.303725
57.795 7.636208
57.800 7.867266
57.805 8.062149
57.810 7.872059
57.815 7.826135
57.820 7.984117
57.825 8.104161
57.830 7.722085
57.835 7.686134
57.840 7.944969
57.845 7.904492
57.850 7.579867
57.855 7.318528
57.860 7.378458
57.865 7.366632
57.870 7.130661
57.875 6.97046
57.880 6.986616
57.885 6.941338
57.890 6.880667
57.895 6.974973
57.900 7.285977
57.905 7.335697
57.910 7.391362
57.915 7.381622
57.920 7.531618
57.925 7.137484
57.930 6.897858
57.935 6.880859
57.940 6.791088
57.945 6.970596
57.950 7.04611
57.955 6.949437
57.960 7.455977
57.965 7.451939
57.970 7.159111
57.975 7.251835
57.980 7.473622
57.985 7.920222
57.990 8.274716
57.995 8.031954
58.000 7.828918
58.005 7.869889
58.010 7.97838
58.015 7.984688
58.020 7.720712
58.025 7.717338
58.030 8.013044
58.035 8.199819
58.040 8.163634
58.045 8.101874
58.050 8.001659
58.055 8.168229
58.060 7.901493
58.065 8.048289
58.070 8.085839
58.075 8.259546
58.080 8.251201
58.085 8.497593
58.090 8.219904
58.095 8.129731
58.100 8.206411
58.105 8.008531
58.110 7.913788
58.115 7.940474
58.120 7.80614
58.125 7.828959
58.130 7.916272
58.135 7.782182
58.140 8.501193
58.145 8.511063
58.150 8.620442
58.155 8.598674
58.160 8.498338
58.165 8.259894
58.170 8.02575
58.175 7.605166
58.180 7.320637
58.185 6.953799
58.190 6.993142
58.195 7.175218
58.200 7.310575
58.205 7.413535
58.210 7.448182
58.215 7.708621
58.220 7.730001
58.225 7.502923
58.230 7.634579
58.235 8.005137
58.240 8.271662
58.245 8.776772
58.250 8.696
58.255 8.92657
58.260 9.141703
58.265 9.171329
58.270 9.000647
58.275 9.022488
58.280 8.641043
58.285 8.756266
58.290 8.699318
58.295 9.124771
58.300 8.970455
58.305 9.28809
58.310 9.251647
58.315 9.624335
58.320 9.652219
58.325 9.484244
58.330 9.159019
58.335 9.252542
58.340 8.99106
58.345 8.832854
58.350 8.43218
58.355 8.764287
58.360 8.7351
58.365 8.884887
58.370 9.332047
58.375 9.755816
58.380 9.875731
58.385 9.49474
58.390 9.20089
58.395 9.081138
58.400 8.778033
58.405 8.270528
58.410 7.486348
58.415 7.275278
58.420 7.573158
58.425 8.032653
58.430 8.659551
58.435 8.717376
58.440 8.799294
58.445 9.468836
58.450 9.708053
58.455 10.07494
58.460 9.920038
58.465 9.699203
58.470 9.726422
58.475 9.873919
58.480 9.757332
58.485 9.976531
58.490 10.503787
58.495 11.357177
58.500 11.892156
58.505 11.998279
58.510 12.086336
58.515 12.590206
58.520 12.892791
58.525 12.505669
58.530 12.025981
58.535 12.115865
58.540 12.110738
58.545 11.966916
58.550 11.594905
58.555 11.277956
58.560 11.789981
58.565 11.992118
58.570 12.108823
58.575 12.872542
58.580 13.727944
58.585 13.783284
58.590 14.041614
58.595 13.834661
58.600 14.061484
58.605 14.022316
58.610 13.527175
58.615 13.301152
58.620 13.939948
58.625 14.589894
58.630 14.756578
58.635 15.060114
58.640 15.979268
58.645 17.021074
58.650 17.168776
58.655 17.118797
58.660 17.10667
58.665 16.785769
58.670 16.356426
58.675 16.24617
58.680 16.138338
58.685 16.102173
58.690 16.120235
58.695 16.398079
58.700 16.572081
58.705 16.350132
58.710 15.759737
58.715 15.423395
58.720 15.326763
58.725 15.524902
58.730 15.025394
58.735 15.148218
58.740 15.507914
58.745 15.848359
