!@!!GADDS PLOTSO FILE: Chi integration type
!@!!Title/SampleName: map-187
!@!!Comment: ?
!@!!User: Bruker Instrument Administrator
!@!!Site: University of Illinois Chicago
!@!!Frame: map-187_01_000.gfrm
!@!!Wavelengths    1.54184   1.54056   1.54439
!@!!Frame angles: 2Theta: 63.000 Omega: 50.000 Phi: 0.000 Chi: 90.000
!@!!Integration range: 2Theta: 53.000 to 73.000  Gamma: -105.000 to -75.000
!@!!Integration method: bin normalized
!@!N
!@!SS
!@!M
!@!L 0.0 0.0 0.0 0.0
!@!XDegrees
!@!YCounts
53.000 10.48183
53.005 10.589513
53.010 10.263684
53.015 10.491714
53.020 10.819405
53.025 11.32275
53.030 11.564655
53.035 11.784721
53.040 12.107685
53.045 11.496878
53.050 11.013114
53.055 9.996678
53.060 9.706386
53.065 9.725925
53.070 9.880328
53.075 10.149273
53.080 10.43251
53.085 10.700858
53.090 10.562141
53.095 10.412401
53.100 10.616985
53.105 10.440999
53.110 9.981141
53.115 9.848244
53.120 9.581005
53.125 10.063676
53.130 9.794732
53.135 9.30342
53.140 9.847229
53.145 10.101742
53.150 9.913362
53.155 10.220735
53.160 10.511353
53.165 10.819504
53.170 10.947644
53.175 10.53189
53.180 10.412566
53.185 10.423501
53.190 10.492958
53.195 10.359506
53.200 10.303173
53.205 9.903469
53.210 9.732686
53.215 9.830156
53.220 10.157853
53.225 9.909322
53.230 10.1317
53.235 10.312668
53.240 10.432724
53.245 10.520549
53.250 10.47362
53.255 10.181091
53.260 9.995472
53.265 9.571473
53.270 9.721748
53.275 10.481033
53.280 10.506522
53.285 9.984095
53.290 10.049319
53.295 10.19534
53.300 10.527268
53.305 10.190914
53.310 9.419695
53.315 9.757506
53.320 10.013318
53.325 9.764177
53.330 9.789097
53.335 9.897629
53.340 10.146257
53.345 10.590995
53.350 11.227218
53.355 11.410131
53.360 11.355879
53.365 11.391237
53.370 11.037079
53.375 11.293937
53.380 11.416719
53.385 10.885741
53.390 11.02382
53.395 10.9965
53.400 11.005784
53.405 11.453494
53.410 11.333736
53.415 10.699926
53.420 10.984894
53.425 11.220161
53.430 11.09907
53.435 10.65652
53.440 9.949241
53.445 9.766816
53.450 9.814708
53.455 9.426564
53.460 9.694023
53.465 10.005719
53.470 10.032019
53.475 10.114907
53.480 10.449405
53.485 10.746175
53.490 11.228289
53.495 11.389038
53.500 11.451767
53.505 11.332313
53.510 11.282435
53.515 11.003351
53.520 10.920124
53.525 10.239448
53.530 10.114333
53.535 10.428511
53.540 10.725528
53.545 10.52708
53.550 10.234003
53.555 10.139714
53.560 10.345636
53.565 10.40637
53.570 10.276122
53.575 10.391118
53.580 10.796751
53.585 10.745605
53.590 10.777011
53.595 11.032691
53.600 11.024825
53.605 11.274799
53.610 11.123315
53.615 11.269069
53.620 11.189489
53.625 11.045637
53.630 10.704189
53.635 10.569894
53.640 10.582375
53.645 10.590203
53.650 10.64537
53.655 10.837474
53.660 10.586053
53.665 10.455648
53.670 10.801185
53.675 11.135811
53.680 11.42922
53.685 11.584781
53.690 12.186041
53.695 12.648358
53.700 12.749018
53.705 12.329746
53.710 11.769748
53.715 11.543439
53.720 11.229092
53.725 11.568175
53.730 11.326854
53.735 11.139132
53.740 11.011773
53.745 11.395752
53.750 11.585121
53.755 11.382694
53.760 10.79436
53.765 11.133422
53.770 11.480013
53.775 11.81275
53.780 11.549812
53.785 11.906241
53.790 11.592449
53.795 11.424744
53.800 11.302534
53.805 10.922801
53.810 10.806222
53.815 10.919617
53.820 10.531511
53.825 10.948699
53.830 11.107295
53.835 11.843214
53.840 11.995352
53.845 11.736082
53.850 11.577853
53.855 11.595063
53.860 11.195471
53.865 10.846828
53.870 10.308591
53.875 10.574823
53.880 10.397468
53.885 10.121605
53.890 10.650087
53.895 10.952386
53.900 10.835812
53.905 11.189545
53.910 11.457488
53.915 11.691611
53.920 12.190816
53.925 11.941916
53.930 12.23961
53.935 12.128409
53.940 11.549174
53.945 11.593365
53.950 11.682982
53.955 11.059875
53.960 10.961902
53.965 10.926413
53.970 10.792057
53.975 10.585119
53.980 10.47617
53.985 10.839518
53.990 11.685496
53.995 11.902181
54.000 11.930381
54.005 12.028081
54.010 12.070055
54.015 12.101408
54.020 11.768555
54.025 11.285926
54.030 10.869965
54.035 10.722676
54.040 10.911949
54.045 10.817213
54.050 10.728889
54.055 11.11588
54.060 11.024667
54.065 11.19148
54.070 11.126953
54.075 10.918915
54.080 10.817418
54.085 10.458029
54.090 10.062027
54.095 10.376644
54.100 10.361077
54.105 10.394964
54.110 11.024643
54.115 11.512228
54.120 11.910313
54.125 12.096869
54.130 11.568037
54.135 11.466635
54.140 11.589581
54.145 11.700239
54.150 11.583754
54.155 11.473449
54.160 11.375992
54.165 11.75899
54.170 12.479085
54.175 12.183571
54.180 11.695034
54.185 11.714153
54.190 11.900259
54.195 12.081623
54.200 11.613047
54.205 11.435933
54.210 11.750338
54.215 11.82755
54.220 11.775414
54.225 11.85222
54.230 12.261231
54.235 12.786245
54.240 12.883072
54.245 12.163989
54.250 12.207726
54.255 12.545554
54.260 12.498151
54.265 12.240618
54.270 11.905193
54.275 11.837286
54.280 12.42716
54.285 11.964276
54.290 11.59129
54.295 11.348443
54.300 11.369823
54.305 11.687181
54.310 11.216913
54.315 11.42135
54.320 11.810645
54.325 11.508598
54.330 11.408163
54.335 11.105551
54.340 10.758363
54.345 10.699862
54.350 10.729711
54.355 10.919813
54.360 11.023976
54.365 10.895951
54.370 10.897236
54.375 11.414001
54.380 11.482632
54.385 11.413642
54.390 11.530055
54.395 11.602236
54.400 11.271383
54.405 11.109001
54.410 11.544801
54.415 11.628929
54.420 11.052857
54.425 11.016207
54.430 11.575327
54.435 12.020073
54.440 11.739429
54.445 11.047832
54.450 11.159638
54.455 11.16043
54.460 10.900811
54.465 10.587511
54.470 10.362059
54.475 10.448036
54.480 10.418504
54.485 10.3627
54.490 10.537032
54.495 10.476866
54.500 10.883926
54.505 10.846851
54.510 10.529158
54.515 10.533271
54.520 10.455739
54.525 10.051706
54.530 9.802752
54.535 9.620694
54.540 9.879829
54.545 10.174892
54.550 10.198691
54.555 10.222916
54.560 10.421944
54.565 10.844241
54.570 10.702662
54.575 10.746403
54.580 11.217913
54.585 11.219309
54.590 11.51161
54.595 11.639729
54.600 11.216128
54.605 11.143984
54.610 10.879162
54.615 11.166677
54.620 11.254569
54.625 10.904034
54.630 11.014054
54.635 10.717304
54.640 10.860182
54.645 10.626289
54.650 10.031721
54.655 10.101813
54.660 10.099194
54.665 10.367557
54.670 10.625978
54.675 10.453144
54.680 10.841538
54.685 11.261646
54.690 11.379533
54.695 11.117702
54.700 11.097999
54.705 11.496934
54.710 11.502557
54.715 11.311805
54.720 10.913177
54.725 11.314878
54.730 11.390945
54.735 11.424095
54.740 11.107282
54.745 10.908591
54.750 11.10363
54.755 11.225917
54.760 10.83602
54.765 10.960942
54.770 11.35385
54.775 12.148833
54.780 12.297861
54.785 12.249131
54.790 12.569951
54.795 12.6166
54.800 12.270333
54.805 11.667307
54.810 11.385188
54.815 11.612375
54.820 12.026633
54.825 11.929569
54.830 11.944435
54.835 12.36744
54.840 12.98687
54.845 12.740561
54.850 12.866793
54.855 12.552273
54.860 12.761737
54.865 12.917539
54.870 12.452079
54.875 12.41168
54.880 13.040058
54.885 12.674794
54.890 12.711555
54.895 12.600344
54.900 12.173672
54.905 11.93886
54.910 11.61931
54.915 11.128642
54.920 11.330587
54.925 10.987137
54.930 11.263298
54.935 11.79293
54.940 12.335669
54.945 12.533545
54.950 12.431343
54.955 12.292173
54.960 12.444006
54.965 12.483088
54.970 12.283327
54.975 11.579659
54.980 11.725336
54.985 12.336535
54.990 12.469542
54.995 11.972101
55.000 11.875911
55.005 11.763827
55.010 11.914356
55.015 11.600945
55.020 11.365388
55.025 11.501042
55.030 11.722102
55.035 11.928262
55.040 12.538145
55.045 13.124783
55.050 13.169055
55.055 13.213236
55.060 13.295587
55.065 13.214553
55.070 13.303205
55.075 13.565232
55.080 13.653244
55.085 13.437724
55.090 13.358362
55.095 13.648289
55.100 13.545956
55.105 13.431936
55.110 12.635669
55.115 12.512084
55.120 12.660509
55.125 12.633948
55.130 12.428563
55.135 12.288171
55.140 12.168935
55.145 12.009375
55.150 11.532332
55.155 11.338985
55.160 11.485754
55.165 11.352384
55.170 11.31065
55.175 10.820885
55.180 10.760628
55.185 11.262794
55.190 11.38245
55.195 11.188149
55.200 11.424209
55.205 11.874136
55.210 12.654157
55.215 12.789621
55.220 12.425937
55.225 12.456212
55.230 12.426173
55.235 12.41217
55.240 11.875029
55.245 11.932069
55.250 12.086643
55.255 11.89656
55.260 12.039636
55.265 11.897687
55.270 11.592376
55.275 11.911424
55.280 11.416164
55.285 11.03126
55.290 10.432805
55.295 10.31347
55.300 10.223902
55.305 10.199438
55.310 10.475667
55.315 10.908463
55.320 11.194748
55.325 11.680945
55.330 11.676785
55.335 12.005359
55.340 12.359867
55.345 12.533194
55.350 12.927036
55.355 13.000425
55.360 13.011893
55.365 13.037217
55.370 12.799357
55.375 12.551583
55.380 12.227701
55.385 11.685059
55.390 11.585723
55.395 11.875599
55.400 11.449662
55.405 11.26389
55.410 10.905154
55.415 11.022919
55.420 11.135906
55.425 11.222577
55.430 10.64565
55.435 10.396892
55.440 10.461484
55.445 10.767216
55.450 10.708467
55.455 10.607827
55.460 10.527916
55.465 11.635134
55.470 12.083579
55.475 12.188083
55.480 11.764513
55.485 11.689303
55.490 11.884417
55.495 11.378694
55.500 11.251026
55.505 11.554479
55.510 11.860527
55.515 12.031554
55.520 12.252832
55.525 12.315743
55.530 12.751479
55.535 12.307872
55.540 11.615873
55.545 11.279113
55.550 11.407027
55.555 11.345991
55.560 11.196548
55.565 11.277067
55.570 11.435513
55.575 12.067473
55.580 12.557573
55.585 12.791933
55.590 13.03902
55.595 13.132587
55.600 13.214482
55.605 13.207892
55.610 12.977707
55.615 12.636673
55.620 12.307686
55.625 11.824754
55.630 11.546973
55.635 11.200809
55.640 10.728895
55.645 10.887471
55.650 10.850489
55.655 11.323562
55.660 11.405383
55.665 11.510561
55.670 11.363076
55.675 11.525719
55.680 11.164257
55.685 11.091844
55.690 10.787358
55.695 10.748019
55.700 11.385539
55.705 11.668315
55.710 11.552139
55.715 11.445291
55.720 11.551148
55.725 11.896458
55.730 12.186133
55.735 12.043979
55.740 12.553766
55.745 13.28378
55.750 13.270433
55.755 13.201448
55.760 12.84486
55.765 12.989325
55.770 12.855435
55.775 12.469035
55.780 12.051115
55.785 12.636938
55.790 12.857122
55.795 13.314752
55.800 13.377607
55.805 12.991078
55.810 13.019852
55.815 13.385535
55.820 13.010075
55.825 12.966825
55.830 12.948525
55.835 13.449238
55.840 14.401475
55.845 14.576537
55.850 14.400414
55.855 14.551331
55.860 14.818734
55.865 14.621016
55.870 13.96373
55.875 13.836295
55.880 13.770055
55.885 13.757841
55.890 13.955309
55.895 13.762284
55.900 13.516521
55.905 13.703684
55.910 13.403882
55.915 13.470098
55.920 13.329471
55.925 12.808034
55.930 12.828685
55.935 12.60702
55.940 12.364694
55.945 12.429117
55.950 12.412544
55.955 12.278587
55.960 12.1873
55.965 12.518681
55.970 12.536068
55.975 12.190275
55.980 12.471089
55.985 12.394161
55.990 12.817186
55.995 12.552559
56.000 12.074752
56.005 11.954835
56.010 12.11864
56.015 11.69577
56.020 12.281795
56.025 12.322966
56.030 12.43256
56.035 12.719415
56.040 13.018378
56.045 13.202615
56.050 13.21521
56.055 12.501811
56.060 11.999314
56.065 11.898739
56.070 12.041762
56.075 11.679277
56.080 11.734748
56.085 12.248281
56.090 12.777802
56.095 13.520904
56.100 13.556083
56.105 13.603928
56.110 13.567236
56.115 13.223647
56.120 12.775753
56.125 12.535924
56.130 12.18012
56.135 11.772826
56.140 11.848549
56.145 12.231682
56.150 12.722703
56.155 12.501445
56.160 12.041278
56.165 12.344248
56.170 12.473832
56.175 12.473045
56.180 12.250553
56.185 11.906713
56.190 12.038445
56.195 12.442461
56.200 12.566964
56.205 13.07346
56.210 13.240778
56.215 12.769103
56.220 13.151781
56.225 13.515245
56.230 13.719858
56.235 13.991681
56.240 13.860723
56.245 14.075648
56.250 14.247628
56.255 13.59822
56.260 13.133953
56.265 12.749219
56.270 12.860997
56.275 12.955156
56.280 12.567132
56.285 13.11727
56.290 13.745333
56.295 14.450656
56.300 14.185662
56.305 13.690255
56.310 13.523921
56.315 13.907038
56.320 13.369028
56.325 12.910912
56.330 12.296305
56.335 12.501902
56.340 12.602153
56.345 12.582606
56.350 12.299911
56.355 12.412442
56.360 13.113843
56.365 13.349179
56.370 12.790133
56.375 12.67224
56.380 12.024353
56.385 11.614502
56.390 11.670053
56.395 11.455194
56.400 11.552361
56.405 11.873168
56.410 12.013542
56.415 12.341352
56.420 12.46629
56.425 12.300573
56.430 12.712796
56.435 12.344855
56.440 12.228438
56.445 12.598746
56.450 12.909904
56.455 13.300541
56.460 12.696518
56.465 11.876841
56.470 12.190602
56.475 12.50172
56.480 12.520649
56.485 12.870969
56.490 12.785849
56.495 13.425183
56.500 14.181028
56.505 14.423205
56.510 14.587197
56.515 13.794217
56.520 13.662017
56.525 13.818225
56.530 13.601666
56.535 13.760428
56.540 13.215325
56.545 12.613957
56.550 13.052207
56.555 12.715556
56.560 12.962635
56.565 12.728385
56.570 12.65373
56.575 13.010977
56.580 13.137943
56.585 13.544475
56.590 14.124504
56.595 13.913045
56.600 13.578958
56.605 13.977578
56.610 14.481336
56.615 15.157824
56.620 15.045466
56.625 15.365034
56.630 16.341368
56.635 16.510387
56.640 15.709966
56.645 15.868909
56.650 15.779544
56.655 15.465065
56.660 15.007432
56.665 14.346173
56.670 14.637953
56.675 14.809015
56.680 14.298329
56.685 14.394284
56.690 14.584685
56.695 14.521236
56.700 14.932771
56.705 14.808085
56.710 14.953942
56.715 15.285975
56.720 15.54503
56.725 16.003876
56.730 16.330229
56.735 16.539404
56.740 16.173122
56.745 16.125673
56.750 15.934954
56.755 15.390873
56.760 14.615551
56.765 14.50474
56.770 14.099767
56.775 14.319289
56.780 14.062216
56.785 14.083304
56.790 14.296762
56.795 14.737762
56.800 14.606669
56.805 14.251472
56.810 14.226494
56.815 14.044183
56.820 13.766776
56.825 13.563936
56.830 13.284349
56.835 13.511909
56.840 13.763904
56.845 14.189192
56.850 14.68644
56.855 14.679953
56.860 14.478848
56.865 13.83132
56.870 13.860919
56.875 13.757999
56.880 13.182916
56.885 12.589413
56.890 12.683793
56.895 12.875832
56.900 13.276974
56.905 13.066375
56.910 13.268336
56.915 13.257079
56.920 13.252484
56.925 13.265356
56.930 13.300015
56.935 12.924976
56.940 12.751194
56.945 12.810164
56.950 12.804602
56.955 12.712878
56.960 12.652978
56.965 12.754951
56.970 12.619617
56.975 12.572891
56.980 12.663079
56.985 12.803233
56.990 12.932847
56.995 12.799037
57.000 12.858933
57.005 13.393423
57.010 13.310574
57.015 13.606976
57.020 14.248672
57.025 14.803108
57.030 15.056808
57.035 14.988219
57.040 15.25324
57.045 15.589129
57.050 15.345023
57.055 15.027116
57.060 14.662804
57.065 14.214747
57.070 14.137474
57.075 14.159381
57.080 14.699773
57.085 14.600511
57.090 14.273992
57.095 14.506648
57.100 14.817522
57.105 14.674289
57.110 14.252872
57.115 14.484948
57.120 14.643279
57.125 14.472161
57.130 14.592045
57.135 14.55562
57.140 14.680304
57.145 14.266819
57.150 13.617656
57.155 14.241405
57.160 14.217515
57.165 13.96831
57.170 14.039701
57.175 13.86863
57.180 14.10001
57.185 13.421832
57.190 13.08092
57.195 13.047729
57.200 12.629851
57.205 12.712139
57.210 13.230227
57.215 13.952378
57.220 14.59358
57.225 13.969286
57.230 13.892175
57.235 14.536705
57.240 14.198278
57.245 13.959133
57.250 13.159835
57.255 13.253006
57.260 14.089347
57.265 14.515315
57.270 14.827395
57.275 14.772699
57.280 14.519984
57.285 14.905858
57.290 14.87852
57.295 14.839259
57.300 14.760003
57.305 14.496408
57.310 14.808824
57.315 14.771871
57.320 14.418721
57.325 14.084624
57.330 14.1227
57.335 14.614165
57.340 14.983921
57.345 14.797128
57.350 14.780539
57.355 15.107828
57.360 15.397197
57.365 15.466338
57.370 15.284567
57.375 15.381514
57.380 15.815935
57.385 15.550468
57.390 15.024617
57.395 15.328094
57.400 15.407578
57.405 15.149307
57.410 14.331096
57.415 13.859331
57.420 14.199248
57.425 14.62613
57.430 13.886401
57.435 14.111492
57.440 14.524173
57.445 14.666259
57.450 14.630273
57.455 14.708096
57.460 14.480971
57.465 14.773534
57.470 14.127
57.475 13.795177
57.480 14.281328
57.485 14.213118
57.490 13.929307
57.495 13.965304
57.500 13.682371
57.505 13.929461
57.510 13.924195
57.515 13.418523
57.520 13.710596
57.525 13.550872
57.530 13.37894
57.535 13.171778
57.540 13.382551
57.545 14.268457
57.550 14.652987
57.555 15.258051
57.560 15.592866
57.565 15.816211
57.570 16.142418
57.575 16.099266
57.580 15.408455
57.585 15.342174
57.590 15.031178
57.595 14.800335
57.600 14.473819
57.605 14.065813
57.610 13.873837
57.615 14.118005
57.620 14.156894
57.625 14.230225
57.630 14.412601
57.635 14.665026
57.640 14.747499
57.645 14.829556
57.650 15.151241
57.655 15.515223
57.660 15.084776
57.665 14.937874
57.670 15.063719
57.675 14.959255
57.680 14.527651
57.685 13.845732
57.690 13.318495
57.695 13.651558
57.700 13.587259
57.705 13.508785
57.710 14.293049
57.715 14.423543
57.720 14.695887
57.725 14.929862
57.730 14.516738
57.735 14.463475
57.740 14.305406
57.745 13.500247
57.750 13.596723
57.755 13.379457
57.760 13.278568
57.765 13.801166
57.770 13.593291
57.775 13.440295
57.780 13.219223
57.785 13.37606
57.790 13.734055
57.795 13.507467
57.800 12.975929
57.805 12.78857
57.810 13.134856
57.815 13.131587
57.820 13.242279
57.825 13.023335
57.830 13.352081
57.835 14.183528
57.840 14.710689
57.845 14.550797
57.850 14.42484
57.855 13.840835
57.860 13.57286
57.865 12.941401
57.870 12.42208
57.875 12.06753
57.880 12.236776
57.885 12.238052
57.890 12.454606
57.895 12.341033
57.900 12.93093
57.905 13.184723
57.910 13.321222
57.915 13.06758
57.920 13.49194
57.925 13.908842
57.930 14.164767
57.935 13.645449
57.940 13.562747
57.945 13.579957
57.950 13.537899
57.955 13.263534
57.960 13.192956
57.965 13.564243
57.970 13.810034
57.975 14.122451
57.980 14.254656
57.985 14.236372
57.990 14.5163
57.995 14.433112
58.000 14.584291
58.005 14.564815
58.010 14.393192
58.015 14.655643
58.020 14.715424
58.025 14.467515
58.030 14.442348
58.035 14.792409
58.040 15.000491
58.045 14.608269
58.050 14.209148
58.055 14.433128
58.060 14.902211
58.065 14.957334
58.070 13.851068
58.075 13.744067
58.080 14.126694
58.085 13.90608
58.090 13.341395
58.095 12.798311
58.100 13.155695
58.105 13.859846
58.110 14.010686
58.115 14.190925
58.120 14.55296
58.125 14.65754
58.130 14.691901
58.135 14.786278
58.140 15.03735
58.145 14.833462
58.150 14.803384
58.155 14.649261
58.160 14.774855
58.165 14.58033
58.170 14.255161
58.175 14.245347
58.180 14.398992
58.185 14.133562
58.190 14.443351
58.195 14.90081
58.200 15.25522
58.205 15.286844
58.210 14.942565
58.215 14.712007
58.220 14.863603
58.225 15.598457
58.230 15.852791
58.235 15.731506
58.240 15.160641
58.245 15.426893
58.250 15.841248
58.255 16.100866
58.260 15.210289
58.265 15.01886
58.270 15.278072
58.275 16.035595
58.280 15.941024
58.285 15.556275
58.290 15.006555
58.295 14.789362
58.300 14.626717
58.305 14.596874
58.310 14.577982
58.315 14.779642
58.320 14.74663
58.325 14.8257
58.330 14.915983
58.335 15.170386
58.340 15.173553
58.345 15.148973
58.350 14.738575
58.355 14.825563
58.360 14.576467
58.365 14.696935
58.370 15.100525
58.375 14.669886
58.380 14.938165
58.385 15.800407
58.390 15.816769
58.395 16.705572
58.400 16.570669
58.405 16.121611
58.410 16.044533
58.415 15.486317
58.420 15.356981
58.425 15.428043
58.430 14.826276
58.435 14.778601
58.440 14.944764
58.445 15.186433
