!@!!GADDS PLOTSO FILE: Chi integration type
!@!!Title/SampleName: map-24
!@!!Comment: ?
!@!!User: Bruker Instrument Administrator
!@!!Site: University of Illinois Chicago
!@!!Frame: map-24_01_000.gfrm
!@!!Wavelengths    1.54184   1.54056   1.54439
!@!!Frame angles: 2Theta: 63.000 Omega: 50.000 Phi: 0.000 Chi: 90.000
!@!!Integration range: 2Theta: 53.000 to 73.000  Gamma: -105.000 to -75.000
!@!!Integration method: bin normalized
!@!N
!@!SS
!@!M
!@!L 0.0 0.0 0.0 0.0
!@!XDegrees
!@!YCounts
53.000 7.583894
53.005 7.666988
53.010 7.523538
53.015 7.378659
53.020 6.845707
53.025 7.06725
53.030 7.221725
53.035 6.932565
53.040 7.074568
53.045 7.07077
53.050 7.588106
53.055 8.029926
53.060 7.887177
53.065 8.2974
53.070 8.240584
53.075 8.33339
53.080 8.320207
53.085 8.042364
53.090 7.585866
53.095 7.279525
53.100 7.039433
53.105 7.229051
53.110 7.18272
53.115 7.708987
53.120 7.849224
53.125 7.625782
53.130 7.574165
53.135 7.746754
53.140 8.014547
53.145 8.108893
53.150 7.891418
53.155 7.847746
53.160 8.198436
53.165 8.425279
53.170 8.303993
53.175 7.969283
53.180 7.423777
53.185 7.267457
53.190 7.512706
53.195 8.104777
53.200 8.187073
53.205 7.883098
53.210 7.96984
53.215 8.398911
53.220 8.610029
53.225 8.502131
53.230 8.030622
53.235 8.288347
53.240 8.721092
53.245 8.794632
53.250 8.858593
53.255 9.140698
53.260 8.966436
53.265 8.968974
53.270 8.723663
53.275 8.709125
53.280 8.49549
53.285 8.363056
53.290 8.293012
53.295 8.356071
53.300 8.440106
53.305 8.689249
53.310 8.667612
53.315 8.620875
53.320 8.224244
53.325 7.934706
53.330 8.055596
53.335 7.66723
53.340 7.338641
53.345 7.440393
53.350 7.900468
53.355 8.375669
53.360 8.524041
53.365 8.735756
53.370 9.029508
53.375 9.170305
53.380 9.220674
53.385 9.206897
53.390 9.144691
53.395 8.826517
53.400 8.481931
53.405 8.429709
53.410 8.66503
53.415 8.746307
53.420 8.616336
53.425 8.824594
53.430 8.977893
53.435 9.184642
53.440 8.685444
53.445 8.173262
53.450 8.025401
53.455 8.241182
53.460 8.131746
53.465 8.266481
53.470 8.174156
53.475 8.691586
53.480 9.102834
53.485 9.365208
53.490 9.890605
53.495 10.255855
53.500 10.424657
53.505 10.357669
53.510 10.334855
53.515 10.361721
53.520 10.058398
53.525 9.377727
53.530 9.453903
53.535 9.485283
53.540 9.574581
53.545 9.567484
53.550 9.367184
53.555 9.308923
53.560 8.98977
53.565 8.834726
53.570 8.85411
53.575 8.957897
53.580 9.071257
53.585 9.559818
53.590 9.643285
53.595 9.551002
53.600 9.608083
53.605 9.849883
53.610 9.557101
53.615 9.273948
53.620 8.650812
53.625 8.646388
53.630 9.204932
53.635 9.224916
53.640 8.866932
53.645 8.754122
53.650 8.393365
53.655 8.54121
53.660 8.618629
53.665 8.293004
53.670 8.491435
53.675 8.872948
53.680 8.999167
53.685 9.154494
53.690 8.929676
53.695 8.738358
53.700 8.54134
53.705 7.949652
53.710 8.04339
53.715 8.34878
53.720 8.142863
53.725 8.289335
53.730 8.296839
53.735 8.600947
53.740 8.582616
53.745 8.144456
53.750 8.006778
53.755 8.254862
53.760 8.051075
53.765 7.88305
53.770 7.718668
53.775 7.827783
53.780 7.622159
53.785 7.680835
53.790 7.469967
53.795 7.772713
53.800 8.074083
53.805 8.548633
53.810 8.978035
53.815 9.33204
53.820 9.865613
53.825 10.060011
53.830 10.072939
53.835 9.846578
53.840 9.553072
53.845 9.261603
53.850 9.214596
53.855 9.013975
53.860 8.897011
53.865 8.895818
53.870 8.970225
53.875 8.797089
53.880 8.971909
53.885 8.611228
53.890 8.478806
53.895 8.55521
53.900 7.949105
53.905 7.934307
53.910 8.02193
53.915 7.84667
53.920 7.764928
53.925 7.774761
53.930 7.844993
53.935 7.72293
53.940 7.700775
53.945 7.998765
53.950 8.226986
53.955 8.453284
53.960 8.605364
53.965 8.625635
53.970 8.636478
53.975 8.445093
53.980 8.187908
53.985 8.124195
53.990 7.993823
53.995 8.183868
54.000 9.10237
54.005 9.330705
54.010 9.256892
54.015 9.312063
54.020 9.374543
54.025 9.52718
54.030 9.328658
54.035 8.818071
54.040 8.513483
54.045 8.488609
54.050 8.938807
54.055 8.981476
54.060 8.815151
54.065 8.698364
54.070 8.738122
54.075 8.79397
54.080 9.028208
54.085 9.160662
54.090 9.455091
54.095 9.646819
54.100 9.678275
54.105 9.745569
54.110 10.189714
54.115 10.053482
54.120 9.845705
54.125 9.588613
54.130 9.255526
54.135 9.708187
54.140 9.916382
54.145 9.601254
54.150 8.931451
54.155 8.742761
54.160 8.638576
54.165 8.375095
54.170 8.240515
54.175 8.439565
54.180 8.579459
54.185 8.749912
54.190 9.167933
54.195 9.436731
54.200 9.839041
54.205 9.694949
54.210 10.025751
54.215 9.747401
54.220 9.498666
54.225 9.274515
54.230 9.25036
54.235 9.702918
54.240 9.675144
54.245 9.540483
54.250 9.772545
54.255 9.931103
54.260 10.055015
54.265 9.899185
54.270 9.737165
54.275 9.796343
54.280 10.002461
54.285 10.463062
54.290 10.841528
54.295 10.838119
54.300 10.426531
54.305 9.950231
54.310 9.936809
54.315 9.882093
54.320 9.747478
54.325 10.198895
54.330 10.265738
54.335 10.163298
54.340 10.343944
54.345 10.058459
54.350 9.926776
54.355 9.402782
54.360 8.729882
54.365 8.677819
54.370 9.007719
54.375 8.735572
54.380 8.347912
54.385 8.232416
54.390 8.740967
54.395 8.989773
54.400 8.893988
54.405 8.70962
54.410 8.721435
54.415 8.949417
54.420 9.143014
54.425 8.773155
54.430 8.856309
54.435 9.381024
54.440 9.410728
54.445 9.584705
54.450 9.965554
54.455 9.973603
54.460 10.073977
54.465 10.441481
54.470 10.152377
54.475 10.30375
54.480 10.443313
54.485 10.164942
54.490 10.291401
54.495 10.127763
54.500 9.389413
54.505 9.083413
54.510 8.856067
54.515 8.380027
54.520 8.244294
54.525 8.083467
54.530 7.943581
54.535 7.854618
54.540 7.954414
54.545 7.886526
54.550 7.965708
54.555 7.742649
54.560 7.585942
54.565 7.940901
54.570 8.485691
54.575 8.978109
54.580 9.808912
54.585 10.153783
54.590 10.352016
54.595 10.145191
54.600 10.124026
54.605 10.412391
54.610 10.058809
54.615 9.632113
54.620 9.728344
54.625 9.953929
54.630 10.00834
54.635 9.932002
54.640 9.191761
54.645 9.353854
54.650 9.086986
54.655 8.839608
54.660 8.730097
54.665 8.806951
54.670 9.075813
54.675 9.125169
54.680 8.940635
54.685 8.91457
54.690 9.40873
54.695 9.542085
54.700 9.585685
54.705 9.479613
54.710 9.504282
54.715 9.775457
54.720 9.556526
54.725 8.993419
54.730 8.712391
54.735 8.392255
54.740 8.844177
54.745 9.213531
54.750 8.699857
54.755 8.825757
54.760 9.423471
54.765 9.414535
54.770 9.175737
54.775 8.739725
54.780 8.875106
54.785 9.222464
54.790 8.986895
54.795 8.745815
54.800 9.388327
54.805 9.324021
54.810 9.197055
54.815 8.843338
54.820 8.682424
54.825 9.222837
54.830 8.964421
54.835 8.968503
54.840 9.361094
54.845 9.750839
54.850 10.495811
54.855 11.231524
54.860 11.455209
54.865 11.520191
54.870 11.501981
54.875 11.542824
54.880 11.243348
54.885 10.611059
54.890 10.00575
54.895 9.597733
54.900 9.679301
54.905 9.494879
54.910 9.706405
54.915 10.206445
54.920 10.410873
54.925 10.158519
54.930 10.234115
54.935 10.284228
54.940 10.268229
54.945 9.801245
54.950 9.27813
54.955 9.474195
54.960 10.070705
54.965 10.033415
54.970 9.767905
54.975 9.618801
54.980 10.023448
54.985 10.60293
54.990 10.382792
54.995 9.824471
55.000 9.86626
55.005 9.794767
55.010 9.71694
55.015 8.982186
55.020 8.603619
55.025 8.89227
55.030 8.929177
55.035 9.376895
55.040 9.576637
55.045 10.076231
55.050 10.530632
55.055 10.51274
55.060 10.443481
55.065 10.695869
55.070 10.724262
55.075 10.724199
55.080 10.544153
55.085 10.826266
55.090 11.071224
55.095 11.146623
55.100 10.671721
55.105 10.495028
55.110 10.681918
55.115 10.338425
55.120 9.685281
55.125 9.539338
55.130 9.69086
55.135 9.875334
55.140 10.034822
55.145 10.275929
55.150 10.581074
55.155 10.595884
55.160 10.137355
55.165 10.181567
55.170 10.416193
55.175 10.106749
55.180 10.019483
55.185 10.505516
55.190 11.118496
55.195 11.528742
55.200 11.327972
55.205 11.244215
55.210 11.589782
55.215 11.369963
55.220 10.991846
55.225 11.1119
55.230 10.989307
55.235 11.373178
55.240 11.094274
55.245 10.833668
55.250 11.084494
55.255 11.371799
55.260 11.385201
55.265 11.660942
55.270 11.228475
55.275 11.115461
55.280 11.307437
55.285 11.023275
55.290 10.694222
55.295 10.263832
55.300 9.904821
55.305 9.925342
55.310 10.128207
55.315 10.091728
55.320 10.2402
55.325 9.994628
55.330 9.94273
55.335 10.412215
55.340 10.693599
55.345 10.23842
55.350 10.163292
55.355 9.922734
55.360 10.526721
55.365 10.66222
55.370 10.520296
55.375 10.282435
55.380 10.105549
55.385 10.630904
55.390 11.045068
55.395 11.204262
55.400 11.055625
55.405 10.813449
55.410 11.069034
55.415 11.188784
55.420 10.94434
55.425 11.209419
55.430 11.008379
55.435 11.237967
55.440 11.503428
55.445 11.588388
55.450 11.145376
55.455 11.054114
55.460 10.362872
55.465 10.29096
55.470 10.626118
55.475 10.482215
55.480 10.588894
55.485 10.570237
55.490 10.423578
55.495 10.698803
55.500 10.492375
55.505 9.714038
55.510 9.952757
55.515 9.950394
55.520 9.683656
55.525 9.856911
55.530 10.271902
55.535 10.781983
55.540 10.592185
55.545 10.64119
55.550 11.203181
55.555 12.001148
55.560 11.708359
55.565 11.37404
55.570 11.38746
55.575 11.984024
55.580 11.766407
55.585 11.404437
55.590 11.13303
55.595 10.66087
55.600 10.446484
55.605 10.337453
55.610 10.520432
55.615 10.77653
55.620 10.952906
55.625 10.969598
55.630 11.198666
55.635 11.302177
55.640 11.524207
55.645 10.758292
55.650 10.81718
55.655 10.843942
55.660 10.667613
55.665 10.842597
55.670 10.893271
55.675 10.986248
55.680 11.546099
55.685 11.35983
55.690 11.224488
55.695 11.64453
55.700 11.710561
55.705 11.83615
55.710 11.382373
55.715 10.931535
55.720 10.699696
55.725 10.393866
55.730 10.173511
55.735 9.932438
55.740 9.703805
55.745 10.105961
55.750 10.204032
55.755 10.150089
55.760 10.212895
55.765 10.490941
55.770 10.693552
55.775 10.556336
55.780 10.458067
55.785 10.946226
55.790 11.330779
55.795 11.722651
55.800 11.797152
55.805 12.14443
55.810 12.376435
55.815 12.310505
55.820 12.059688
55.825 11.917714
55.830 11.676631
55.835 11.793855
55.840 11.903099
55.845 11.952097
55.850 12.001393
55.855 12.004886
55.860 12.506032
55.865 12.625193
55.870 12.474038
55.875 12.317366
55.880 12.227201
55.885 11.630097
55.890 11.510663
55.895 11.5052
55.900 11.688968
55.905 11.614302
55.910 11.327183
55.915 11.992412
55.920 12.685022
55.925 12.591222
55.930 12.009432
55.935 11.997625
55.940 12.801417
55.945 13.181232
55.950 13.069364
55.955 13.264568
55.960 13.50384
55.965 13.545601
55.970 13.273036
55.975 12.29736
55.980 11.859275
55.985 11.543259
55.990 11.300468
55.995 11.08567
56.000 11.01647
56.005 10.725927
56.010 10.778793
56.015 10.797686
56.020 10.779953
56.025 10.70649
56.030 10.309316
56.035 10.092634
56.040 9.959268
56.045 10.24885
56.050 10.262794
56.055 10.015554
56.060 9.484878
56.065 9.456289
56.070 9.413637
56.075 9.524048
56.080 9.779795
56.085 9.876291
56.090 10.236802
56.095 11.03279
56.100 11.523433
56.105 11.625573
56.110 11.556214
56.115 11.075962
56.120 11.378677
56.125 11.097994
56.130 10.722711
56.135 10.894371
56.140 11.28738
56.145 11.32563
56.150 11.355185
56.155 10.859751
56.160 10.941358
56.165 10.861001
56.170 10.961988
56.175 10.660065
56.180 11.282887
56.185 11.578735
56.190 12.211135
56.195 12.46156
56.200 12.340484
56.205 12.247734
56.210 12.31704
56.215 12.048815
56.220 11.529868
56.225 11.500198
56.230 11.868823
56.235 12.302978
56.240 12.369004
56.245 12.224675
56.250 11.917513
56.255 12.249736
56.260 11.824866
56.265 11.444787
56.270 10.762802
56.275 10.581327
56.280 10.776531
56.285 10.678937
56.290 10.682999
56.295 11.453989
56.300 11.528199
56.305 11.698121
56.310 11.811133
56.315 12.037114
56.320 12.134721
56.325 11.293268
56.330 10.734715
56.335 11.402749
56.340 11.802824
56.345 11.24559
56.350 10.643224
56.355 10.807507
56.360 11.275992
56.365 11.217158
56.370 10.542916
56.375 10.529185
56.380 11.374383
56.385 11.905154
56.390 12.451617
56.395 12.535093
56.400 12.893712
56.405 13.401652
56.410 12.981683
56.415 12.550418
56.420 12.017105
56.425 11.697357
56.430 11.798884
56.435 11.174774
56.440 10.745893
56.445 11.201278
56.450 11.486502
56.455 11.532175
56.460 11.706513
56.465 11.221016
56.470 11.327126
56.475 11.481199
56.480 11.326085
56.485 11.446324
56.490 11.541407
56.495 11.303488
56.500 11.851506
56.505 11.858199
56.510 11.85023
56.515 12.128939
56.520 12.068888
56.525 12.608881
56.530 12.851419
56.535 12.798522
56.540 13.298155
56.545 13.071478
56.550 12.761168
56.555 12.135785
56.560 11.543707
56.565 11.464599
56.570 11.474794
56.575 11.020921
56.580 11.00279
56.585 11.064857
56.590 11.184899
56.595 11.202383
56.600 11.331287
56.605 11.199226
56.610 11.161272
56.615 11.176138
56.620 11.231299
56.625 11.33315
56.630 11.984077
56.635 11.814354
56.640 11.731248
56.645 11.918306
56.650 12.161787
56.655 11.910589
56.660 12.10986
56.665 11.687167
56.670 11.470622
56.675 11.768829
56.680 11.76907
56.685 12.046902
56.690 12.265287
56.695 12.638779
56.700 12.820092
56.705 13.213139
56.710 13.35395
56.715 13.408245
56.720 13.238762
56.725 13.504869
56.730 13.058311
56.735 13.108925
56.740 12.588909
56.745 12.444057
56.750 12.507874
56.755 11.985791
56.760 11.637108
56.765 11.436976
56.770 11.541484
56.775 12.272429
56.780 12.282369
56.785 12.501002
56.790 12.88945
56.795 13.306525
56.800 13.675928
56.805 13.83508
56.810 13.590743
56.815 13.312365
56.820 13.074829
56.825 13.268697
56.830 13.282074
56.835 12.941855
56.840 12.533743
56.845 12.430674
56.850 12.501539
56.855 12.85689
56.860 12.283442
56.865 11.933366
56.870 11.96439
56.875 11.962403
56.880 12.024628
56.885 12.237156
56.890 11.566251
56.895 11.802543
56.900 11.908422
56.905 12.235245
56.910 12.679762
56.915 13.169369
56.920 13.236891
56.925 13.788942
56.930 13.951045
56.935 13.782107
56.940 13.593837
56.945 13.492987
56.950 13.570129
56.955 13.445978
56.960 13.044621
56.965 12.852404
56.970 12.779243
56.975 12.61569
56.980 12.26445
56.985 11.927976
56.990 12.259663
56.995 12.379789
57.000 12.433113
57.005 12.274508
57.010 11.811685
57.015 12.081744
57.020 12.24801
57.025 12.530248
57.030 12.656044
57.035 12.803281
57.040 13.72577
57.045 14.577906
57.050 14.277134
57.055 13.776578
57.060 13.556315
57.065 13.654793
57.070 13.700258
57.075 13.58521
57.080 12.76673
57.085 12.874868
57.090 12.741633
57.095 12.256128
57.100 12.253236
57.105 11.966506
57.110 11.86746
57.115 12.078718
57.120 12.15394
57.125 12.158896
57.130 12.307395
57.135 12.538952
57.140 12.750997
57.145 13.065271
57.150 13.337054
57.155 13.074386
57.160 13.045104
57.165 12.971379
57.170 12.907538
57.175 12.596601
57.180 12.041025
57.185 11.974922
57.190 12.214199
57.195 12.474172
57.200 12.649673
57.205 12.645714
57.210 13.185242
57.215 13.557198
57.220 13.74552
57.225 13.949186
57.230 13.923305
57.235 13.783357
57.240 13.82775
57.245 13.75235
57.250 13.428762
57.255 13.411969
57.260 13.528278
57.265 13.822328
57.270 14.020611
57.275 13.556297
57.280 13.264708
57.285 13.430305
57.290 13.456608
57.295 13.023122
57.300 13.249928
57.305 13.225039
57.310 13.822027
57.315 14.394225
57.320 14.700355
57.325 15.185139
57.330 15.668272
57.335 15.518582
57.340 15.888091
57.345 15.633265
57.350 14.642907
57.355 13.973357
57.360 13.263387
57.365 12.945535
57.370 12.554572
57.375 12.507575
57.380 12.350516
57.385 12.796461
57.390 12.969555
57.395 13.268332
57.400 13.51176
57.405 13.387988
57.410 13.328297
57.415 13.38825
57.420 13.853289
57.425 13.791046
57.430 13.644704
57.435 13.291405
57.440 13.143113
57.445 12.94858
57.450 12.828091
57.455 12.084908
57.460 12.35191
57.465 12.455427
57.470 12.63127
57.475 13.021053
57.480 13.150186
57.485 13.401713
57.490 13.735354
57.495 13.309416
57.500 13.001573
57.505 12.745271
57.510 12.419765
57.515 12.401077
57.520 12.479779
57.525 12.096464
57.530 12.451563
57.535 12.735906
57.540 12.962795
57.545 13.227799
57.550 12.94918
57.555 12.708131
57.560 13.093349
57.565 12.971523
57.570 12.664647
57.575 12.346423
57.580 12.369625
57.585 12.503333
57.590 12.869085
57.595 12.935308
57.600 13.26899
57.605 13.335418
57.610 13.740159
57.615 13.555459
57.620 13.206272
57.625 13.318519
57.630 13.405666
57.635 13.067924
57.640 12.872432
57.645 12.652118
57.650 12.954964
57.655 13.164344
57.660 12.956464
57.665 13.421315
57.670 14.173323
57.675 14.740996
57.680 14.514994
57.685 14.808104
57.690 15.022102
57.695 15.476462
57.700 14.999269
57.705 15.022427
57.710 15.267485
57.715 15.278808
57.720 14.798053
57.725 14.604239
57.730 14.396973
57.735 14.110171
57.740 13.640268
57.745 13.304021
57.750 13.73992
57.755 13.945027
57.760 13.831256
57.765 13.84484
57.770 13.89577
57.775 13.893672
57.780 13.758487
57.785 13.685571
57.790 13.770982
57.795 13.476665
57.800 13.099778
57.805 13.494992
57.810 13.569398
57.815 13.65249
57.820 13.23755
57.825 13.091364
57.830 12.899025
57.835 13.176042
57.840 13.066292
57.845 13.37597
57.850 13.735517
57.855 14.29382
57.860 14.433052
57.865 14.752824
57.870 14.05707
57.875 13.856403
57.880 13.58964
57.885 12.76458
57.890 12.053837
57.895 12.088071
57.900 12.52396
57.905 12.868714
57.910 12.684114
57.915 12.895342
57.920 13.573811
57.925 13.868211
57.930 13.665504
57.935 13.260197
57.940 12.785569
57.945 13.194
57.950 13.630094
57.955 12.929013
57.960 12.996161
57.965 12.757739
57.970 12.980468
57.975 13.528109
57.980 12.997432
57.985 12.536881
57.990 12.775928
57.995 13.198448
58.000 13.81921
58.005 14.164846
58.010 14.707227
58.015 15.012169
58.020 15.348965
58.025 15.383649
58.030 14.698045
58.035 14.927455
58.040 14.556612
58.045 14.038826
58.050 13.795425
58.055 13.72077
58.060 13.936252
58.065 14.175865
58.070 13.866725
58.075 14.156708
58.080 14.127022
58.085 13.800817
58.090 14.065955
58.095 14.132288
58.100 14.394779
58.105 14.415045
58.110 14.623911
58.115 14.71813
58.120 14.717666
58.125 14.534304
58.130 14.760671
58.135 14.76223
58.140 14.554166
58.145 14.12806
58.150 14.328453
58.155 14.702969
58.160 14.665894
58.165 14.364182
58.170 13.958399
58.175 13.925748
58.180 13.734967
58.185 13.530668
58.190 13.235868
58.195 12.961596
58.200 12.616772
58.205 12.731813
58.210 13.045169
58.215 13.435943
58.220 13.649036
58.225 13.631024
58.230 13.62425
58.235 13.715039
58.240 13.587296
58.245 12.613395
58.250 12.638937
58.255 12.77418
58.260 12.782937
58.265 13.083685
58.270 13.191672
58.275 13.347363
58.280 13.895287
58.285 14.01116
58.290 14.187971
58.295 14.294866
58.300 14.272729
58.305 14.570734
58.310 14.481296
58.315 14.060624
58.320 13.406732
58.325 13.196509
58.330 12.891579
58.335 12.914198
58.340 13.171707
58.345 12.98662
58.350 12.788814
58.355 13.160418
58.360 13.340667
58.365 13.816427
58.370 13.616828
58.375 13.249852
58.380 13.18386
58.385 13.588762
58.390 13.796953
58.395 14.144453
58.400 14.215589
58.405 13.970786
58.410 13.958029
58.415 14.392041
58.420 14.530737
58.425 14.615512
58.430 14.529554
58.435 14.613818
58.440 15.420875
58.445 15.82432
58.450 15.853213
58.455 15.313457
58.460 14.856207
58.465 13.72477
58.470 13.380316
58.475 12.479523
58.480 12.530619
58.485 12.554741
58.490 12.342041
58.495 12.396999
58.500 12.630496
58.505 12.522244
58.510 12.537264
58.515 12.245531
58.520 12.148255
58.525 12.670222
58.530 12.82692
58.535 12.816871
58.540 12.888784
58.545 12.808608
