!@!!GADDS PLOTSO FILE: Chi integration type
!@!!Title/SampleName: map-10d
!@!!Comment: ?
!@!!User: Bruker Instrument Administrator
!@!!Site: University of Illinois Chicago
!@!!Frame: map-10d_01_000.gfrm
!@!!Wavelengths    1.54184   1.54056   1.54439
!@!!Frame angles: 2Theta: 63.000 Omega: 50.000 Phi: 0.000 Chi: 90.000
!@!!Integration range: 2Theta: 53.000 to 73.000  Gamma: -105.000 to -75.000
!@!!Integration method: bin normalized
!@!N
!@!SS
!@!M
!@!L 0.0 0.0 0.0 0.0
!@!XDegrees
!@!YCounts
53.000 9.787187
53.005 9.786292
53.010 9.716912
53.015 9.277276
53.020 8.918647
53.025 8.647261
53.030 8.755701
53.035 8.597911
53.040 8.010591
53.045 8.120219
53.050 8.161682
53.055 7.934516
53.060 7.78461
53.065 7.429485
53.070 7.464284
53.075 7.916572
53.080 7.993608
53.085 8.526437
53.090 8.845029
53.095 8.920513
53.100 9.478694
53.105 9.681586
53.110 9.507798
53.115 9.008955
53.120 8.914692
53.125 8.880754
53.130 9.092052
53.135 8.708407
53.140 8.964507
53.145 9.224792
53.150 9.23914
53.155 8.754137
53.160 8.513853
53.165 8.131866
53.170 8.071926
53.175 7.87288
53.180 8.287398
53.185 9.002814
53.190 9.096025
53.195 8.950985
53.200 9.277685
53.205 9.770164
53.210 9.723904
53.215 9.00658
53.220 8.743818
53.225 9.707503
53.230 9.566853
53.235 9.001168
53.240 8.578623
53.245 8.684907
53.250 8.865481
53.255 8.571985
53.260 8.353594
53.265 8.503652
53.270 8.545128
53.275 8.867574
53.280 9.112062
53.285 9.244551
53.290 9.187011
53.295 9.360237
53.300 9.479939
53.305 9.589691
53.310 9.618252
53.315 9.392628
53.320 9.374835
53.325 9.36144
53.330 9.050003
53.335 9.203988
53.340 9.23631
53.345 8.872025
53.350 9.111039
53.355 8.910148
53.360 9.03535
53.365 9.38386
53.370 9.711726
53.375 9.94416
53.380 10.227361
53.385 10.271173
53.390 10.428929
53.395 9.973303
53.400 9.818569
53.405 9.455805
53.410 9.253659
53.415 9.221171
53.420 8.58773
53.425 8.596938
53.430 8.696867
53.435 8.491701
53.440 8.319324
53.445 8.365911
53.450 8.437286
53.455 9.274466
53.460 9.384312
53.465 9.362657
53.470 9.225174
53.475 8.97142
53.480 8.619561
53.485 8.349556
53.490 7.857219
53.495 7.815077
53.500 7.824609
53.505 7.921731
53.510 8.288702
53.515 8.81673
53.520 8.574658
53.525 8.666314
53.530 8.469217
53.535 8.693862
53.540 9.453795
53.545 9.467494
53.550 9.603186
53.555 9.519935
53.560 9.12201
53.565 8.996059
53.570 8.881807
53.575 8.882904
53.580 8.422329
53.585 7.875679
53.590 8.220173
53.595 8.357435
53.600 8.272997
53.605 7.859638
53.610 7.591787
53.615 8.273341
53.620 8.747179
53.625 9.158853
53.630 9.72269
53.635 10.123809
53.640 10.351587
53.645 10.232092
53.650 10.177097
53.655 9.945109
53.660 9.782389
53.665 9.680753
53.670 9.415731
53.675 9.111135
53.680 9.077583
53.685 9.08003
53.690 9.334996
53.695 9.388266
53.700 9.500702
53.705 9.626646
53.710 10.024733
53.715 10.349535
53.720 10.761518
53.725 11.063285
53.730 11.112201
53.735 10.941478
53.740 10.94148
53.745 10.844305
53.750 10.559025
53.755 9.686986
53.760 9.505193
53.765 9.932443
53.770 10.394035
53.775 10.422213
53.780 10.085981
53.785 10.455061
53.790 10.653451
53.795 10.690749
53.800 10.857826
53.805 10.558125
53.810 10.533288
53.815 10.81354
53.820 10.826994
53.825 11.166631
53.830 11.079099
53.835 10.74377
53.840 11.05446
53.845 10.913416
53.850 10.605835
53.855 10.602431
53.860 10.384746
53.865 10.241571
53.870 9.977428
53.875 9.751434
53.880 9.869374
53.885 9.574786
53.890 9.14121
53.895 8.822612
53.900 8.744218
53.905 8.945351
53.910 9.010881
53.915 8.91466
53.920 9.259466
53.925 9.49814
53.930 9.541819
53.935 9.404139
53.940 9.357203
53.945 9.309679
53.950 9.244977
53.955 9.126508
53.960 9.149812
53.965 9.709964
53.970 9.718922
53.975 9.657469
53.980 9.759528
53.985 9.92952
53.990 10.326963
53.995 10.949225
54.000 10.976615
54.005 11.347308
54.010 11.597545
54.015 11.308531
54.020 11.096459
54.025 10.67412
54.030 10.365582
54.035 10.124929
54.040 9.655194
54.045 9.37144
54.050 9.294872
54.055 9.251197
54.060 9.488632
54.065 9.785995
54.070 10.041338
54.075 10.287654
54.080 10.93933
54.085 11.006004
54.090 10.959582
54.095 10.750679
54.100 10.51633
54.105 10.676533
54.110 11.115005
54.115 11.181566
54.120 11.232025
54.125 11.247134
54.130 11.200201
54.135 11.230405
54.140 10.763712
54.145 10.433675
54.150 10.59787
54.155 10.924614
54.160 10.903569
54.165 10.880145
54.170 10.793226
54.175 10.698063
54.180 10.863902
54.185 10.986349
54.190 10.857547
54.195 10.999168
54.200 11.021406
54.205 11.403305
54.210 11.700017
54.215 11.395788
54.220 11.252025
54.225 11.053529
54.230 10.866739
54.235 10.860201
54.240 10.037682
54.245 10.249607
54.250 10.263462
54.255 10.295272
54.260 10.522422
54.265 10.140291
54.270 9.943368
54.275 10.297748
54.280 10.077338
54.285 10.078821
54.290 10.133923
54.295 10.340986
54.300 11.087457
54.305 11.76824
54.310 11.482287
54.315 11.657795
54.320 11.508811
54.325 11.390221
54.330 11.146121
54.335 10.833271
54.340 10.815992
54.345 11.203987
54.350 11.070158
54.355 10.966513
54.360 10.930908
54.365 10.661014
54.370 10.162814
54.375 9.660347
54.380 9.313215
54.385 9.153256
54.390 9.417529
54.395 9.323514
54.400 9.840063
54.405 10.348925
54.410 10.480378
54.415 10.554417
54.420 10.633997
54.425 10.529441
54.430 10.987596
54.435 10.819112
54.440 10.595322
54.445 10.681781
54.450 10.414003
54.455 10.659295
54.460 10.605815
54.465 10.493534
54.470 10.332161
54.475 10.391555
54.480 10.606226
54.485 11.028986
54.490 10.762672
54.495 10.66538
54.500 10.470738
54.505 10.156301
54.510 10.043302
54.515 10.197531
54.520 10.221879
54.525 10.58223
54.530 11.153597
54.535 11.207567
54.540 11.189945
54.545 10.879268
54.550 10.57574
54.555 10.177531
54.560 9.970835
54.565 9.828979
54.570 9.985637
54.575 10.467815
54.580 10.227849
54.585 10.507927
54.590 11.053367
54.595 10.66647
54.600 10.190388
54.605 10.11355
54.610 10.410698
54.615 10.686024
54.620 10.778966
54.625 10.90783
54.630 11.153144
54.635 11.386607
54.640 11.439805
54.645 11.413824
54.650 11.432079
54.655 11.480726
54.660 11.459468
54.665 11.678966
54.670 11.588107
54.675 11.686584
54.680 12.136558
54.685 12.127328
54.690 12.111972
54.695 12.093985
54.700 12.094736
54.705 12.302568
54.710 12.193282
54.715 11.788479
54.720 11.629533
54.725 12.069518
54.730 12.114814
54.735 12.382694
54.740 12.46691
54.745 12.668534
54.750 13.096706
54.755 13.278543
54.760 12.851592
54.765 12.676962
54.770 12.524814
54.775 12.570559
54.780 12.509122
54.785 12.048131
54.790 11.600926
54.795 11.727824
54.800 11.417513
54.805 11.232224
54.810 10.816037
54.815 10.408648
54.820 10.296051
54.825 10.13754
54.830 10.146999
54.835 10.77598
54.840 11.360424
54.845 11.358402
54.850 11.684315
54.855 11.622624
54.860 11.694444
54.865 11.060288
54.870 10.591349
54.875 10.455734
54.880 10.660672
54.885 10.543301
54.890 10.471856
54.895 10.694563
54.900 10.930778
54.905 10.642129
54.910 10.704295
54.915 11.150649
54.920 11.485429
54.925 11.745625
54.930 12.090215
54.935 12.682507
54.940 13.052803
54.945 12.763638
54.950 12.953226
54.955 12.852291
54.960 12.84769
54.965 12.415419
54.970 11.8891
54.975 11.582387
54.980 11.313606
54.985 10.77411
54.990 11.302753
54.995 11.356277
55.000 11.630729
55.005 11.489567
55.010 11.593315
55.015 11.528059
55.020 11.688337
55.025 11.199081
55.030 11.06939
55.035 11.180959
55.040 11.356551
55.045 11.555696
55.050 11.589283
55.055 11.697939
55.060 12.258906
55.065 12.489324
55.070 12.528052
55.075 12.789233
55.080 12.700576
55.085 12.938229
55.090 12.612395
55.095 12.223104
55.100 12.041226
55.105 12.04709
55.110 11.8019
55.115 11.617773
55.120 12.145802
55.125 12.273659
55.130 12.147237
55.135 11.957331
55.140 11.581992
55.145 11.82079
55.150 11.944521
55.155 11.425961
55.160 11.286677
55.165 11.51279
55.170 12.264648
55.175 12.634152
55.180 12.250078
55.185 12.414979
55.190 12.230875
55.195 12.133701
55.200 11.878091
55.205 11.382096
55.210 11.011844
55.215 11.207904
55.220 11.237452
55.225 11.430873
55.230 11.518994
55.235 11.409304
55.240 11.770941
55.245 12.320783
55.250 12.126899
55.255 12.134621
55.260 12.29798
55.265 12.033596
55.270 11.914001
55.275 11.529539
55.280 11.477051
55.285 11.6628
55.290 11.66216
55.295 11.586262
55.300 12.010213
55.305 12.327921
55.310 12.400927
55.315 12.173232
55.320 12.151578
55.325 12.209782
55.330 11.570408
55.335 11.64033
55.340 11.667075
55.345 11.78964
55.350 11.811809
55.355 11.710128
55.360 12.112939
55.365 12.134672
55.370 11.457639
55.375 10.959124
55.380 10.891537
55.385 10.982415
55.390 10.592395
55.395 10.254925
55.400 10.69987
55.405 11.446622
55.410 11.729424
55.415 11.807011
55.420 11.581078
55.425 11.678862
55.430 11.83424
55.435 11.582454
55.440 11.140491
55.445 10.914062
55.450 10.525182
55.455 10.254859
55.460 10.108916
55.465 10.043509
55.470 9.945549
55.475 9.99562
55.480 10.152614
55.485 10.411765
55.490 10.80862
55.495 10.823203
55.500 10.802652
55.505 11.290917
55.510 11.838835
55.515 11.980826
55.520 12.033208
55.525 12.161569
55.530 12.8524
55.535 13.273592
55.540 13.151031
55.545 12.662066
55.550 12.53822
55.555 12.824129
55.560 12.737775
55.565 12.232745
55.570 12.099006
55.575 12.539719
55.580 12.587579
55.585 12.491339
55.590 12.578763
55.595 13.047136
55.600 13.117138
55.605 12.81256
55.610 12.450115
55.615 12.587473
55.620 12.557271
55.625 11.960113
55.630 11.783387
55.635 11.719028
55.640 11.20863
55.645 10.831293
55.650 11.084257
55.655 11.372181
55.660 11.727018
55.665 11.778926
55.670 11.662346
55.675 12.045799
55.680 12.064746
55.685 12.12256
55.690 11.9241
55.695 12.074857
55.700 12.178075
55.705 12.593575
55.710 12.614099
55.715 12.949142
55.720 12.745565
55.725 12.393612
55.730 11.901718
55.735 11.242324
55.740 11.292686
55.745 11.032393
55.750 11.087682
55.755 10.927271
55.760 10.849621
55.765 10.494744
55.770 10.445317
55.775 10.478894
55.780 10.658448
55.785 10.991898
55.790 11.56254
55.795 11.764588
55.800 12.07284
55.805 12.693367
55.810 13.41804
55.815 13.459148
55.820 13.269151
55.825 13.612174
55.830 13.931822
55.835 14.616574
55.840 14.27077
55.845 14.182081
55.850 14.32695
55.855 13.926725
55.860 13.353724
55.865 13.327635
55.870 12.799359
55.875 13.018998
55.880 12.033039
55.885 11.796463
55.890 12.0178
55.895 12.424421
55.900 12.724106
55.905 12.963002
55.910 13.019882
55.915 13.706359
55.920 14.08138
55.925 13.675047
55.930 13.276051
55.935 12.925637
55.940 12.491904
55.945 13.155863
55.950 12.824748
55.955 12.43141
55.960 12.734512
55.965 12.913098
55.970 12.932117
55.975 12.908821
55.980 12.572673
55.985 12.635493
55.990 12.737979
55.995 13.241941
56.000 13.263481
56.005 13.808898
56.010 14.077645
56.015 14.237728
56.020 14.763566
56.025 14.479894
56.030 13.868833
56.035 13.9601
56.040 13.813558
56.045 13.666
56.050 13.324496
56.055 12.594154
56.060 12.79734
56.065 13.117839
56.070 12.794965
56.075 12.335979
56.080 12.623899
56.085 12.811244
56.090 12.918427
56.095 13.111576
56.100 12.68604
56.105 12.517772
56.110 12.750796
56.115 12.292926
56.120 12.07406
56.125 11.990435
56.130 12.006504
56.135 12.526393
56.140 12.866739
56.145 12.892704
56.150 12.491416
56.155 12.837008
56.160 13.49917
56.165 13.69423
56.170 13.870971
56.175 13.493312
56.180 13.734631
56.185 14.120459
56.190 13.755912
56.195 12.912253
56.200 12.647554
56.205 12.607388
56.210 13.069446
56.215 12.579311
56.220 12.710433
56.225 13.037355
56.230 13.482924
56.235 13.783911
56.240 14.087718
56.245 13.938581
56.250 14.56708
56.255 14.523747
56.260 14.445045
56.265 14.009432
56.270 13.720802
56.275 13.767758
56.280 13.707295
56.285 13.629818
56.290 13.561739
56.295 13.282884
56.300 13.367375
56.305 13.221073
56.310 13.055253
56.315 13.582422
56.320 14.267282
56.325 14.383129
56.330 14.873916
56.335 15.191845
56.340 15.241347
56.345 14.803909
56.350 13.836143
56.355 13.280397
56.360 12.919289
56.365 12.566072
56.370 12.514748
56.375 12.50716
56.380 12.610022
56.385 13.158598
56.390 13.407766
56.395 13.237538
56.400 13.21269
56.405 13.058092
56.410 12.443298
56.415 12.266281
56.420 12.35535
56.425 11.691635
56.430 11.92015
56.435 11.655837
56.440 12.198637
56.445 13.192065
56.450 13.441175
56.455 13.093946
56.460 13.054749
56.465 13.246252
56.470 13.514691
56.475 13.490916
56.480 13.379701
56.485 14.04355
56.490 15.190311
56.495 15.587966
56.500 15.897206
56.505 15.797863
56.510 15.593553
56.515 15.627608
56.520 15.681868
56.525 15.105112
56.530 14.820734
56.535 14.777189
56.540 14.826756
56.545 14.951374
56.550 14.658683
56.555 14.027084
56.560 14.756918
56.565 14.65507
56.570 14.912618
56.575 15.209488
56.580 15.066952
56.585 15.064837
56.590 15.178594
56.595 15.067868
56.600 14.889449
56.605 14.086462
56.610 13.656584
56.615 13.304913
56.620 13.327271
56.625 13.167547
56.630 13.07608
56.635 13.31084
56.640 13.433029
56.645 13.57576
56.650 13.580986
56.655 13.265641
56.660 13.097132
56.665 13.294977
56.670 13.392195
56.675 13.46595
56.680 13.070375
56.685 13.548245
56.690 13.890608
56.695 13.826028
56.700 13.866134
56.705 14.265615
56.710 14.648213
56.715 14.773003
56.720 14.627547
56.725 14.763235
56.730 15.030031
56.735 14.827701
56.740 14.423882
56.745 14.666145
56.750 14.849183
56.755 14.707109
56.760 14.744395
56.765 14.393354
56.770 14.268369
56.775 14.688095
56.780 14.043565
56.785 13.81411
56.790 13.493785
56.795 13.001101
56.800 12.637941
56.805 12.533567
56.810 12.540442
56.815 12.668424
56.820 12.928535
56.825 13.012402
56.830 13.031529
56.835 13.600926
56.840 13.525318
56.845 13.623513
56.850 13.559516
56.855 13.617563
56.860 13.851728
56.865 14.267514
56.870 14.653332
56.875 14.367413
56.880 14.208978
56.885 14.440994
56.890 14.503613
56.895 15.004005
56.900 14.376197
56.905 14.11488
56.910 14.566177
56.915 14.49249
56.920 14.151875
56.925 13.938663
56.930 13.281623
56.935 13.606194
56.940 13.917052
56.945 14.214271
56.950 14.158754
56.955 14.227637
56.960 14.202192
56.965 14.410634
56.970 14.159333
56.975 13.73214
56.980 13.546288
56.985 13.884126
56.990 13.959372
56.995 13.832197
57.000 13.688443
57.005 13.854383
57.010 13.778911
57.015 13.999207
57.020 13.50137
57.025 13.549318
57.030 13.877574
57.035 14.149954
57.040 14.516164
57.045 14.505751
57.050 14.228328
57.055 14.525547
57.060 14.520419
57.065 14.256612
57.070 14.236302
57.075 14.247959
57.080 14.174153
57.085 13.98721
57.090 14.129796
57.095 13.992579
57.100 14.151386
57.105 14.123125
57.110 13.839514
57.115 14.139472
57.120 14.650414
57.125 14.408015
57.130 14.677073
57.135 14.446168
57.140 14.643292
57.145 14.887617
57.150 14.717336
57.155 14.902724
57.160 15.143948
57.165 15.282666
57.170 15.392613
57.175 14.89821
57.180 14.965786
57.185 15.137065
57.190 14.883077
57.195 14.942107
57.200 14.929048
57.205 15.139253
57.210 15.013326
57.215 15.063562
57.220 14.479757
57.225 14.629836
57.230 14.564366
57.235 14.772249
57.240 14.834388
57.245 15.228692
57.250 15.098586
57.255 15.201206
57.260 14.911633
57.265 14.404097
57.270 13.889794
57.275 13.368942
57.280 12.950286
57.285 12.489849
57.290 12.543461
57.295 12.997175
57.300 13.216814
57.305 13.24514
57.310 13.603717
57.315 14.317807
57.320 14.856107
57.325 14.776744
57.330 14.316856
57.335 14.233575
57.340 14.297906
57.345 13.917017
57.350 13.233607
57.355 13.523169
57.360 13.840838
57.365 13.925083
57.370 13.936298
57.375 14.128627
57.380 14.521374
57.385 14.753679
57.390 13.893741
57.395 13.810939
57.400 14.198068
57.405 14.170096
57.410 14.032744
57.415 13.870533
57.420 13.432649
57.425 13.414943
57.430 13.315491
57.435 13.400352
57.440 13.660817
57.445 13.489083
57.450 13.798799
57.455 14.098002
57.460 14.828321
57.465 14.917202
57.470 15.058045
57.475 15.037368
57.480 15.091477
57.485 15.174652
57.490 15.581055
57.495 14.718431
57.500 14.416533
57.505 13.960663
57.510 13.767539
57.515 13.786976
57.520 13.195929
57.525 13.146697
57.530 14.012881
57.535 14.125113
57.540 14.30596
57.545 14.785766
57.550 14.906362
57.555 15.423387
57.560 15.93336
57.565 15.737676
57.570 15.696338
57.575 15.693353
57.580 15.314995
57.585 15.208408
57.590 14.767459
57.595 14.079022
57.600 14.100059
57.605 14.334548
57.610 14.342086
57.615 14.481413
57.620 14.776245
57.625 15.413524
57.630 15.427938
57.635 15.396984
57.640 15.298999
57.645 15.488709
57.650 15.340768
57.655 14.800893
57.660 14.306349
57.665 14.567761
57.670 14.501221
57.675 14.345849
57.680 14.092185
57.685 13.999036
57.690 14.528247
57.695 15.232448
57.700 15.037537
57.705 14.896703
57.710 15.330452
57.715 15.769196
57.720 16.094498
57.725 15.976892
57.730 15.376611
57.735 15.391183
57.740 15.169995
57.745 14.841267
57.750 14.311798
57.755 14.535997
57.760 14.613376
57.765 15.18314
57.770 15.336092
57.775 15.20083
57.780 15.117479
57.785 15.724316
57.790 15.332659
57.795 15.494494
57.800 15.84114
57.805 16.357233
57.810 16.770187
57.815 17.284725
57.820 17.655476
57.825 17.656174
57.830 16.774071
57.835 15.647418
57.840 14.892569
57.845 14.484428
57.850 14.22395
57.855 13.260254
57.860 13.396053
57.865 13.708672
57.870 14.101945
57.875 14.753332
57.880 14.929754
57.885 14.974978
57.890 15.048374
57.895 14.810341
57.900 14.866713
57.905 15.36443
57.910 15.155769
57.915 14.86749
57.920 14.901303
57.925 15.154406
57.930 14.811583
57.935 14.524177
57.940 14.030241
57.945 14.157581
57.950 14.440314
57.955 14.364664
57.960 14.617655
57.965 15.151929
57.970 15.330014
57.975 15.638005
57.980 16.060381
57.985 16.127907
57.990 15.834719
57.995 15.656761
58.000 15.488008
58.005 15.195498
58.010 14.63992
58.015 14.456413
58.020 14.926978
58.025 15.083162
58.030 15.200768
58.035 15.320635
58.040 15.471408
58.045 15.300616
58.050 14.687336
58.055 14.214856
58.060 14.331523
58.065 13.992735
58.070 13.785061
58.075 14.400928
58.080 14.804467
58.085 14.327455
58.090 14.01518
58.095 13.383342
58.100 13.881249
58.105 14.200781
58.110 14.062731
58.115 14.170596
58.120 14.209332
58.125 14.235976
58.130 14.763229
58.135 14.44048
58.140 13.852247
58.145 13.764412
58.150 13.88693
58.155 14.430803
58.160 14.471201
58.165 14.375821
58.170 14.812061
58.175 15.034736
58.180 14.456185
58.185 14.695264
58.190 14.648563
58.195 15.052208
58.200 15.38461
58.205 15.136154
58.210 15.177862
58.215 15.442663
58.220 15.489652
58.225 15.664818
58.230 15.755563
58.235 15.922707
58.240 15.724253
58.245 15.268621
58.250 14.504915
58.255 14.342828
58.260 14.12432
58.265 13.919189
58.270 14.062737
58.275 14.170375
58.280 14.702702
58.285 15.748026
58.290 16.174585
58.295 16.53528
58.300 16.09671
58.305 15.939871
58.310 16.111338
58.315 16.131386
58.320 15.854067
58.325 15.627522
58.330 15.730142
58.335 15.955543
58.340 15.560703
58.345 15.761866
58.350 15.891123
58.355 15.574589
58.360 15.029314
58.365 15.170621
58.370 15.210114
58.375 15.128907
58.380 14.945208
58.385 14.746701
58.390 15.156819
58.395 15.684486
58.400 15.560284
58.405 15.625287
58.410 15.769949
58.415 15.896865
58.420 16.224167
58.425 15.74744
58.430 15.739497
58.435 15.833055
58.440 15.823195
58.445 16.038189
58.450 15.91611
58.455 15.590675
58.460 16.143892
58.465 15.892208
58.470 15.959026
58.475 16.24148
58.480 16.609526
58.485 16.894144
58.490 17.185802
