!@!!GADDS PLOTSO FILE: Chi integration type
!@!!Title/SampleName: map-117
!@!!Comment: ?
!@!!User: Bruker Instrument Administrator
!@!!Site: University of Illinois Chicago
!@!!Frame: map-117_01_000.gfrm
!@!!Wavelengths    1.54184   1.54056   1.54439
!@!!Frame angles: 2Theta: 63.000 Omega: 50.000 Phi: 0.000 Chi: 90.000
!@!!Integration range: 2Theta: 53.000 to 73.000  Gamma: -105.000 to -75.000
!@!!Integration method: bin normalized
!@!N
!@!SS
!@!M
!@!L 0.0 0.0 0.0 0.0
!@!XDegrees
!@!YCounts
53.000 9.302047
53.005 8.878216
53.010 8.725138
53.015 8.779038
53.020 8.812259
53.025 8.900272
53.030 9.142759
53.035 9.294699
53.040 9.502973
53.045 8.95429
53.050 8.700107
53.055 8.38669
53.060 8.104545
53.065 7.780211
53.070 7.837407
53.075 7.92485
53.080 8.112318
53.085 8.514518
53.090 8.67844
53.095 9.050211
53.100 9.239173
53.105 9.181437
53.110 9.061924
53.115 8.603295
53.120 8.636717
53.125 8.907688
53.130 8.975972
53.135 9.142946
53.140 9.226338
53.145 9.640358
53.150 10.091732
53.155 9.506364
53.160 9.054214
53.165 8.842252
53.170 8.873904
53.175 8.456511
53.180 7.953749
53.185 7.834015
53.190 8.03881
53.195 8.011248
53.200 7.496768
53.205 7.250882
53.210 7.384622
53.215 7.331881
53.220 7.260154
53.225 7.181187
53.230 7.688565
53.235 8.123005
53.240 8.317613
53.245 8.683451
53.250 8.760022
53.255 9.126208
53.260 9.095421
53.265 9.3775
53.270 9.41693
53.275 9.171153
53.280 9.291759
53.285 9.388514
53.290 9.708771
53.295 9.412689
53.300 9.023028
53.305 8.923086
53.310 8.818057
53.315 8.644845
53.320 8.800213
53.325 8.706959
53.330 9.022552
53.335 8.539175
53.340 8.3072
53.345 8.269904
53.350 8.096079
53.355 7.395274
53.360 7.112516
53.365 6.885746
53.370 7.382739
53.375 7.635526
53.380 7.774028
53.385 7.8971
53.390 8.351895
53.395 8.206046
53.400 8.462775
53.405 8.265942
53.410 7.770294
53.415 7.593539
53.420 7.794315
53.425 7.794106
53.430 7.725429
53.435 7.869102
53.440 8.696671
53.445 9.616008
53.450 10.080671
53.455 10.35745
53.460 10.643416
53.465 10.785243
53.470 10.383313
53.475 10.004535
53.480 9.286232
53.485 8.715477
53.490 8.413298
53.495 8.474442
53.500 8.96313
53.505 8.725595
53.510 8.512689
53.515 8.745376
53.520 8.566931
53.525 8.333493
53.530 8.010151
53.535 8.037263
53.540 8.426721
53.545 8.414919
53.550 8.239276
53.555 8.49094
53.560 8.599568
53.565 8.574801
53.570 8.398246
53.575 8.190432
53.580 8.350425
53.585 8.234995
53.590 7.71432
53.595 7.794133
53.600 7.848954
53.605 8.043404
53.610 8.149148
53.615 8.647839
53.620 8.971784
53.625 9.210769
53.630 9.014529
53.635 9.006991
53.640 9.099005
53.645 9.259343
53.650 9.192139
53.655 9.217525
53.660 9.690545
53.665 9.816813
53.670 9.10063
53.675 8.48071
53.680 8.262684
53.685 7.769777
53.690 7.543656
53.695 7.483442
53.700 7.822872
53.705 8.347937
53.710 8.758059
53.715 8.649596
53.720 8.76619
53.725 8.825081
53.730 8.601004
53.735 8.256575
53.740 8.271336
53.745 8.136682
53.750 8.333162
53.755 8.413215
53.760 8.163972
53.765 8.173685
53.770 8.455453
53.775 8.617328
53.780 8.757005
53.785 8.95634
53.790 9.33672
53.795 9.745801
53.800 9.763359
53.805 9.419448
53.810 9.002557
53.815 9.007339
53.820 8.964653
53.825 9.05918
53.830 8.896405
53.835 8.880637
53.840 8.922282
53.845 9.061626
53.850 8.876042
53.855 8.789508
53.860 8.303946
53.865 8.193059
53.870 8.478393
53.875 8.361894
53.880 8.520593
53.885 8.590816
53.890 8.408372
53.895 8.70528
53.900 9.2951
53.905 9.823645
53.910 10.108282
53.915 10.112641
53.920 10.133922
53.925 9.885235
53.930 9.470786
53.935 8.837819
53.940 8.789942
53.945 8.320401
53.950 8.243531
53.955 8.662319
53.960 9.121279
53.965 9.523768
53.970 9.076148
53.975 8.783912
53.980 8.854247
53.985 8.593201
53.990 8.383155
53.995 7.861367
54.000 7.819638
54.005 8.016677
54.010 8.347625
54.015 8.536045
54.020 8.694679
54.025 8.597404
54.030 9.055754
54.035 9.129818
54.040 9.047303
54.045 8.614202
54.050 8.412433
54.055 8.509591
54.060 8.695036
54.065 8.194733
54.070 7.862709
54.075 8.092483
54.080 8.551813
54.085 8.830039
54.090 8.650459
54.095 8.724679
54.100 8.995956
54.105 9.478131
54.110 9.799447
54.115 9.895573
54.120 9.962469
54.125 10.158166
54.130 10.524245
54.135 10.685222
54.140 10.087867
54.145 9.700171
54.150 9.716931
54.155 9.663546
54.160 9.395205
54.165 9.13808
54.170 9.203225
54.175 9.060586
54.180 8.860699
54.185 8.389094
54.190 8.519192
54.195 8.441004
54.200 8.600076
54.205 8.511849
54.210 8.816154
54.215 8.915072
54.220 9.042702
54.225 9.13805
54.230 9.234445
54.235 9.014556
54.240 8.769053
54.245 8.815627
54.250 8.689697
54.255 8.212234
54.260 8.177098
54.265 8.179661
54.270 8.338233
54.275 8.194535
54.280 8.298058
54.285 8.865023
54.290 9.435742
54.295 9.5984
54.300 9.762325
54.305 9.743181
54.310 10.418857
54.315 10.3746
54.320 10.070602
54.325 9.929122
54.330 9.618602
54.335 10.247699
54.340 10.295224
54.345 9.587483
54.350 9.032548
54.355 8.392066
54.360 7.985208
54.365 7.284817
54.370 6.522319
54.375 6.435416
54.380 6.818488
54.385 7.022689
54.390 7.690978
54.395 7.904681
54.400 8.183983
54.405 8.340899
54.410 8.620772
54.415 9.177653
54.420 9.604251
54.425 9.284307
54.430 9.431242
54.435 9.863311
54.440 9.785547
54.445 9.438938
54.450 8.793491
54.455 8.355515
54.460 8.37439
54.465 8.195884
54.470 7.861939
54.475 8.217587
54.480 8.502833
54.485 8.648999
54.490 8.936504
54.495 9.160676
54.500 9.251509
54.505 9.247197
54.510 8.755758
54.515 8.76207
54.520 9.079334
54.525 8.850364
54.530 8.594604
54.535 8.312558
54.540 8.239779
54.545 8.585197
54.550 8.263227
54.555 8.367713
54.560 8.508189
54.565 8.433795
54.570 8.535812
54.575 8.542641
54.580 8.60238
54.585 9.103599
54.590 9.095551
54.595 9.369667
54.600 9.633971
54.605 9.876581
54.610 9.621174
54.615 8.852462
54.620 8.443071
54.625 8.062924
54.630 8.030152
54.635 8.030396
54.640 7.746939
54.645 7.75516
54.650 8.050087
54.655 8.472115
54.660 8.853277
54.665 8.666788
54.670 8.675435
54.675 8.7489
54.680 9.330843
54.685 8.999563
54.690 8.603546
54.695 8.49022
54.700 8.255604
54.705 8.412965
54.710 8.825337
54.715 8.915075
54.720 8.925756
54.725 8.524423
54.730 8.405198
54.735 8.238082
54.740 8.187179
54.745 8.168689
54.750 8.29805
54.755 8.955376
54.760 9.829185
54.765 10.219937
54.770 10.573636
54.775 10.592949
54.780 10.363648
54.785 10.301544
54.790 10.173351
54.795 9.663568
54.800 9.897813
54.805 9.992812
54.810 9.842815
54.815 9.834267
54.820 9.90242
54.825 9.528087
54.830 9.444599
54.835 9.405658
54.840 9.185719
54.845 9.399075
54.850 9.007471
54.855 9.200301
54.860 9.450533
54.865 9.373818
54.870 9.252268
54.875 9.566121
54.880 9.670559
54.885 10.093645
54.890 10.089115
54.895 10.129501
54.900 10.35085
54.905 10.388604
54.910 10.328429
54.915 10.149496
54.920 9.41663
54.925 8.97331
54.930 8.679102
54.935 8.515047
54.940 8.413877
54.945 8.898658
54.950 9.390378
54.955 9.633104
54.960 9.805377
54.965 9.930565
54.970 10.012426
54.975 9.707069
54.980 9.225231
54.985 9.267927
54.990 9.401601
54.995 9.849937
55.000 9.715712
55.005 9.49977
55.010 9.771724
55.015 9.803802
55.020 9.772102
55.025 9.846974
55.030 9.640713
55.035 10.015256
55.040 10.464434
55.045 10.313806
55.050 9.991371
55.055 9.878696
55.060 9.782024
55.065 9.589007
55.070 9.493935
55.075 9.101398
55.080 9.190117
55.085 9.75152
55.090 9.774671
55.095 10.20962
55.100 10.258638
55.105 10.052978
55.110 10.391409
55.115 10.432812
55.120 10.357164
55.125 10.494649
55.130 10.471681
55.135 10.66045
55.140 10.655713
55.145 10.523297
55.150 10.274587
55.155 9.74704
55.160 10.058743
55.165 9.694305
55.170 9.426448
55.175 9.767904
55.180 10.267085
55.185 10.59725
55.190 11.079102
55.195 10.805085
55.200 11.157814
55.205 11.258281
55.210 10.888227
55.215 10.637761
55.220 9.889405
55.225 9.241308
55.230 8.605246
55.235 8.18031
55.240 8.300955
55.245 8.374391
55.250 8.5277
55.255 9.401251
55.260 9.655965
55.265 10.292509
55.270 10.071714
55.275 9.754696
55.280 9.623592
55.285 9.435669
55.290 8.695193
55.295 8.418484
55.300 8.155066
55.305 8.688859
55.310 8.831269
55.315 9.071675
55.320 9.532677
55.325 9.779636
55.330 9.91513
55.335 10.217811
55.340 10.062144
55.345 9.73174
55.350 9.284946
55.355 8.986819
55.360 9.205445
55.365 9.39401
55.370 9.22197
55.375 9.075369
55.380 9.31646
55.385 9.314861
55.390 9.624609
55.395 9.530622
55.400 9.561093
55.405 10.014036
55.410 10.248799
55.415 10.19015
55.420 9.986332
55.425 9.830793
55.430 9.376707
55.435 9.116552
55.440 8.748787
55.445 8.950953
55.450 9.04446
55.455 9.325672
55.460 9.498594
55.465 10.034203
55.470 10.18098
55.475 10.312201
55.480 10.107598
55.485 9.934278
55.490 10.029986
55.495 9.818595
55.500 9.382856
55.505 9.59381
55.510 9.516851
55.515 9.419044
55.520 9.30407
55.525 8.952532
55.530 8.901415
55.535 9.417795
55.540 9.313378
55.545 9.530321
55.550 9.879295
55.555 10.153218
55.560 10.497371
55.565 10.996456
55.570 10.687067
55.575 10.235695
55.580 9.964897
55.585 9.390844
55.590 9.23851
55.595 8.876857
55.600 8.580501
55.605 8.53994
55.610 8.959352
55.615 9.519303
55.620 10.069033
55.625 10.203674
55.630 10.252192
55.635 10.559292
55.640 10.684913
55.645 10.707932
55.650 10.579657
55.655 10.172553
55.660 9.993029
55.665 10.089308
55.670 9.695899
55.675 9.563024
55.680 9.140295
55.685 9.231245
55.690 9.422454
55.695 9.629902
55.700 9.4354
55.705 9.542162
55.710 9.194536
55.715 9.1538
55.720 9.050439
55.725 9.073442
55.730 8.660566
55.735 8.550703
55.740 8.664608
55.745 8.798841
55.750 9.126476
55.755 8.951898
55.760 8.971702
55.765 9.205112
55.770 9.259165
55.775 9.295231
55.780 9.326507
55.785 9.291919
55.790 9.417265
55.795 9.365891
55.800 9.830981
55.805 10.349051
55.810 10.452824
55.815 10.780626
55.820 10.999968
55.825 10.916135
55.830 10.760131
55.835 9.78601
55.840 9.560372
55.845 9.994953
55.850 9.869201
55.855 9.388643
55.860 9.615535
55.865 9.697151
55.870 9.820027
55.875 9.658145
55.880 8.958782
55.885 8.945451
55.890 9.176949
55.895 9.097839
55.900 9.046046
55.905 8.668071
55.910 8.398337
55.915 8.670544
55.920 8.99512
55.925 9.021713
55.930 9.714077
55.935 10.076198
55.940 10.30108
55.945 10.446648
55.950 10.619237
55.955 10.306746
55.960 9.872251
55.965 9.340425
55.970 9.423141
55.975 9.578328
55.980 9.262793
55.985 8.886185
55.990 8.979197
55.995 9.103485
56.000 9.454745
56.005 9.325138
56.010 9.573281
56.015 10.209502
56.020 10.427754
56.025 10.068794
56.030 9.865705
56.035 9.300793
56.040 9.177148
56.045 8.393265
56.050 7.434818
56.055 7.130108
56.060 7.334077
56.065 7.608785
56.070 7.643451
56.075 7.900158
56.080 8.296596
56.085 8.250894
56.090 8.307806
56.095 8.37462
56.100 8.336447
56.105 8.64287
56.110 8.461595
56.115 8.605453
56.120 8.995968
56.125 9.157012
56.130 9.029136
56.135 8.862367
56.140 8.455746
56.145 8.708612
56.150 8.480105
56.155 8.524177
56.160 8.886379
56.165 9.030045
56.170 9.032495
56.175 9.038668
56.180 9.063492
56.185 9.157162
56.190 8.736522
56.195 8.521914
56.200 8.695856
56.205 8.896387
56.210 9.072888
56.215 9.373386
56.220 9.676753
56.225 10.014653
56.230 9.990733
56.235 9.952205
56.240 10.046926
56.245 9.977365
56.250 9.223918
56.255 8.700406
56.260 8.886563
56.265 9.661114
56.270 9.68886
56.275 9.749981
56.280 9.863442
56.285 10.474797
56.290 10.933611
56.295 10.413857
56.300 9.748179
56.305 9.943057
56.310 10.106368
56.315 9.995727
56.320 9.780526
56.325 9.244636
56.330 9.310955
56.335 9.219247
56.340 9.201539
56.345 8.92821
56.350 9.016179
56.355 8.877663
56.360 9.341042
56.365 9.411246
56.370 9.695258
56.375 9.570686
56.380 9.307199
56.385 9.331258
56.390 9.412352
56.395 9.148056
56.400 9.583969
56.405 9.865908
56.410 10.160458
56.415 10.779714
56.420 11.322719
56.425 12.060704
56.430 12.321062
56.435 12.115331
56.440 12.053266
56.445 11.999583
56.450 11.900036
56.455 11.242222
56.460 11.56007
56.465 11.15142
56.470 10.806855
56.475 10.827491
56.480 10.535104
56.485 10.471697
56.490 10.911565
56.495 10.579102
56.500 10.913308
56.505 11.175748
56.510 11.129482
56.515 11.574374
56.520 11.466587
56.525 11.361665
56.530 11.409236
56.535 11.227134
56.540 11.1309
56.545 11.11375
56.550 10.668765
56.555 10.846525
56.560 10.818193
56.565 10.826992
56.570 10.889416
56.575 10.933958
56.580 11.27027
56.585 11.444609
56.590 11.20751
56.595 10.935549
56.600 10.829727
56.605 10.593505
56.610 10.518064
56.615 10.712659
56.620 11.062799
56.625 11.386836
56.630 11.58005
56.635 11.717903
56.640 11.651103
56.645 11.191704
56.650 10.489964
56.655 10.309938
56.660 10.332265
56.665 10.25768
56.670 10.537534
56.675 11.102924
56.680 11.421054
56.685 11.610234
56.690 11.488983
56.695 11.078869
56.700 10.967224
56.705 11.01898
56.710 11.042016
56.715 11.358802
56.720 11.396689
56.725 11.460231
56.730 11.942426
56.735 12.064973
56.740 11.401215
56.745 11.033428
56.750 10.80583
56.755 10.690581
56.760 10.607855
56.765 9.975352
56.770 10.064461
56.775 10.459277
56.780 10.189369
56.785 10.146744
56.790 10.319974
56.795 10.267912
56.800 10.512946
56.805 10.288538
56.810 10.159944
56.815 10.043384
56.820 10.273705
56.825 10.280113
56.830 10.485575
56.835 10.434808
56.840 10.648882
56.845 10.636819
56.850 10.891382
56.855 10.69022
56.860 10.405805
56.865 10.247604
56.870 10.653404
56.875 10.192831
56.880 10.259774
56.885 9.925322
56.890 9.96324
56.895 10.017097
56.900 9.804589
56.905 9.914006
56.910 10.653096
56.915 11.011368
56.920 11.2239
56.925 11.197625
56.930 11.048057
56.935 10.764735
56.940 10.132917
56.945 9.947632
56.950 9.708678
56.955 9.79549
56.960 9.921041
56.965 10.431224
56.970 10.547601
56.975 10.196548
56.980 9.661459
56.985 9.959129
56.990 10.029343
56.995 9.62957
57.000 9.312397
57.005 9.290956
57.010 9.764362
57.015 9.672444
57.020 9.378267
57.025 9.09543
57.030 9.411706
57.035 9.256178
57.040 9.603174
57.045 9.827729
57.050 10.218251
57.055 10.014668
57.060 10.047104
57.065 10.081522
57.070 10.695867
57.075 10.826643
57.080 10.595339
57.085 10.882979
57.090 11.075207
57.095 11.215096
57.100 10.674768
57.105 10.054082
57.110 9.774644
57.115 9.361294
57.120 9.061585
57.125 9.021378
57.130 8.938998
57.135 9.558699
57.140 10.029684
57.145 10.587637
57.150 10.677896
57.155 10.81442
57.160 10.934175
57.165 11.004341
57.170 10.266827
57.175 9.756837
57.180 9.45953
57.185 9.293842
57.190 9.086144
57.195 9.182857
57.200 9.775083
57.205 9.902927
57.210 10.158686
57.215 10.370742
57.220 10.85534
57.225 10.724566
57.230 10.589043
57.235 10.372571
57.240 10.962843
57.245 10.599193
57.250 10.418952
57.255 10.516215
57.260 10.670048
57.265 10.52151
57.270 10.194718
57.275 9.635361
57.280 9.396365
57.285 9.284027
57.290 9.078062
57.295 9.210154
57.300 9.458519
57.305 9.934312
57.310 10.743251
57.315 11.01556
57.320 11.067982
57.325 11.042901
57.330 10.611382
57.335 10.15274
57.340 9.574482
57.345 8.968126
57.350 8.762883
57.355 8.755424
57.360 8.952383
57.365 9.407825
57.370 9.920053
57.375 10.134321
57.380 10.796638
57.385 11.03125
57.390 11.163671
57.395 10.946066
57.400 10.704683
57.405 10.796253
57.410 10.647272
57.415 10.455186
57.420 10.505713
57.425 10.553014
57.430 10.962855
57.435 10.798991
57.440 10.943302
57.445 10.949908
57.450 11.061123
57.455 11.251065
57.460 11.078233
57.465 10.628756
57.470 10.453502
57.475 10.011659
57.480 10.016938
57.485 10.082405
57.490 9.8507
57.495 9.890288
57.500 10.118841
57.505 9.891739
57.510 9.727593
57.515 9.652344
57.520 8.837895
57.525 8.614138
57.530 8.459939
57.535 8.511629
57.540 8.673837
57.545 9.019614
57.550 9.241938
57.555 9.933204
57.560 10.253412
57.565 10.672542
57.570 10.565145
57.575 10.574563
57.580 10.670256
57.585 10.198888
57.590 10.526387
57.595 10.517444
57.600 10.039363
57.605 10.153369
57.610 10.277243
57.615 10.202664
57.620 10.441463
57.625 10.576656
57.630 10.755247
57.635 11.176293
57.640 11.127601
57.645 11.385564
57.650 11.425123
57.655 10.985556
57.660 10.058777
57.665 9.690712
57.670 9.359495
57.675 9.101307
57.680 8.965979
57.685 9.320241
57.690 9.806016
57.695 10.022522
57.700 10.352144
57.705 10.925812
57.710 11.142272
57.715 11.445525
57.720 11.361032
57.725 11.183915
57.730 10.948659
57.735 10.727977
57.740 10.831848
57.745 11.031532
57.750 10.840859
57.755 10.846977
57.760 11.225129
57.765 12.248915
57.770 11.710785
57.775 11.231955
57.780 10.451323
57.785 10.774406
57.790 10.865995
57.795 10.147815
57.800 9.30337
57.805 9.851366
57.810 10.262683
57.815 10.888411
57.820 10.510776
57.825 10.503852
57.830 10.755057
57.835 10.849264
57.840 10.4463
57.845 10.367604
57.850 10.453907
57.855 10.216617
57.860 10.134358
57.865 10.45647
57.870 10.532924
57.875 10.484059
57.880 10.071568
57.885 9.56403
57.890 9.832155
57.895 9.872218
57.900 9.525308
57.905 9.295865
57.910 9.184265
57.915 9.490617
57.920 9.76809
57.925 9.706991
57.930 9.277836
57.935 9.206177
57.940 9.509563
57.945 9.734573
57.950 9.664493
57.955 9.468472
57.960 9.407009
57.965 10.079
57.970 10.089028
57.975 9.90719
57.980 9.9583
57.985 9.944369
57.990 10.07767
57.995 10.267587
58.000 10.027989
58.005 9.993605
58.010 10.247217
58.015 10.543118
58.020 10.515748
58.025 9.994298
58.030 9.618929
58.035 9.994992
58.040 9.621459
58.045 9.2847
58.050 8.908941
58.055 8.833425
58.060 9.424614
58.065 9.287886
58.070 9.161058
58.075 9.723248
58.080 10.008183
58.085 9.841224
58.090 9.920167
58.095 9.586205
58.100 9.88245
58.105 10.186713
58.110 9.809092
58.115 9.301729
58.120 9.140696
58.125 8.96162
58.130 9.183975
58.135 9.26935
58.140 9.318476
58.145 9.937753
58.150 10.385303
58.155 10.934831
58.160 11.201331
58.165 11.22605
58.170 11.274466
58.175 11.131216
58.180 11.378149
58.185 11.420273
58.190 11.056282
58.195 10.550433
58.200 10.265373
58.205 9.885133
58.210 9.925332
58.215 9.533236
58.220 9.733585
58.225 10.307243
58.230 11.429836
58.235 12.049856
58.240 11.850029
58.245 11.673736
58.250 11.791896
58.255 11.377979
58.260 10.86794
58.265 9.996176
58.270 9.576112
58.275 9.657864
58.280 9.661284
58.285 9.693385
58.290 10.462929
58.295 10.810426
58.300 11.442585
58.305 12.015415
58.310 12.22192
58.315 11.968456
58.320 12.252672
58.325 11.871651
58.330 11.404555
58.335 11.111938
58.340 10.87686
58.345 11.014136
58.350 11.195475
58.355 10.994819
58.360 11.235759
58.365 11.604616
58.370 12.001793
58.375 12.420379
58.380 12.194113
58.385 12.925998
58.390 13.765949
58.395 13.957169
58.400 14.101531
58.405 13.61313
58.410 13.242621
58.415 13.468344
58.420 12.802397
58.425 11.65824
58.430 11.662391
58.435 11.513004
58.440 11.518294
58.445 11.670914
58.450 11.937286
58.455 12.229847
58.460 12.364703
58.465 11.841557
58.470 11.835422
58.475 12.215111
58.480 12.263156
58.485 11.925457
58.490 11.774468
58.495 12.218807
58.500 12.79048
58.505 13.020894
58.510 12.53671
58.515 12.894703
58.520 13.346106
58.525 13.837054
58.530 13.918615
58.535 13.911811
58.540 13.569264
58.545 14.059321
58.550 13.802449
58.555 13.430298
58.560 13.191865
58.565 13.018246
58.570 13.19779
58.575 13.254321
58.580 12.840308
58.585 12.682993
58.590 12.45182
58.595 12.340974
58.600 12.03465
58.605 11.572754
58.610 11.602392
58.615 11.745428
58.620 11.827177
58.625 12.120648
58.630 12.563865
58.635 12.786786
