!@!!GADDS PLOTSO FILE: Chi integration type
!@!!Title/SampleName: map-56
!@!!Comment: ?
!@!!User: Bruker Instrument Administrator
!@!!Site: University of Illinois Chicago
!@!!Frame: map-56_01_000.gfrm
!@!!Wavelengths    1.54184   1.54056   1.54439
!@!!Frame angles: 2Theta: 63.000 Omega: 50.000 Phi: 0.000 Chi: 90.000
!@!!Integration range: 2Theta: 53.000 to 73.000  Gamma: -105.000 to -75.000
!@!!Integration method: bin normalized
!@!N
!@!SS
!@!M
!@!L 0.0 0.0 0.0 0.0
!@!XDegrees
!@!YCounts
53.000 8.932756
53.005 9.192768
53.010 9.482739
53.015 9.203359
53.020 9.508697
53.025 9.989295
53.030 10.284575
53.035 10.739655
53.040 11.048828
53.045 11.313312
53.050 11.84645
53.055 11.331562
53.060 11.021489
53.065 10.511466
53.070 10.27146
53.075 9.999791
53.080 10.067753
53.085 10.468981
53.090 11.088099
53.095 11.317061
53.100 11.064101
53.105 10.465825
53.110 10.112947
53.115 9.74999
53.120 9.075789
53.125 8.648923
53.130 9.109072
53.135 9.745453
53.140 10.310064
53.145 10.896481
53.150 11.154482
53.155 11.462325
53.160 11.567952
53.165 11.011876
53.170 10.620566
53.175 10.20569
53.180 9.788487
53.185 9.826331
53.190 9.66437
53.195 9.371266
53.200 9.433883
53.205 9.472226
53.210 9.815024
53.215 10.33269
53.220 10.240328
53.225 10.341513
53.230 10.362914
53.235 10.49543
53.240 10.422666
53.245 10.067585
53.250 10.008245
53.255 10.551546
53.260 10.498378
53.265 10.771962
53.270 11.142105
53.275 11.307328
53.280 11.394595
53.285 10.749206
53.290 10.079653
53.295 10.398269
53.300 10.426857
53.305 10.652541
53.310 10.627261
53.315 10.677644
53.320 11.070376
53.325 11.089336
53.330 11.036772
53.335 10.581607
53.340 10.06733
53.345 10.328375
53.350 10.297298
53.355 10.155619
53.360 10.54756
53.365 10.341712
53.370 10.642614
53.375 10.285078
53.380 9.900158
53.385 9.640138
53.390 9.461194
53.395 9.485307
53.400 9.565451
53.405 9.90827
53.410 10.252159
53.415 10.473608
53.420 10.755124
53.425 10.699445
53.430 10.104911
53.435 10.352927
53.440 10.080554
53.445 10.299438
53.450 10.359247
53.455 10.505656
53.460 10.818769
53.465 10.979942
53.470 10.803991
53.475 10.799507
53.480 10.409219
53.485 10.474652
53.490 10.354482
53.495 10.40449
53.500 10.239581
53.505 10.863274
53.510 10.769567
53.515 10.933794
53.520 11.389382
53.525 11.876355
53.530 11.990073
53.535 12.098847
53.540 11.262094
53.545 11.635784
53.550 11.631567
53.555 11.309068
53.560 11.04705
53.565 10.944667
53.570 11.034207
53.575 11.08859
53.580 10.873701
53.585 10.860866
53.590 11.290359
53.595 11.440491
53.600 11.137711
53.605 10.852992
53.610 11.345175
53.615 11.216544
53.620 10.765005
53.625 10.284868
53.630 9.92651
53.635 9.946164
53.640 9.90809
53.645 9.787522
53.650 10.12099
53.655 10.508096
53.660 10.614848
53.665 10.77931
53.670 10.877174
53.675 10.898756
53.680 10.781109
53.685 11.0142
53.690 11.101883
53.695 11.321686
53.700 11.421391
53.705 11.725781
53.710 11.836508
53.715 11.765023
53.720 11.350342
53.725 11.3019
53.730 10.481443
53.735 9.921084
53.740 9.485065
53.745 9.570077
53.750 9.534564
53.755 9.698822
53.760 9.661168
53.765 10.094427
53.770 10.654709
53.775 10.715175
53.780 10.545238
53.785 10.361119
53.790 9.923904
53.795 9.960529
53.800 10.153707
53.805 9.888103
53.810 9.986794
53.815 9.966575
53.820 9.892499
53.825 10.302371
53.830 10.596504
53.835 10.633902
53.840 10.745136
53.845 10.728069
53.850 10.575431
53.855 10.768144
53.860 10.893703
53.865 10.923721
53.870 10.65952
53.875 10.604694
53.880 10.84384
53.885 11.139624
53.890 11.351633
53.895 10.563472
53.900 10.196114
53.905 10.633781
53.910 10.404094
53.915 10.276552
53.920 10.264008
53.925 10.253973
53.930 10.775437
53.935 10.812908
53.940 10.351318
53.945 10.6513
53.950 11.138505
53.955 11.272624
53.960 11.227365
53.965 11.76284
53.970 12.163624
53.975 12.580413
53.980 12.474577
53.985 12.09993
53.990 11.840131
53.995 11.67978
54.000 11.408836
54.005 11.305929
54.010 11.144534
54.015 10.769293
54.020 10.698897
54.025 10.984625
54.030 10.988349
54.035 10.886898
54.040 10.871106
54.045 11.014072
54.050 11.485493
54.055 11.6165
54.060 11.502952
54.065 12.019442
54.070 12.382509
54.075 12.522942
54.080 12.442118
54.085 12.318688
54.090 12.570105
54.095 12.325006
54.100 11.962515
54.105 11.602177
54.110 11.376631
54.115 11.085967
54.120 10.740051
54.125 10.182791
54.130 10.638847
54.135 11.015416
54.140 11.069673
54.145 11.851341
54.150 12.607655
54.155 12.820155
54.160 12.956202
54.165 12.705018
54.170 12.473158
54.175 12.386113
54.180 11.802945
54.185 11.884007
54.190 11.647497
54.195 11.480445
54.200 11.945925
54.205 12.03495
54.210 11.934287
54.215 11.3797
54.220 10.795937
54.225 11.491095
54.230 11.241365
54.235 11.466912
54.240 11.744285
54.245 11.976126
54.250 12.352407
54.255 12.971132
54.260 13.07936
54.265 13.132642
54.270 12.225493
54.275 12.423072
54.280 12.990809
54.285 13.15755
54.290 13.10365
54.295 12.62511
54.300 12.666289
54.305 12.523582
54.310 12.267921
54.315 11.764586
54.320 11.130111
54.325 10.94926
54.330 11.210212
54.335 11.483989
54.340 11.26837
54.345 11.20085
54.350 11.339586
54.355 11.469944
54.360 11.466278
54.365 11.40586
54.370 11.438823
54.375 11.653544
54.380 11.261374
54.385 10.901107
54.390 10.85071
54.395 10.556907
54.400 10.117099
54.405 9.367322
54.410 9.039404
54.415 9.398029
54.420 9.474844
54.425 9.601029
54.430 9.947937
54.435 10.472157
54.440 11.078584
54.445 11.269614
54.450 11.734813
54.455 12.272053
54.460 12.481165
54.465 12.458387
54.470 11.913992
54.475 11.807227
54.480 12.019382
54.485 11.948956
54.490 11.936132
54.495 11.83743
54.500 11.885893
54.505 12.000917
54.510 11.810387
54.515 11.695632
54.520 11.272143
54.525 10.785083
54.530 10.707918
54.535 11.144451
54.540 11.539582
54.545 11.016567
54.550 10.570622
54.555 10.972411
54.560 11.384341
54.565 11.75882
54.570 11.751385
54.575 11.702199
54.580 12.167871
54.585 11.62007
54.590 11.086966
54.595 10.634398
54.600 9.876293
54.605 9.792391
54.610 9.906797
54.615 10.362337
54.620 10.691196
54.625 11.219135
54.630 11.353995
54.635 11.831719
54.640 12.162907
54.645 12.88234
54.650 13.120667
54.655 13.558071
54.660 13.727611
54.665 13.721589
54.670 13.13226
54.675 12.53757
54.680 12.036953
54.685 12.224566
54.690 11.412601
54.695 10.537406
54.700 10.391994
54.705 10.510174
54.710 10.771862
54.715 10.557457
54.720 10.457965
54.725 11.372693
54.730 11.637096
54.735 12.238536
54.740 12.05588
54.745 11.710179
54.750 11.432221
54.755 10.95345
54.760 10.469511
54.765 10.329139
54.770 9.935943
54.775 10.100435
54.780 9.986738
54.785 10.315136
54.790 10.857931
54.795 11.064772
54.800 11.320112
54.805 11.642828
54.810 11.759676
54.815 11.970325
54.820 12.118387
54.825 11.860549
54.830 12.027647
54.835 11.849893
54.840 11.586423
54.845 11.30302
54.850 11.286367
54.855 10.890382
54.860 11.380409
54.865 11.274076
54.870 11.48787
54.875 12.165466
54.880 13.365144
54.885 13.776504
54.890 14.079044
54.895 13.898491
54.900 13.62748
54.905 13.412601
54.910 13.355906
54.915 13.536608
54.920 13.594974
54.925 13.065721
54.930 13.129871
54.935 13.444637
54.940 13.201899
54.945 12.944465
54.950 11.824829
54.955 11.605552
54.960 11.70892
54.965 11.52342
54.970 11.466163
54.975 11.093794
54.980 10.936014
54.985 11.422686
54.990 11.183533
54.995 11.241669
55.000 11.202574
55.005 11.323847
55.010 11.487747
55.015 11.537371
55.020 11.907787
55.025 12.247524
55.030 12.017091
55.035 11.399856
55.040 11.344846
55.045 11.356656
55.050 10.620018
55.055 10.525707
55.060 10.749829
55.065 10.993056
55.070 11.363624
55.075 11.512036
55.080 12.015642
55.085 12.229907
55.090 11.785872
55.095 12.058684
55.100 12.072682
55.105 12.494344
55.110 12.2634
55.115 11.739883
55.120 11.37343
55.125 11.362114
55.130 10.998367
55.135 11.160187
55.140 10.994538
55.145 11.15446
55.150 11.440238
55.155 11.646719
55.160 12.227088
55.165 12.671798
55.170 12.242434
55.175 12.298488
55.180 12.193263
55.185 12.442893
55.190 12.970491
55.195 12.786506
55.200 12.881749
55.205 13.240014
55.210 13.560976
55.215 13.689551
55.220 13.311255
55.225 12.89818
55.230 12.765922
55.235 12.787058
55.240 12.182344
55.245 11.408331
55.250 11.033531
55.255 11.463485
55.260 11.506783
55.265 10.974161
55.270 11.515984
55.275 12.303992
55.280 13.062947
55.285 13.042797
55.290 12.697189
55.295 12.855933
55.300 13.245608
55.305 12.657254
55.310 12.464387
55.315 12.313535
55.320 12.542613
55.325 12.700021
55.330 12.179854
55.335 12.128508
55.340 12.480326
55.345 12.304828
55.350 11.983784
55.355 12.046316
55.360 12.591434
55.365 12.840304
55.370 12.500401
55.375 11.92179
55.380 12.080619
55.385 12.156974
55.390 11.701068
55.395 11.349451
55.400 11.47104
55.405 11.854623
55.410 12.300647
55.415 11.970439
55.420 12.455415
55.425 13.027055
55.430 13.312632
55.435 13.223428
55.440 12.991619
55.445 13.282419
55.450 13.425398
55.455 12.966994
55.460 12.476068
55.465 12.461283
55.470 12.651341
55.475 12.612316
55.480 12.736254
55.485 12.752868
55.490 13.123735
55.495 13.133115
55.500 13.414974
55.505 13.37794
55.510 13.34395
55.515 13.203297
55.520 13.083232
55.525 12.891527
55.530 13.297084
55.535 13.331235
55.540 13.728498
55.545 13.867935
55.550 13.955511
55.555 13.617417
55.560 13.505489
55.565 12.88971
55.570 12.384571
55.575 11.836753
55.580 11.183186
55.585 11.338531
55.590 12.405684
55.595 12.390199
55.600 12.060887
55.605 12.085568
55.610 12.813865
55.615 13.05856
55.620 12.615357
55.625 11.963476
55.630 11.883235
55.635 12.575066
55.640 12.991264
55.645 13.053501
55.650 12.991592
55.655 12.532293
55.660 12.423059
55.665 12.273887
55.670 11.70111
55.675 10.851032
55.680 10.520467
55.685 10.691788
55.690 11.226409
55.695 11.600474
55.700 11.717131
55.705 11.572455
55.710 11.582471
55.715 11.319331
55.720 11.391286
55.725 11.700092
55.730 11.75453
55.735 11.763485
55.740 12.345984
55.745 12.594258
55.750 13.065855
55.755 13.099006
55.760 12.418921
55.765 12.4614
55.770 12.59884
55.775 12.569766
55.780 12.91414
55.785 12.720283
55.790 12.220694
55.795 12.188791
55.800 11.919368
55.805 11.881838
55.810 11.567725
55.815 11.278188
55.820 11.551938
55.825 11.971454
55.830 12.411288
55.835 12.306594
55.840 12.362112
55.845 12.719793
55.850 13.041644
55.855 13.009234
55.860 12.688841
55.865 12.486836
55.870 12.988008
55.875 13.39621
55.880 13.434145
55.885 13.103383
55.890 12.956504
55.895 13.560284
55.900 13.912179
55.905 13.898669
55.910 13.514318
55.915 13.69029
55.920 13.967105
55.925 14.0673
55.930 13.403014
55.935 13.160416
55.940 13.72617
55.945 14.153011
55.950 14.066201
55.955 13.953848
55.960 14.49648
55.965 14.804924
55.970 14.49115
55.975 13.816783
55.980 12.752436
55.985 12.919297
55.990 13.495242
55.995 13.553371
56.000 13.799563
56.005 13.380259
56.010 13.305193
56.015 13.683382
56.020 12.89374
56.025 11.944849
56.030 11.453971
56.035 11.253092
56.040 11.953308
56.045 11.930871
56.050 12.135527
56.055 12.557269
56.060 12.626527
56.065 13.286923
56.070 13.855741
56.075 13.925059
56.080 13.676766
56.085 13.994554
56.090 14.288354
56.095 14.474563
56.100 14.009449
56.105 13.816163
56.110 13.454614
56.115 13.315202
56.120 12.675082
56.125 12.545033
56.130 12.312148
56.135 12.347121
56.140 12.799691
56.145 13.213519
56.150 13.893848
56.155 14.420347
56.160 14.502947
56.165 14.779351
56.170 14.557493
56.175 13.837924
56.180 13.577996
56.185 13.520075
56.190 13.444347
56.195 13.305847
56.200 12.661766
56.205 12.656345
56.210 13.644241
56.215 13.937284
56.220 13.538424
56.225 13.219523
56.230 13.528389
56.235 13.89243
56.240 14.234125
56.245 13.912498
56.250 14.223299
56.255 14.080153
56.260 14.160293
56.265 14.190027
56.270 14.516153
56.275 14.441891
56.280 13.852913
56.285 13.582135
56.290 13.958389
56.295 14.469347
56.300 14.105458
56.305 13.929388
56.310 13.850216
56.315 14.024884
56.320 13.663888
56.325 13.006281
56.330 13.21094
56.335 13.814695
56.340 13.566998
56.345 13.570993
56.350 13.291198
56.355 13.438602
56.360 13.394134
56.365 12.920815
56.370 12.926106
56.375 13.123632
56.380 13.137141
56.385 13.377943
56.390 13.806643
56.395 14.15314
56.400 14.168551
56.405 13.666568
56.410 13.758094
56.415 13.461998
56.420 13.817449
56.425 13.53359
56.430 13.044504
56.435 12.68867
56.440 12.95258
56.445 12.930014
56.450 13.477501
56.455 13.059221
56.460 13.494081
56.465 13.772707
56.470 13.668373
56.475 13.686469
56.480 13.806924
56.485 13.297951
56.490 13.86699
56.495 13.957054
56.500 14.250981
56.505 14.462982
56.510 13.858213
56.515 13.651617
56.520 13.186877
56.525 12.507212
56.530 11.921661
56.535 11.819011
56.540 11.840862
56.545 12.131151
56.550 11.913853
56.555 12.074599
56.560 12.111905
56.565 12.869933
56.570 12.697522
56.575 13.057009
56.580 13.074487
56.585 13.158233
56.590 13.456756
56.595 13.676367
56.600 13.217767
56.605 13.292468
56.610 13.029718
56.615 13.447576
56.620 13.761703
56.625 13.887165
56.630 13.84634
56.635 13.669513
56.640 13.724585
56.645 13.629865
56.650 13.083138
56.655 13.18842
56.660 13.202503
56.665 13.242462
56.670 13.895739
56.675 13.937367
56.680 14.085711
56.685 14.049863
56.690 14.131031
56.695 13.669629
56.700 13.964856
56.705 13.907024
56.710 14.235557
56.715 14.361136
56.720 14.612351
56.725 14.342142
56.730 14.354049
56.735 14.320252
56.740 14.451527
56.745 14.39715
56.750 14.302244
56.755 14.45512
56.760 14.894875
56.765 14.722577
56.770 14.502766
56.775 14.111177
56.780 14.039029
56.785 14.077223
56.790 14.189501
56.795 14.619635
56.800 14.630478
56.805 14.531208
56.810 14.604586
56.815 14.51557
56.820 14.868894
56.825 14.512725
56.830 13.86469
56.835 14.391121
56.840 14.351073
56.845 14.439573
56.850 14.488997
56.855 14.414212
56.860 14.463522
56.865 14.705387
56.870 14.973358
56.875 14.969435
56.880 14.764284
56.885 14.289586
56.890 14.251208
56.895 14.483746
56.900 14.395697
56.905 14.084736
56.910 14.119059
56.915 14.306885
56.920 14.318713
56.925 13.857519
56.930 13.55209
56.935 13.262031
56.940 13.409853
56.945 13.170683
56.950 12.906842
56.955 13.286864
56.960 13.59963
56.965 14.170532
56.970 14.442142
56.975 14.418034
56.980 14.296325
56.985 14.335997
56.990 14.450474
56.995 14.496701
57.000 14.308793
57.005 13.918
57.010 13.691701
57.015 13.714111
57.020 14.357195
57.025 13.735188
57.030 13.399382
57.035 13.168804
57.040 13.131022
57.045 13.324479
57.050 13.366613
57.055 13.310258
57.060 13.357211
57.065 13.448129
57.070 13.814444
57.075 14.114169
57.080 14.433053
57.085 14.282372
57.090 14.663815
57.095 15.142331
57.100 15.693081
57.105 15.694194
57.110 15.732431
57.115 16.092985
57.120 16.052105
57.125 15.526579
57.130 15.464417
57.135 14.952058
57.140 15.195953
57.145 14.820369
57.150 14.680289
57.155 14.833775
57.160 15.518695
57.165 15.839738
57.170 15.835292
57.175 15.222502
57.180 15.29154
57.185 15.080578
57.190 15.325963
57.195 15.129552
57.200 14.962394
57.205 14.796417
57.210 15.461203
57.215 15.767323
57.220 15.408158
57.225 14.997317
57.230 15.009893
57.235 14.912163
57.240 14.336686
57.245 13.988284
57.250 13.929133
57.255 14.136089
57.260 13.731058
57.265 13.415918
57.270 13.437518
57.275 14.108509
57.280 14.461065
57.285 14.045933
57.290 13.865431
57.295 13.707952
57.300 13.696896
57.305 14.673326
57.310 14.627346
57.315 13.855153
57.320 14.191338
57.325 15.237416
57.330 15.733052
57.335 15.882381
57.340 15.54088
57.345 15.697003
57.350 16.136999
57.355 15.940444
57.360 15.042367
57.365 14.77121
57.370 14.47288
57.375 14.708543
57.380 14.271854
57.385 14.154189
57.390 14.423167
57.395 14.679465
57.400 14.809248
57.405 14.723586
57.410 14.533543
57.415 14.973987
57.420 15.285903
57.425 15.465714
57.430 15.65562
57.435 15.715252
57.440 15.265162
57.445 15.121535
57.450 14.802179
57.455 14.625691
57.460 14.797865
57.465 14.720625
57.470 14.730815
57.475 14.907426
57.480 14.538076
57.485 14.811461
57.490 14.847823
57.495 14.383704
57.500 14.582174
57.505 14.545921
57.510 14.461537
57.515 14.70165
57.520 14.512738
57.525 14.370422
57.530 14.341644
57.535 14.391167
57.540 14.621876
57.545 14.541632
57.550 14.945518
57.555 15.021268
57.560 14.941537
57.565 14.841916
57.570 14.991647
57.575 15.253888
57.580 15.535681
57.585 15.685116
57.590 15.945757
57.595 15.957002
57.600 16.042875
57.605 15.618182
57.610 15.294819
57.615 15.070888
57.620 15.119827
57.625 15.595039
57.630 15.830056
57.635 15.909039
57.640 15.835094
57.645 15.420837
57.650 14.96057
57.655 14.695999
57.660 14.300426
57.665 13.767363
57.670 13.419859
57.675 13.749598
57.680 14.139869
57.685 14.309733
57.690 14.233441
57.695 14.286911
57.700 14.392297
57.705 14.436877
57.710 14.168818
57.715 14.54306
57.720 14.934142
57.725 14.983606
57.730 15.065225
57.735 15.584702
57.740 16.14439
57.745 16.175901
57.750 16.253736
57.755 16.429665
57.760 15.70167
57.765 15.553637
57.770 15.2279
57.775 15.31954
57.780 15.346377
57.785 14.904304
57.790 14.648259
57.795 15.317832
57.800 15.427066
57.805 15.497356
57.810 15.264364
57.815 15.300724
57.820 15.062141
57.825 14.932669
57.830 14.655099
57.835 14.570227
57.840 14.461967
57.845 14.606308
57.850 15.187981
57.855 15.347809
57.860 15.814161
57.865 16.159794
57.870 16.351377
57.875 16.051556
57.880 15.413112
57.885 15.051399
57.890 15.209576
57.895 14.63201
57.900 14.65344
57.905 14.332892
57.910 14.70312
57.915 15.410305
57.920 15.575196
57.925 15.72729
57.930 16.060432
57.935 15.546232
57.940 16.112495
57.945 15.893405
57.950 15.649242
57.955 15.605188
57.960 15.557491
57.965 15.493834
57.970 16.103067
57.975 15.827364
57.980 15.235765
57.985 15.48902
57.990 15.494704
57.995 15.030901
58.000 14.593349
58.005 14.446307
58.010 14.82227
58.015 15.183874
58.020 14.978215
58.025 14.797804
58.030 15.744502
58.035 16.375544
58.040 16.122946
58.045 16.433031
58.050 16.21607
58.055 16.209608
58.060 16.049276
58.065 15.476089
58.070 15.272799
58.075 14.987668
58.080 14.541097
58.085 14.708075
58.090 14.749957
58.095 15.438272
58.100 15.570108
58.105 15.5902
58.110 16.160807
58.115 16.454096
58.120 16.63438
58.125 16.606842
58.130 16.415668
58.135 16.215475
58.140 15.568936
58.145 15.437423
58.150 15.6344
58.155 15.279914
58.160 15.320951
58.165 14.790725
58.170 14.948466
58.175 15.526825
58.180 15.662891
58.185 16.21032
58.190 16.35372
58.195 16.417564
58.200 16.666462
58.205 16.869478
58.210 16.679729
58.215 16.000633
58.220 15.257318
58.225 15.093063
58.230 14.820016
58.235 14.904205
58.240 15.137431
58.245 15.230418
58.250 15.286322
58.255 15.316378
58.260 14.956859
58.265 15.007963
58.270 15.128724
58.275 15.341763
58.280 15.613612
58.285 15.848063
58.290 16.215736
58.295 16.894585
58.300 16.884464
58.305 16.429785
58.310 16.374607
58.315 15.981935
58.320 15.731854
58.325 15.342452
58.330 14.588674
58.335 14.749942
58.340 14.855333
58.345 15.19908
58.350 15.345297
58.355 15.121625
58.360 14.949965
58.365 15.563465
58.370 15.362477
58.375 15.13184
58.380 14.892871
58.385 14.897734
58.390 14.994834
58.395 15.453543
58.400 15.485585
58.405 15.88401
58.410 16.059896
58.415 16.106857
58.420 16.535782
58.425 16.579201
58.430 16.496813
58.435 16.159878
58.440 15.865472
58.445 15.717308
58.450 15.316843
58.455 15.568291
