!@!!GADDS PLOTSO FILE: Chi integration type
!@!!Title/SampleName: map-e1
!@!!Comment: ?
!@!!User: Bruker Instrument Administrator
!@!!Site: University of Illinois Chicago
!@!!Frame: map-e1_01_000.gfrm
!@!!Wavelengths    1.54184   1.54056   1.54439
!@!!Frame angles: 2Theta: 63.000 Omega: 50.000 Phi: 0.000 Chi: 90.000
!@!!Integration range: 2Theta: 53.000 to 73.000  Gamma: -105.000 to -75.000
!@!!Integration method: bin normalized
!@!N
!@!SS
!@!M
!@!L 0.0 0.0 0.0 0.0
!@!XDegrees
!@!YCounts
53.000 6.788516
53.005 6.88207
53.010 6.661441
53.015 6.827662
53.020 7.009555
53.025 7.137131
53.030 6.954317
53.035 7.183189
53.040 7.522183
53.045 7.702354
53.050 7.778645
53.055 7.5662
53.060 7.493084
53.065 7.204461
53.070 6.990684
53.075 6.903097
53.080 7.189492
53.085 7.459035
53.090 7.487272
53.095 7.662364
53.100 7.954417
53.105 7.943892
53.110 8.285918
53.115 8.170622
53.120 8.365905
53.125 8.235225
53.130 7.942346
53.135 8.500079
53.140 8.406348
53.145 7.975534
53.150 8.138147
53.155 8.348633
53.160 8.528125
53.165 8.78925
53.170 8.192942
53.175 8.261307
53.180 8.41483
53.185 8.021556
53.190 8.075318
53.195 8.527205
53.200 8.243168
53.205 8.217219
53.210 8.006679
53.215 7.792902
53.220 8.01259
53.225 7.543459
53.230 7.183814
53.235 7.118816
53.240 7.131376
53.245 7.016417
53.250 6.90392
53.255 6.887169
53.260 7.224576
53.265 7.644366
53.270 7.995539
53.275 8.135038
53.280 8.277627
53.285 8.236475
53.290 8.076999
53.295 7.490977
53.300 7.518157
53.305 7.607927
53.310 7.394554
53.315 7.569515
53.320 7.704855
53.325 7.679913
53.330 7.773295
53.335 7.645431
53.340 7.516223
53.345 7.498218
53.350 7.386021
53.355 7.23575
53.360 7.56879
53.365 7.631539
53.370 7.853337
53.375 7.920167
53.380 8.144097
53.385 8.114563
53.390 8.789008
53.395 8.84353
53.400 8.909741
53.405 8.697288
53.410 8.744445
53.415 9.113213
53.420 9.219341
53.425 8.576448
53.430 8.209063
53.435 8.056839
53.440 8.315457
53.445 8.213262
53.450 7.586132
53.455 7.447004
53.460 7.692061
53.465 8.156887
53.470 8.403906
53.475 8.579132
53.480 8.797611
53.485 9.000797
53.490 8.985281
53.495 8.986337
53.500 8.81433
53.505 8.554078
53.510 8.420628
53.515 8.524469
53.520 8.845067
53.525 9.216948
53.530 9.248623
53.535 9.231417
53.540 8.902733
53.545 8.988021
53.550 8.842412
53.555 8.635742
53.560 8.000729
53.565 7.511253
53.570 7.363246
53.575 7.61622
53.580 7.582687
53.585 7.215102
53.590 7.086354
53.595 7.262803
53.600 7.687649
53.605 7.848252
53.610 7.454182
53.615 7.622063
53.620 8.073174
53.625 8.334151
53.630 8.310099
53.635 8.26468
53.640 8.327398
53.645 8.327885
53.650 8.593386
53.655 8.628051
53.660 8.781036
53.665 8.892303
53.670 8.688428
53.675 8.90614
53.680 8.939193
53.685 8.878398
53.690 8.884554
53.695 8.788225
53.700 8.677887
53.705 8.853889
53.710 8.714004
53.715 8.246546
53.720 8.166296
53.725 8.624866
53.730 8.407165
53.735 8.299694
53.740 7.979789
53.745 8.27002
53.750 8.651059
53.755 8.451449
53.760 8.213553
53.765 8.261935
53.770 8.492987
53.775 8.67112
53.780 8.122488
53.785 7.822906
53.790 7.78446
53.795 7.557767
53.800 7.712395
53.805 7.579226
53.810 7.393792
53.815 7.65367
53.820 8.019487
53.825 8.677482
53.830 8.944963
53.835 8.913285
53.840 9.307243
53.845 9.446692
53.850 9.489788
53.855 8.843609
53.860 8.216428
53.865 7.867343
53.870 7.682448
53.875 7.427134
53.880 7.638422
53.885 7.734671
53.890 7.880672
53.895 7.787046
53.900 7.98999
53.905 7.977884
53.910 7.960289
53.915 7.871781
53.920 7.452716
53.925 7.17801
53.930 7.423038
53.935 7.616895
53.940 7.776423
53.945 7.836031
53.950 8.21293
53.955 8.543307
53.960 8.9846
53.965 8.945739
53.970 8.804103
53.975 8.494514
53.980 8.474916
53.985 8.191464
53.990 8.229898
53.995 8.213436
54.000 7.92536
54.005 7.911803
54.010 8.05687
54.015 7.829201
54.020 7.772166
54.025 7.558742
54.030 7.236165
54.035 7.06952
54.040 7.314505
54.045 7.207862
54.050 6.891944
54.055 7.156768
54.060 7.510565
54.065 7.702599
54.070 7.975626
54.075 8.223215
54.080 8.480167
54.085 8.633879
54.090 8.550665
54.095 8.33107
54.100 8.324727
54.105 8.130245
54.110 7.492632
54.115 7.087829
54.120 7.145485
54.125 7.117224
54.130 7.44951
54.135 7.646703
54.140 7.500444
54.145 8.107412
54.150 8.433932
54.155 8.542495
54.160 8.635261
54.165 8.600153
54.170 8.63765
54.175 8.887708
54.180 9.112294
54.185 9.226892
54.190 8.939355
54.195 8.526702
54.200 8.324079
54.205 8.245839
54.210 8.048185
54.215 8.054454
54.220 8.215326
54.225 8.578122
54.230 8.823665
54.235 9.206572
54.240 9.656569
54.245 9.59938
54.250 9.203965
54.255 8.918679
54.260 9.045473
54.265 9.573738
54.270 9.55767
54.275 9.463981
54.280 9.519276
54.285 9.48743
54.290 9.268097
54.295 8.945284
54.300 8.27193
54.305 8.329205
54.310 8.471174
54.315 8.465032
54.320 8.44183
54.325 8.317717
54.330 8.338684
54.335 8.323647
54.340 8.510653
54.345 8.379035
54.350 8.899421
54.355 9.281545
54.360 9.529486
54.365 9.216203
54.370 8.973676
54.375 8.331268
54.380 8.20475
54.385 7.814863
54.390 8.012698
54.395 7.845048
54.400 7.964257
54.405 7.901905
54.410 7.870728
54.415 8.102216
54.420 7.916614
54.425 7.788487
54.430 8.067547
54.435 8.072319
54.440 8.469897
54.445 8.845263
54.450 8.748816
54.455 9.18613
54.460 9.422768
54.465 9.499382
54.470 9.876492
54.475 9.725779
54.480 9.701788
54.485 9.813394
54.490 9.592001
54.495 9.148993
54.500 9.076184
54.505 8.659326
54.510 8.311467
54.515 8.287556
54.520 8.293407
54.525 8.210651
54.530 8.484231
54.535 8.627692
54.540 8.736333
54.545 8.842118
54.550 8.286965
54.555 8.34453
54.560 8.773207
54.565 8.977671
54.570 9.011287
54.575 9.197181
54.580 9.264677
54.585 9.341112
54.590 9.148513
54.595 9.033239
54.600 8.931074
54.605 8.78302
54.610 8.798207
54.615 8.732767
54.620 8.548509
54.625 8.198792
54.630 7.820535
54.635 7.504915
54.640 7.577734
54.645 7.967091
54.650 8.657706
54.655 9.113143
54.660 9.203347
54.665 9.133574
54.670 9.30692
54.675 9.122853
54.680 8.898402
54.685 8.168587
54.690 8.474964
54.695 8.759499
54.700 8.689445
54.705 8.595418
54.710 8.225554
54.715 8.412093
54.720 8.284983
54.725 7.951514
54.730 8.072825
54.735 8.465065
54.740 9.047944
54.745 9.567478
54.750 9.545041
54.755 9.850842
54.760 9.90339
54.765 9.874679
54.770 9.384932
54.775 8.971607
54.780 9.175679
54.785 9.117805
54.790 9.296389
54.795 9.136617
54.800 9.236113
54.805 9.855285
54.810 10.234062
54.815 10.084597
54.820 10.074517
54.825 10.262799
54.830 10.159753
54.835 10.274323
54.840 9.677022
54.845 9.190889
54.850 9.114029
54.855 8.898851
54.860 8.536695
54.865 9.098929
54.870 8.990479
54.875 9.192282
54.880 9.288224
54.885 9.491884
54.890 9.277612
54.895 9.822465
54.900 9.739044
54.905 9.663311
54.910 9.818651
54.915 9.953702
54.920 9.907515
54.925 9.792958
54.930 9.352663
54.935 9.144726
54.940 9.291465
54.945 9.15015
54.950 8.869738
54.955 9.37151
54.960 9.283215
54.965 9.261976
54.970 9.004084
54.975 9.01589
54.980 9.601117
54.985 10.230636
54.990 10.388521
54.995 10.708037
55.000 10.727517
55.005 11.230602
55.010 10.738158
55.015 9.755752
55.020 9.041933
55.025 8.616026
55.030 8.639272
55.035 8.784983
55.040 8.952212
55.045 9.770626
55.050 10.541986
55.055 11.13823
55.060 11.057137
55.065 11.15002
55.070 10.926394
55.075 10.307001
55.080 10.194917
55.085 9.214452
55.090 8.479084
55.095 8.549651
55.100 8.33517
55.105 8.675089
55.110 8.908452
55.115 8.934738
55.120 9.445714
55.125 9.974919
55.130 9.852679
55.135 9.758077
55.140 9.354098
55.145 9.431733
55.150 9.33155
55.155 9.584203
55.160 9.823725
55.165 9.933632
55.170 10.19484
55.175 10.095918
55.180 10.070716
55.185 10.195652
55.190 9.353627
55.195 8.85828
55.200 8.786342
55.205 8.835299
55.210 9.095829
55.215 8.813398
55.220 8.665287
55.225 9.344627
55.230 9.478008
55.235 9.258865
55.240 9.281054
55.245 9.506271
55.250 10.02539
55.255 10.034195
55.260 10.442763
55.265 10.427522
55.270 10.571198
55.275 10.163424
55.280 9.5867
55.285 9.341283
55.290 8.727332
55.295 8.098923
55.300 8.354088
55.305 8.658193
55.310 8.867654
55.315 8.909677
55.320 9.06497
55.325 9.602
55.330 10.05118
55.335 9.802245
55.340 9.283244
55.345 9.606906
55.350 9.807582
55.355 9.642715
55.360 9.53457
55.365 9.343455
55.370 9.497724
55.375 9.628446
55.380 9.213589
55.385 8.958153
55.390 9.009189
55.395 9.09329
55.400 8.894187
55.405 8.781526
55.410 8.959805
55.415 8.891206
55.420 9.104613
55.425 9.280369
55.430 9.847728
55.435 10.069207
55.440 9.917809
55.445 9.752279
55.450 9.959312
55.455 10.00913
55.460 9.525837
55.465 9.110126
55.470 8.772846
55.475 8.782359
55.480 8.42837
55.485 8.197307
55.490 8.276957
55.495 8.27183
55.500 8.623369
55.505 9.001456
55.510 9.316711
55.515 9.970982
55.520 9.917722
55.525 9.869025
55.530 10.272159
55.535 10.100888
55.540 9.730417
55.545 9.311092
55.550 9.067822
55.555 9.594222
55.560 9.822442
55.565 9.491919
55.570 9.775002
55.575 9.933247
55.580 10.241041
55.585 10.283255
55.590 10.036895
55.595 9.833005
55.600 9.656506
55.605 9.591734
55.610 10.229303
55.615 10.51773
55.620 10.388983
55.625 10.198792
55.630 9.948686
55.635 9.70105
55.640 9.418586
55.645 8.755303
55.650 8.374789
55.655 8.176502
55.660 8.459492
55.665 8.480575
55.670 8.544972
55.675 8.658842
55.680 8.911011
55.685 9.541315
55.690 9.708723
55.695 9.55899
55.700 9.231155
55.705 9.455503
55.710 9.544859
55.715 9.420135
55.720 8.997869
55.725 9.204893
55.730 8.874577
55.735 9.007201
55.740 8.824654
55.745 8.872156
55.750 9.051086
55.755 8.709942
55.760 8.499281
55.765 9.263103
55.770 9.30217
55.775 9.192204
55.780 8.978001
55.785 9.276421
55.790 9.456597
55.795 9.665671
55.800 9.40054
55.805 9.526451
55.810 9.501231
55.815 9.188495
55.820 9.269731
55.825 9.619481
55.830 9.61475
55.835 9.592456
55.840 9.508506
55.845 9.740279
55.850 10.062429
55.855 9.998172
55.860 9.423856
55.865 9.520852
55.870 9.527683
55.875 9.506408
55.880 9.587101
55.885 9.461072
55.890 9.505322
55.895 9.724268
55.900 9.777656
55.905 9.949959
55.910 10.265943
55.915 10.236315
55.920 10.267154
55.925 10.266034
55.930 10.428504
55.935 10.140415
55.940 9.570175
55.945 9.071278
55.950 8.551682
55.955 8.216766
55.960 8.291316
55.965 7.981886
55.970 8.335417
55.975 9.056519
55.980 9.486783
55.985 9.656609
55.990 9.821647
55.995 9.849237
56.000 9.963878
56.005 9.509473
56.010 9.009532
56.015 8.637437
56.020 8.635734
56.025 8.573676
56.030 8.104013
56.035 8.169407
56.040 8.638829
56.045 8.763139
56.050 8.714234
56.055 8.417467
56.060 8.549448
56.065 8.496315
56.070 8.493838
56.075 8.273971
56.080 8.290517
56.085 8.743771
56.090 9.333168
56.095 9.211408
56.100 9.855944
56.105 10.211296
56.110 10.467683
56.115 10.89968
56.120 10.991259
56.125 10.674376
56.130 10.871135
56.135 10.900021
56.140 10.506725
56.145 10.502847
56.150 10.469197
56.155 10.796826
56.160 10.991872
56.165 10.374626
56.170 9.80852
56.175 10.11912
56.180 10.484365
56.185 10.05738
56.190 9.60153
56.195 9.411481
56.200 9.869701
56.205 10.183214
56.210 10.16869
56.215 9.675797
56.220 9.792718
56.225 10.325848
56.230 10.884002
56.235 11.187119
56.240 11.117776
56.245 11.499594
56.250 12.039243
56.255 12.122938
56.260 11.366559
56.265 10.626428
56.270 10.202557
56.275 10.120646
56.280 9.69666
56.285 9.480036
56.290 9.686189
56.295 10.276297
56.300 10.701623
56.305 10.687572
56.310 10.719955
56.315 10.389689
56.320 10.222136
56.325 9.833681
56.330 9.563379
56.335 9.096223
56.340 8.973131
56.345 9.208633
56.350 9.24107
56.355 9.078176
56.360 8.82901
56.365 9.183717
56.370 10.08326
56.375 10.220528
56.380 10.19442
56.385 10.599529
56.390 10.915418
56.395 11.177761
56.400 10.574436
56.405 10.040007
56.410 10.29214
56.415 10.531466
56.420 10.365202
56.425 10.09781
56.430 10.342136
56.435 10.537889
56.440 10.225213
56.445 9.775455
56.450 9.640157
56.455 9.995029
56.460 10.151035
56.465 9.969233
56.470 10.373702
56.475 10.78131
56.480 10.802228
56.485 10.214465
56.490 9.790097
56.495 9.546101
56.500 9.528614
56.505 9.39869
56.510 9.635434
56.515 9.902701
56.520 10.53797
56.525 11.346495
56.530 11.883548
56.535 12.031784
56.540 12.318159
56.545 11.735344
56.550 11.426699
56.555 11.243783
56.560 11.094646
56.565 11.036324
56.570 10.896169
56.575 10.346502
56.580 11.01028
56.585 11.207999
56.590 10.88604
56.595 10.412231
56.600 10.550753
56.605 10.550789
56.610 10.556852
56.615 10.172431
56.620 9.953032
56.625 9.997698
56.630 10.099554
56.635 9.816791
56.640 10.235796
56.645 10.350441
56.650 10.325096
56.655 10.51066
56.660 10.678487
56.665 11.070434
56.670 11.442851
56.675 11.2985
56.680 11.437731
56.685 11.66458
56.690 12.263492
56.695 12.398913
56.700 11.719453
56.705 11.506818
56.710 11.648204
56.715 11.586275
56.720 11.657997
56.725 11.234275
56.730 11.402545
56.735 11.787227
56.740 11.742367
56.745 11.726431
56.750 11.85229
56.755 11.774161
56.760 12.384118
56.765 12.343724
56.770 12.548851
56.775 12.168319
56.780 12.217495
56.785 12.025239
56.790 11.471174
56.795 11.073367
56.800 10.719637
56.805 10.385597
56.810 10.748694
56.815 10.671618
56.820 10.597205
56.825 10.812852
56.830 10.452054
56.835 10.512305
56.840 10.329638
56.845 9.578814
56.850 9.474365
56.855 9.958627
56.860 9.985533
56.865 10.055854
56.870 10.339913
56.875 10.854998
56.880 11.682201
56.885 11.969017
56.890 11.693928
56.895 11.485015
56.900 11.566024
56.905 11.518276
56.910 11.41986
56.915 10.935282
56.920 10.71288
56.925 10.593043
56.930 10.875663
56.935 11.195442
56.940 11.052692
56.945 10.91855
56.950 10.947873
56.955 10.93106
56.960 10.671774
56.965 10.475422
56.970 9.885275
56.975 10.128561
56.980 10.313242
56.985 10.410911
56.990 10.765405
56.995 10.987758
57.000 10.856291
57.005 11.045238
57.010 10.842975
57.015 10.688879
57.020 10.280665
57.025 10.145672
57.030 10.02914
57.035 10.250424
57.040 9.990353
57.045 10.074611
57.050 10.012251
57.055 10.057903
57.060 10.133327
57.065 10.272124
57.070 10.598103
57.075 10.840138
57.080 10.713111
57.085 10.836926
57.090 10.674934
57.095 10.514024
57.100 10.590708
57.105 10.789651
57.110 10.826644
57.115 10.599068
57.120 10.720119
57.125 11.08798
57.130 11.023635
57.135 10.852881
57.140 10.733027
57.145 10.529653
57.150 10.976993
57.155 10.799715
57.160 10.545631
57.165 10.386893
57.170 10.260225
57.175 10.142311
57.180 10.105026
57.185 9.8497
57.190 9.757604
57.195 9.765368
57.200 10.179865
57.205 10.570384
57.210 11.000186
57.215 11.077601
57.220 10.970078
57.225 11.296579
57.230 11.494198
57.235 11.426681
57.240 11.034581
57.245 10.514734
57.250 10.386482
57.255 10.679116
57.260 10.94096
57.265 10.962087
57.270 10.776119
57.275 10.618371
57.280 10.944771
57.285 11.093188
57.290 10.950053
57.295 10.93385
57.300 11.398342
57.305 11.860689
57.310 12.168833
57.315 12.320913
57.320 12.208752
57.325 12.009143
57.330 11.912536
57.335 11.666451
57.340 11.206081
57.345 10.836511
57.350 11.000319
57.355 11.486215
57.360 11.614833
57.365 11.51776
57.370 11.6099
57.375 11.900088
57.380 11.986923
57.385 11.550328
57.390 11.795877
57.395 11.959159
57.400 12.006577
57.405 12.108912
57.410 12.33376
57.415 12.453112
57.420 12.307623
57.425 11.706809
57.430 11.571511
57.435 11.299938
57.440 10.624926
57.445 10.281815
57.450 9.915753
57.455 10.29499
57.460 10.1228
57.465 9.670681
57.470 10.091521
57.475 10.303612
57.480 10.354384
57.485 10.194401
57.490 9.890059
57.495 10.234023
57.500 10.84156
57.505 10.969257
57.510 10.944169
57.515 11.369821
57.520 11.722706
57.525 11.82347
57.530 11.605387
57.535 11.327777
57.540 11.332072
57.545 11.561164
57.550 11.652821
57.555 11.520778
57.560 11.196422
57.565 11.740686
57.570 12.121052
57.575 12.306543
57.580 12.379827
57.585 12.325525
57.590 12.785877
57.595 13.009872
57.600 12.627978
57.605 11.845119
57.610 11.626472
57.615 11.28068
57.620 11.176388
57.625 11.063023
57.630 10.845591
57.635 10.607986
57.640 10.568382
57.645 10.364682
57.650 10.751257
57.655 10.790607
57.660 10.555954
57.665 10.618369
57.670 11.049709
57.675 11.465093
57.680 11.481879
57.685 11.328272
57.690 11.012365
57.695 11.508092
57.700 11.479947
57.705 11.117805
57.710 10.949508
57.715 11.007197
57.720 10.9685
57.725 11.377175
57.730 10.913613
57.735 10.808719
57.740 10.974139
57.745 10.954885
57.750 11.006849
57.755 10.935726
57.760 11.042737
57.765 11.823445
57.770 12.408894
57.775 12.451244
57.780 12.355333
57.785 12.432196
57.790 12.602427
57.795 12.291349
57.800 11.683561
57.805 11.813683
57.810 11.700785
57.815 11.682008
57.820 11.564057
57.825 11.436008
57.830 11.635627
57.835 11.999318
57.840 11.426892
57.845 11.571563
57.850 11.451377
57.855 11.172893
57.860 11.388494
57.865 11.47946
57.870 11.21635
57.875 11.542405
57.880 11.703375
57.885 11.969153
57.890 12.165444
57.895 12.409224
57.900 12.233721
57.905 12.486484
57.910 12.087923
57.915 11.783174
57.920 11.714862
57.925 11.720509
57.930 11.599265
57.935 12.100105
57.940 12.127557
57.945 12.163539
57.950 12.299034
57.955 12.285886
57.960 12.250437
57.965 11.895391
57.970 11.418618
57.975 11.687182
57.980 11.603263
57.985 11.912588
57.990 12.103577
57.995 11.912351
58.000 11.689085
58.005 11.414586
58.010 11.28072
58.015 11.528658
58.020 11.222582
58.025 10.96227
58.030 11.103687
58.035 11.438643
58.040 11.209608
58.045 11.241115
58.050 11.422987
58.055 11.647949
58.060 11.584257
58.065 11.567821
58.070 11.579982
58.075 12.091041
58.080 12.023966
58.085 11.607794
58.090 11.265965
58.095 11.461535
58.100 11.51607
58.105 11.246884
58.110 11.524672
58.115 11.366663
58.120 11.420527
58.125 11.847355
58.130 12.206225
58.135 12.161003
58.140 12.467358
58.145 11.738065
58.150 12.058953
58.155 12.006805
58.160 11.733181
58.165 11.45197
58.170 11.434605
58.175 11.196404
58.180 11.498392
58.185 11.517036
58.190 11.817126
58.195 11.958584
58.200 12.008747
58.205 12.0704
58.210 12.41999
58.215 12.80985
58.220 13.045847
58.225 12.921975
58.230 12.798779
58.235 12.691679
58.240 12.653229
58.245 12.701471
58.250 12.71222
58.255 12.658063
58.260 12.899076
58.265 12.876017
58.270 13.340679
58.275 14.091407
58.280 13.988278
58.285 13.527536
58.290 13.496463
58.295 13.708324
58.300 14.180386
58.305 14.002976
58.310 14.085041
58.315 14.232734
58.320 14.418227
58.325 14.318524
58.330 14.453498
58.335 14.251707
58.340 13.897628
58.345 13.66645
58.350 14.11117
58.355 14.721698
58.360 15.10299
58.365 14.634346
58.370 15.072786
58.375 15.657466
58.380 15.928624
58.385 16.222391
58.390 16.156664
58.395 16.205629
58.400 16.293325
58.405 15.95408
58.410 15.797953
58.415 16.150888
58.420 16.335611
58.425 16.317392
58.430 16.543449
58.435 17.420156
58.440 17.962381
58.445 17.620882
58.450 17.430582
58.455 17.910002
58.460 18.424459
58.465 18.587675
58.470 18.140947
58.475 18.239262
58.480 18.370943
58.485 18.22761
58.490 18.464361
58.495 18.477573
58.500 18.643915
58.505 18.813053
58.510 19.213194
58.515 20.149321
58.520 20.574284
58.525 19.985363
58.530 19.984291
58.535 20.160982
58.540 20.841759
58.545 20.751354
58.550 19.918783
58.555 19.312624
58.560 19.260479
58.565 19.648378
58.570 19.335617
58.575 18.373684
58.580 17.780579
58.585 17.696257
58.590 18.065443
58.595 18.860044
58.600 18.689226
58.605 18.803831
58.610 19.691584
58.615 20.055887
