!@!!GADDS PLOTSO FILE: Chi integration type
!@!!Title/SampleName: map-134
!@!!Comment: ?
!@!!User: Bruker Instrument Administrator
!@!!Site: University of Illinois Chicago
!@!!Frame: map-134_01_000.gfrm
!@!!Wavelengths    1.54184   1.54056   1.54439
!@!!Frame angles: 2Theta: 63.000 Omega: 50.000 Phi: 0.000 Chi: 90.000
!@!!Integration range: 2Theta: 53.000 to 73.000  Gamma: -105.000 to -75.000
!@!!Integration method: bin normalized
!@!N
!@!SS
!@!M
!@!L 0.0 0.0 0.0 0.0
!@!XDegrees
!@!YCounts
53.000 3.114033
53.005 3.420772
53.010 3.745031
53.015 4.096653
53.020 4.234956
53.025 4.753149
53.030 4.6858
53.035 4.556179
53.040 4.397933
53.045 4.353874
53.050 4.237749
53.055 4.057255
53.060 3.810421
53.065 3.884681
53.070 3.769269
53.075 3.892074
53.080 3.806023
53.085 3.81038
53.090 3.525822
53.095 3.495125
53.100 3.466488
53.105 3.690686
53.110 3.678499
53.115 3.776961
53.120 3.740013
53.125 3.987257
53.130 4.042092
53.135 3.968728
53.140 3.670623
53.145 3.567347
53.150 3.682577
53.155 4.267197
53.160 4.28238
53.165 4.199929
53.170 4.241526
53.175 4.52177
53.180 4.509684
53.185 4.351915
53.190 3.765969
53.195 3.697668
53.200 3.590906
53.205 3.485333
53.210 3.442558
53.215 3.333457
53.220 3.611491
53.225 3.577342
53.230 3.633685
53.235 3.616275
53.240 3.531874
53.245 3.207282
53.250 2.963289
53.255 2.96129
53.260 2.889932
53.265 3.02954
53.270 3.267449
53.275 3.331619
53.280 3.567594
53.285 3.878406
53.290 4.176273
53.295 4.525775
53.300 4.477106
53.305 4.34123
53.310 4.242255
53.315 4.075453
53.320 3.891527
53.325 3.698464
53.330 3.64811
53.335 3.719126
53.340 4.088318
53.345 4.29786
53.350 4.36163
53.355 4.158545
53.360 4.473407
53.365 4.441554
53.370 4.504751
53.375 4.345281
53.380 4.451284
53.385 4.769503
53.390 4.600304
53.395 4.645697
53.400 4.691098
53.405 4.540177
53.410 4.722859
53.415 4.923536
53.420 4.959219
53.425 4.958085
53.430 4.651397
53.435 4.419825
53.440 4.457757
53.445 4.153224
53.450 3.511796
53.455 3.39187
53.460 3.719126
53.465 3.779426
53.470 3.806491
53.475 3.784142
53.480 4.024218
53.485 4.146688
53.490 4.297403
53.495 4.020947
53.500 3.939574
53.505 3.989219
53.510 4.033078
53.515 4.236187
53.520 4.226835
53.525 4.117925
53.530 4.167347
53.535 4.210528
53.540 4.346842
53.545 4.055025
53.550 3.868369
53.555 3.700565
53.560 3.676634
53.565 3.618504
53.570 3.579423
53.575 3.336029
53.580 3.561359
53.585 3.627953
53.590 3.644483
53.595 3.710771
53.600 3.736961
53.605 3.896043
53.610 3.912804
53.615 3.54549
53.620 3.817357
53.625 4.109445
53.630 3.897774
53.635 3.785752
53.640 3.735003
53.645 3.769637
53.650 3.79597
53.655 3.403248
53.660 3.244652
53.665 3.505889
53.670 3.649117
53.675 3.728988
53.680 3.732733
53.685 3.926351
53.690 3.878144
53.695 3.85457
53.700 3.68591
53.705 3.511792
53.710 3.327592
53.715 3.479561
53.720 3.452987
53.725 3.750585
53.730 3.97053
53.735 4.065429
53.740 4.107235
53.745 4.321212
53.750 4.403476
53.755 4.388116
53.760 4.303635
53.765 4.442637
53.770 4.360366
53.775 4.201288
53.780 4.02695
53.785 4.079005
53.790 3.986526
53.795 4.094436
53.800 4.307014
53.805 4.456878
53.810 4.785198
53.815 4.797239
53.820 4.476242
53.825 4.472152
53.830 4.340981
53.835 3.939263
53.840 3.880409
53.845 3.619155
53.850 3.473453
53.855 3.733767
53.860 3.91974
53.865 4.02564
53.870 4.366611
53.875 4.597416
53.880 4.538304
53.885 4.596108
53.890 4.436991
53.895 4.152645
53.900 4.033682
53.905 3.726806
53.910 3.760176
53.915 3.898348
53.920 4.006507
53.925 4.002831
53.930 4.1676
53.935 4.002582
53.940 3.873091
53.945 3.707451
53.950 3.465707
53.955 3.322579
53.960 3.324904
53.965 3.214709
53.970 3.346327
53.975 3.727828
53.980 3.77884
53.985 3.932326
53.990 4.124274
53.995 4.673835
54.000 4.838791
54.005 4.566822
54.010 4.443648
54.015 4.514606
54.020 4.863379
54.025 4.779622
54.030 4.272232
54.035 4.30637
54.040 4.077132
54.045 4.056188
54.050 4.043336
54.055 3.520059
54.060 3.37219
54.065 3.527065
54.070 3.673433
54.075 3.881102
54.080 3.872568
54.085 3.779912
54.090 4.089288
54.095 4.327502
54.100 4.630844
54.105 4.584632
54.110 4.704733
54.115 4.913392
54.120 4.98257
54.125 4.769434
54.130 4.518443
54.135 4.180815
54.140 4.445908
54.145 4.627982
54.150 4.537215
54.155 4.564012
54.160 4.778871
54.165 4.763694
54.170 4.796867
54.175 4.403032
54.180 4.10625
54.185 4.014504
54.190 3.937414
54.195 3.686274
54.200 3.524896
54.205 3.487685
54.210 3.703818
54.215 3.923203
54.220 4.012419
54.225 4.034327
54.230 4.177143
54.235 4.379896
54.240 4.585114
54.245 4.453857
54.250 4.1452
54.255 4.096758
54.260 4.20719
54.265 4.230166
54.270 4.28975
54.275 4.355869
54.280 4.884877
54.285 5.063592
54.290 5.19335
54.295 5.409954
54.300 5.660613
54.305 5.632873
54.310 5.634477
54.315 5.551124
54.320 5.36617
54.325 5.246346
54.330 5.223532
54.335 4.928113
54.340 4.894341
54.345 4.6295
54.350 4.723702
54.355 4.586372
54.360 4.762696
54.365 4.878519
54.370 4.778807
54.375 4.959309
54.380 5.126737
54.385 4.91847
54.390 5.112974
54.395 4.962267
54.400 5.031745
54.405 5.530599
54.410 5.530245
54.415 5.123661
54.420 5.372456
54.425 5.483669
54.430 5.36716
54.435 5.154638
54.440 4.806904
54.445 4.953434
54.450 5.342421
54.455 5.208211
54.460 4.968273
54.465 4.933141
54.470 5.012353
54.475 5.001817
54.480 4.584512
54.485 4.67398
54.490 4.893032
54.495 5.370623
54.500 5.319619
54.505 5.262563
54.510 5.102901
54.515 5.17031
54.520 4.857591
54.525 4.459143
54.530 4.346709
54.535 4.389792
54.540 4.512193
54.545 4.54193
54.550 4.714824
54.555 4.947268
54.560 5.08314
54.565 4.723567
54.570 4.525563
54.575 4.479819
54.580 4.223792
54.585 4.167253
54.590 4.212454
54.595 4.140697
54.600 4.291703
54.605 4.552421
54.610 4.566142
54.615 4.630301
54.620 4.757466
54.625 4.860138
54.630 4.728244
54.635 4.450552
54.640 4.190515
54.645 4.080392
54.650 4.086299
54.655 3.947637
54.660 4.217459
54.665 4.478805
54.670 4.782463
54.675 4.714702
54.680 4.840612
54.685 4.85337
54.690 4.294115
54.695 4.0382
54.700 3.760759
54.705 3.558328
54.710 3.7619
54.715 3.855324
54.720 4.29741
54.725 4.869213
54.730 4.988899
54.735 5.281692
54.740 5.237356
54.745 5.160199
54.750 5.028506
54.755 4.835493
54.760 4.940974
54.765 5.129043
54.770 4.894993
54.775 4.896885
54.780 5.036126
54.785 4.810331
54.790 4.535395
54.795 4.27133
54.800 4.286724
54.805 4.559707
54.810 4.783932
54.815 4.835656
54.820 5.192432
54.825 5.183819
54.830 5.039899
54.835 4.970979
54.840 5.09584
54.845 4.661107
54.850 4.386532
54.855 4.272962
54.860 4.235814
54.865 4.140573
54.870 3.88171
54.875 4.002937
54.880 4.565104
54.885 4.838324
54.890 4.641661
54.895 4.663573
54.900 4.606048
54.905 4.627222
54.910 4.266859
54.915 4.07172
54.920 3.903877
54.925 3.940248
54.930 4.066817
54.935 4.191304
54.940 4.459204
54.945 4.904345
54.950 4.931653
54.955 5.567868
54.960 5.976784
54.965 6.061863
54.970 6.247902
54.975 6.009959
54.980 5.589239
54.985 5.470877
54.990 5.015627
54.995 4.524445
55.000 4.213421
55.005 3.939301
55.010 4.03959
55.015 4.140859
55.020 4.324626
55.025 4.405955
55.030 4.555993
55.035 4.58359
55.040 4.610268
55.045 4.702767
55.050 4.843517
55.055 5.030765
55.060 5.132058
55.065 5.415815
55.070 5.664099
55.075 5.531186
55.080 5.391099
55.085 5.481242
55.090 5.354057
55.095 5.606876
55.100 5.329801
55.105 5.56812
55.110 6.045197
55.115 5.99773
55.120 6.228549
55.125 6.033985
55.130 5.700724
55.135 5.719111
55.140 5.358984
55.145 5.157108
55.150 5.398718
55.155 5.176338
55.160 5.365226
55.165 5.936809
55.170 6.23912
55.175 6.174191
55.180 6.320193
55.185 6.409991
55.190 6.375886
55.195 6.265509
55.200 5.987545
55.205 5.893223
55.210 6.227641
55.215 5.987453
55.220 5.281809
55.225 5.324344
55.230 5.585677
55.235 5.594635
55.240 5.202779
55.245 4.940252
55.250 4.731154
55.255 4.79211
55.260 4.442191
55.265 4.08007
55.270 3.898325
55.275 3.691634
55.280 3.82339
55.285 4.124998
55.290 4.515584
55.295 4.851528
55.300 4.906027
55.305 5.13002
55.310 5.825171
55.315 6.128962
55.320 6.228298
55.325 6.383853
55.330 6.208922
55.335 6.019125
55.340 6.07465
55.345 5.504984
55.350 5.208723
55.355 5.070709
55.360 4.743939
55.365 4.880239
55.370 4.914264
55.375 4.892207
55.380 5.176667
55.385 5.269555
55.390 5.40951
55.395 5.499287
55.400 5.630313
55.405 5.780586
55.410 5.752532
55.415 5.659906
55.420 5.434751
55.425 5.324642
55.430 5.287687
55.435 5.151062
55.440 5.200689
55.445 5.262004
55.450 5.619627
55.455 5.761933
55.460 5.900753
55.465 6.032359
55.470 5.996219
55.475 6.002051
55.480 5.953578
55.485 5.830277
55.490 5.908538
55.495 5.659957
55.500 5.507518
55.505 5.508885
55.510 5.211387
55.515 5.39601
55.520 5.185981
55.525 4.723771
55.530 4.566854
55.535 4.701271
55.540 4.642066
55.545 4.46994
55.550 4.303252
55.555 4.332701
55.560 4.668343
55.565 4.783062
55.570 4.84613
55.575 5.036857
55.580 5.433747
55.585 5.498533
55.590 5.753437
55.595 5.819743
55.600 5.648765
55.605 5.588897
55.610 5.508108
55.615 5.258373
55.620 5.454043
55.625 5.366006
55.630 5.121816
55.635 5.12939
55.640 5.057448
55.645 5.067081
55.650 5.171455
55.655 5.151649
55.660 5.388709
55.665 5.601471
55.670 5.637131
55.675 5.582213
55.680 5.672353
55.685 5.83477
55.690 5.72717
55.695 5.423633
55.700 5.516934
55.705 5.659914
55.710 6.064813
55.715 6.028752
55.720 5.97163
55.725 6.071313
55.730 6.24
55.735 6.457014
55.740 6.426796
55.745 6.291354
55.750 6.484137
55.755 6.352142
55.760 6.395267
55.765 6.542144
55.770 6.445304
55.775 6.627337
55.780 6.562842
55.785 6.521839
55.790 6.979665
55.795 7.044559
55.800 6.90636
55.805 6.866066
55.810 6.808468
55.815 7.116347
55.820 7.112915
55.825 6.909724
55.830 6.832241
55.835 6.933385
55.840 7.107921
55.845 7.119782
55.850 6.905887
55.855 6.673947
55.860 6.411929
55.865 6.641481
55.870 6.137259
55.875 5.74393
55.880 5.591557
55.885 5.628328
55.890 5.613835
55.895 5.56275
55.900 5.313666
55.905 5.679943
55.910 5.837255
55.915 5.942333
55.920 5.978404
55.925 6.030087
55.930 6.120122
55.935 6.214807
55.940 6.183894
55.945 6.514602
55.950 6.624429
55.955 6.336296
55.960 6.396687
55.965 6.390209
55.970 6.3804
55.975 6.049081
55.980 5.588909
55.985 5.822599
55.990 6.31581
55.995 6.423113
56.000 6.242132
56.005 6.202069
56.010 6.484148
56.015 6.522681
56.020 6.099508
56.025 5.716411
56.030 5.344144
56.035 5.323263
56.040 5.454242
56.045 5.543074
56.050 5.416556
56.055 5.585997
56.060 5.668989
56.065 5.889432
56.070 5.8357
56.075 5.717423
56.080 5.532274
56.085 5.38464
56.090 5.218646
56.095 5.278729
56.100 5.32792
56.105 5.524628
56.110 5.256239
56.115 5.385397
56.120 5.366701
56.125 5.452173
56.130 5.71204
56.135 5.772314
56.140 5.952096
56.145 6.129309
56.150 6.220298
56.155 6.321066
56.160 6.329089
56.165 6.122002
56.170 6.454949
56.175 6.324075
56.180 6.055362
56.185 6.23631
56.190 6.083652
56.195 5.795276
56.200 5.508683
56.205 4.975198
56.210 4.925791
56.215 5.175132
56.220 4.759376
56.225 5.065662
56.230 5.501013
56.235 5.945078
56.240 6.368998
56.245 6.251881
56.250 6.453216
56.255 6.852186
56.260 6.639084
56.265 6.951547
56.270 6.762938
56.275 6.599611
56.280 6.64799
56.285 6.514622
56.290 6.755369
56.295 6.659824
56.300 6.089226
56.305 6.10686
56.310 5.885768
56.315 5.905806
56.320 6.127652
56.325 5.487608
56.330 5.772302
56.335 5.861988
56.340 5.803506
56.345 5.940286
56.350 5.854207
56.355 5.538028
56.360 5.639714
56.365 5.419472
56.370 5.826324
56.375 6.056837
56.380 6.326418
56.385 6.370411
56.390 6.214893
56.395 6.259097
56.400 6.315234
56.405 6.342454
56.410 6.309362
56.415 6.173523
56.420 6.037302
56.425 6.280014
56.430 6.148041
56.435 5.691331
56.440 4.980474
56.445 4.681286
56.450 4.629448
56.455 4.767981
56.460 4.588226
56.465 4.65883
56.470 4.906704
56.475 5.723964
56.480 6.034101
56.485 5.970995
56.490 6.189249
56.495 6.302522
56.500 6.332935
56.505 6.307665
56.510 5.465009
56.515 5.268009
56.520 5.269558
56.525 5.062413
56.530 4.93001
56.535 4.749367
56.540 4.908712
56.545 5.015118
56.550 4.951892
56.555 5.075522
56.560 5.628314
56.565 6.186476
56.570 6.468144
56.575 6.513102
56.580 6.63941
56.585 6.67831
56.590 6.812165
56.595 6.560173
56.600 6.363277
56.605 6.200743
56.610 6.289176
56.615 6.5459
56.620 6.661913
56.625 6.414781
56.630 6.416065
56.635 6.715444
56.640 6.653045
56.645 6.581707
56.650 6.417433
56.655 6.489716
56.660 6.774527
56.665 6.930045
56.670 6.663284
56.675 6.631052
56.680 6.632867
56.685 6.433022
56.690 6.333061
56.695 5.70961
56.700 5.539965
56.705 6.166714
56.710 6.386778
56.715 6.758155
56.720 7.150351
56.725 7.21274
56.730 7.602829
56.735 8.255736
56.740 8.361425
56.745 8.567819
56.750 8.386553
56.755 8.296967
56.760 8.322961
56.765 8.251409
56.770 7.230283
56.775 6.530813
56.780 6.258377
56.785 6.334239
56.790 6.539084
56.795 6.710974
56.800 6.450309
56.805 6.703327
56.810 7.434763
56.815 7.548285
56.820 7.148329
56.825 6.841526
56.830 6.72258
56.835 6.823789
56.840 6.841455
56.845 6.561561
56.850 6.457072
56.855 6.648493
56.860 6.343072
56.865 6.392078
56.870 6.198427
56.875 6.048324
56.880 6.151793
56.885 6.187271
56.890 6.207028
56.895 6.253857
56.900 5.967997
56.905 5.923948
56.910 5.656606
56.915 5.261487
56.920 5.132099
56.925 5.365958
56.930 5.360121
56.935 5.448786
56.940 5.756334
56.945 5.938109
56.950 5.916141
56.955 6.014931
56.960 6.165513
56.965 6.435065
56.970 6.901228
56.975 6.713317
56.980 6.362002
56.985 6.614066
56.990 6.328247
56.995 6.282455
57.000 6.13776
57.005 6.005711
57.010 5.947927
57.015 6.173087
57.020 6.536036
57.025 6.907831
57.030 6.879786
57.035 6.944786
57.040 6.872102
57.045 6.909301
57.050 6.752602
57.055 6.524004
57.060 6.189014
57.065 6.079053
57.070 5.95882
57.075 5.804478
57.080 6.047243
57.085 6.179455
57.090 6.011287
57.095 6.314028
57.100 6.432536
57.105 6.567485
57.110 6.571346
57.115 6.80308
57.120 6.917492
57.125 6.718007
57.130 6.497563
57.135 6.322329
57.140 6.211628
57.145 6.037416
57.150 5.65776
57.155 5.733039
57.160 5.965802
57.165 6.133188
57.170 6.501075
57.175 6.745972
57.180 7.051095
57.185 7.264576
57.190 7.339622
57.195 7.51384
57.200 7.471388
57.205 7.553005
57.210 7.803266
57.215 7.948318
57.220 7.800158
57.225 7.828373
57.230 7.302106
57.235 7.197677
57.240 7.069832
57.245 6.544647
57.250 6.195884
57.255 6.053261
57.260 6.1809
57.265 6.428437
57.270 6.387373
57.275 6.553991
57.280 7.322264
57.285 7.468951
57.290 7.737662
57.295 7.844645
57.300 8.068738
57.305 7.984657
57.310 7.862573
57.315 7.6937
57.320 7.671817
57.325 7.580775
57.330 7.586525
57.335 7.595013
57.340 7.46871
57.345 7.368916
57.350 7.0611
57.355 7.450897
57.360 7.516781
57.365 7.392143
57.370 7.611071
57.375 7.788145
57.380 7.649052
57.385 7.998277
57.390 7.377206
57.395 6.901093
57.400 6.60036
57.405 6.496136
57.410 6.540572
57.415 6.43695
57.420 6.039242
57.425 6.393497
57.430 6.858013
57.435 7.094649
57.440 6.922258
57.445 6.547394
57.450 6.806337
57.455 7.148729
57.460 6.77618
57.465 7.034431
57.470 6.942325
57.475 7.110148
57.480 7.699035
57.485 7.760968
57.490 7.68889
57.495 8.071677
57.500 7.798899
57.505 7.733298
57.510 7.570173
57.515 7.272682
57.520 7.234686
57.525 7.162371
57.530 6.813438
57.535 7.297144
57.540 7.510787
57.545 7.824281
57.550 8.026945
57.555 7.979259
57.560 8.325067
57.565 8.568739
57.570 8.155308
57.575 8.004821
57.580 8.143472
57.585 8.143886
57.590 8.027164
57.595 7.954032
57.600 8.100298
57.605 8.370474
57.610 8.185165
57.615 7.637082
57.620 7.574739
57.625 7.836721
57.630 7.910083
57.635 7.886163
57.640 7.701585
57.645 8.073531
57.650 8.523838
57.655 8.732257
57.660 8.637554
57.665 8.321594
57.670 8.121289
57.675 8.034733
57.680 7.904354
57.685 7.523542
57.690 7.012032
57.695 6.732436
57.700 6.666921
57.705 6.635699
57.710 6.458045
57.715 6.259381
57.720 6.577944
57.725 6.662067
57.730 6.739882
57.735 6.448863
57.740 6.532822
57.745 6.682554
57.750 6.744641
57.755 6.603776
57.760 6.764473
57.765 6.973674
57.770 7.30745
57.775 7.521266
57.780 7.677551
57.785 7.617177
57.790 7.542325
57.795 7.365636
57.800 7.053841
57.805 7.072141
57.810 7.12766
57.815 7.212372
57.820 7.236637
57.825 7.305391
57.830 7.579974
57.835 7.932252
57.840 7.931684
57.845 8.057332
57.850 7.760676
57.855 7.974367
57.860 8.22474
57.865 8.291759
57.870 8.490403
57.875 8.383363
57.880 8.616132
57.885 8.82916
57.890 8.566511
57.895 8.554601
57.900 8.75694
57.905 8.459559
57.910 8.94617
57.915 8.90573
57.920 9.079751
57.925 9.599068
57.930 9.268513
57.935 8.974331
57.940 9.244652
57.945 8.430102
57.950 8.225424
57.955 8.242959
57.960 8.025598
57.965 8.139979
57.970 8.135436
57.975 8.152028
57.980 8.472235
57.985 8.497883
57.990 8.112686
57.995 7.815286
58.000 7.482498
58.005 7.111212
58.010 7.021924
58.015 7.025327
58.020 6.923064
58.025 7.584233
58.030 7.966704
58.035 8.033889
58.040 8.073853
58.045 8.204067
58.050 8.472345
58.055 8.455419
58.060 7.834083
58.065 7.728138
58.070 7.850716
58.075 7.815204
58.080 7.821043
58.085 7.426672
58.090 7.286916
58.095 7.741719
58.100 7.825017
58.105 8.116142
58.110 8.188086
58.115 7.895934
58.120 7.969545
58.125 8.183373
58.130 8.39861
58.135 8.365695
58.140 8.048847
58.145 8.127407
58.150 8.623826
58.155 8.794691
58.160 8.579566
58.165 8.533803
58.170 8.483888
58.175 8.474404
58.180 8.878657
58.185 8.646986
58.190 8.468319
58.195 8.431771
58.200 8.330783
58.205 8.215968
58.210 8.349976
58.215 8.152165
58.220 7.899814
58.225 7.966641
58.230 7.572006
58.235 7.396399
58.240 7.580556
58.245 7.827507
58.250 7.657108
58.255 7.364475
58.260 7.624285
58.265 8.24653
58.270 8.440729
58.275 8.543732
58.280 8.090361
58.285 8.432293
58.290 8.88113
58.295 9.000134
58.300 8.654442
58.305 8.601511
58.310 8.26883
58.315 8.356162
58.320 8.407619
58.325 8.067046
58.330 7.727889
58.335 7.862063
58.340 7.813177
58.345 8.122984
58.350 8.627616
58.355 8.959093
58.360 9.706078
58.365 10.223214
58.370 10.149091
58.375 10.390168
58.380 10.529174
58.385 10.924805
58.390 10.663317
58.395 10.046386
58.400 9.534311
58.405 9.903767
58.410 10.068316
58.415 10.018045
58.420 9.090093
58.425 9.088027
58.430 9.672616
58.435 10.026489
58.440 10.065838
58.445 10.042892
58.450 10.209347
58.455 10.174652
58.460 10.271731
58.465 10.31546
58.470 10.589124
58.475 10.856026
58.480 10.84945
58.485 11.228066
58.490 12.180766
58.495 12.509069
58.500 12.248487
58.505 12.636053
58.510 12.893146
58.515 13.648377
58.520 13.955211
58.525 14.140019
58.530 14.9384
58.535 15.146336
58.540 14.96628
58.545 14.947464
58.550 14.561414
58.555 14.495487
58.560 14.493215
58.565 14.153021
58.570 14.12488
58.575 13.829203
58.580 13.614904
58.585 13.925117
58.590 14.008089
58.595 14.033357
58.600 14.694035
58.605 14.776227
58.610 15.196074
58.615 15.415901
58.620 15.071728
58.625 15.647861
58.630 16.340704
58.635 16.50354
58.640 17.000208
58.645 17.116467
58.650 17.770687
58.655 17.823223
58.660 18.577562
58.665 18.612869
58.670 18.575502
58.675 18.799742
58.680 18.591566
58.685 18.355942
58.690 18.736494
58.695 18.220325
58.700 17.115879
58.705 16.377087
58.710 15.579323
58.715 15.640828
58.720 15.276347
58.725 15.010455
58.730 14.574434
58.735 15.234879
58.740 15.843254
