!@!!GADDS PLOTSO FILE: Chi integration type
!@!!Title/SampleName: map-177
!@!!Comment: ?
!@!!User: Bruker Instrument Administrator
!@!!Site: University of Illinois Chicago
!@!!Frame: map-177_01_000.gfrm
!@!!Wavelengths    1.54184   1.54056   1.54439
!@!!Frame angles: 2Theta: 63.000 Omega: 50.000 Phi: 0.000 Chi: 90.000
!@!!Integration range: 2Theta: 53.000 to 73.000  Gamma: -105.000 to -75.000
!@!!Integration method: bin normalized
!@!N
!@!SS
!@!M
!@!L 0.0 0.0 0.0 0.0
!@!XDegrees
!@!YCounts
53.000 5.815389
53.005 5.826608
53.010 5.597786
53.015 5.812826
53.020 5.827713
53.025 5.891484
53.030 5.934799
53.035 6.102833
53.040 6.213009
53.045 6.042169
53.050 5.528089
53.055 5.53293
53.060 5.757
53.065 5.747714
53.070 5.576834
53.075 5.860305
53.080 6.249004
53.085 6.472095
53.090 6.354066
53.095 5.936368
53.100 5.807525
53.105 5.854765
53.110 5.622821
53.115 5.372113
53.120 5.458588
53.125 5.429374
53.130 5.783413
53.135 5.637883
53.140 5.292395
53.145 5.611646
53.150 6.06158
53.155 6.358742
53.160 6.348474
53.165 5.988932
53.170 6.079084
53.175 5.974827
53.180 5.85952
53.185 5.317368
53.190 4.88861
53.195 4.781548
53.200 4.951546
53.205 5.211564
53.210 5.250489
53.215 5.700874
53.220 6.294057
53.225 6.690579
53.230 6.824268
53.235 6.95588
53.240 6.642867
53.245 6.417385
53.250 5.947748
53.255 5.821954
53.260 5.705271
53.265 5.714713
53.270 5.808533
53.275 5.952643
53.280 5.732699
53.285 5.681266
53.290 5.380828
53.295 5.664704
53.300 5.57511
53.305 5.534042
53.310 5.591927
53.315 5.836645
53.320 5.802368
53.325 5.813947
53.330 5.50233
53.335 5.698657
53.340 5.988639
53.345 6.078803
53.350 6.20906
53.355 6.498728
53.360 6.728514
53.365 6.709926
53.370 6.828533
53.375 6.814832
53.380 6.924228
53.385 6.860751
53.390 6.677875
53.395 6.690501
53.400 6.764536
53.405 6.448593
53.410 6.099399
53.415 5.78371
53.420 5.649458
53.425 5.417218
53.430 5.456458
53.435 5.289776
53.440 5.263818
53.445 5.460044
53.450 5.482707
53.455 5.593117
53.460 5.749457
53.465 5.748321
53.470 5.790552
53.475 5.703119
53.480 6.057211
53.485 6.363978
53.490 6.30232
53.495 6.051446
53.500 5.808953
53.505 6.013164
53.510 6.230271
53.515 6.440519
53.520 6.499492
53.525 6.412803
53.530 6.661555
53.535 6.642697
53.540 6.837044
53.545 6.488631
53.550 5.995283
53.555 5.97235
53.560 6.26976
53.565 6.024441
53.570 5.955125
53.575 5.839165
53.580 6.09827
53.585 6.219204
53.590 6.107592
53.595 6.0394
53.600 6.097924
53.605 6.329689
53.610 6.414841
53.615 6.173345
53.620 5.839839
53.625 5.797042
53.630 5.385417
53.635 5.243945
53.640 5.072718
53.645 5.263141
53.650 5.34285
53.655 5.195991
53.660 5.109087
53.665 5.659936
53.670 5.795741
53.675 5.765563
53.680 5.880171
53.685 5.980155
53.690 6.225667
53.695 6.396126
53.700 6.537189
53.705 6.709767
53.710 6.653104
53.715 6.601282
53.720 7.01986
53.725 7.327224
53.730 7.4622
53.735 7.009841
53.740 6.838815
53.745 7.212248
53.750 6.91195
53.755 6.423678
53.760 5.98068
53.765 5.801
53.770 5.651685
53.775 5.637957
53.780 5.423687
53.785 5.574223
53.790 5.566868
53.795 5.521845
53.800 5.767434
53.805 5.852637
53.810 5.849975
53.815 5.588457
53.820 5.771492
53.825 6.476887
53.830 6.471365
53.835 6.368929
53.840 6.526443
53.845 6.636606
53.850 6.661751
53.855 6.498022
53.860 6.006779
53.865 6.149632
53.870 6.461903
53.875 6.214683
53.880 5.96239
53.885 5.859276
53.890 6.143439
53.895 6.361663
53.900 6.304293
53.905 6.178715
53.910 6.193174
53.915 6.378915
53.920 6.288579
53.925 5.96604
53.930 5.839128
53.935 6.156408
53.940 6.291368
53.945 6.284223
53.950 6.142047
53.955 6.409048
53.960 6.531451
53.965 6.051352
53.970 5.82305
53.975 5.820517
53.980 5.752656
53.985 5.986949
53.990 5.977132
53.995 6.471943
54.000 6.351427
54.005 6.072523
54.010 6.367523
54.015 6.59668
54.020 6.392011
54.025 5.931681
54.030 6.00084
54.035 6.411353
54.040 6.264509
54.045 5.99095
54.050 5.653253
54.055 5.726353
54.060 5.868579
54.065 5.72008
54.070 5.559772
54.075 5.803334
54.080 6.194967
54.085 6.369502
54.090 6.180356
54.095 6.277359
54.100 6.382532
54.105 6.302789
54.110 5.990238
54.115 5.515376
54.120 5.282554
54.125 5.480889
54.130 5.10191
54.135 5.248199
54.140 5.473289
54.145 5.42034
54.150 5.417204
54.155 5.768563
54.160 5.927516
54.165 6.014575
54.170 5.956814
54.175 6.497253
54.180 6.986928
54.185 7.208399
54.190 7.152486
54.195 7.002876
54.200 7.389805
54.205 7.125113
54.210 6.535418
54.215 6.438997
54.220 6.452696
54.225 6.499001
54.230 6.748446
54.235 6.596095
54.240 6.844975
54.245 6.894
54.250 6.941505
54.255 6.827085
54.260 6.605666
54.265 6.193014
54.270 6.202909
54.275 6.062523
54.280 5.806447
54.285 5.641858
54.290 5.617163
54.295 5.605248
54.300 5.663929
54.305 5.504004
54.310 5.880484
54.315 6.421064
54.320 6.454845
54.325 6.621778
54.330 6.576942
54.335 6.738023
54.340 7.035682
54.345 6.743892
54.350 6.589049
54.355 7.035528
54.360 6.963047
54.365 7.016298
54.370 6.650331
54.375 6.212344
54.380 6.436517
54.385 6.514982
54.390 6.127656
54.395 5.952143
54.400 6.180634
54.405 6.292494
54.410 6.171617
54.415 5.68522
54.420 5.638355
54.425 5.936986
54.430 6.050736
54.435 6.050286
54.440 6.292816
54.445 6.388601
54.450 6.251285
54.455 5.849901
54.460 5.671614
54.465 5.612177
54.470 5.402661
54.475 5.179026
54.480 5.149566
54.485 5.320282
54.490 5.245307
54.495 5.496406
54.500 5.633677
54.505 5.684084
54.510 5.86597
54.515 5.820307
54.520 6.013747
54.525 6.30002
54.530 5.920183
54.535 5.721333
54.540 5.729087
54.545 5.615231
54.550 5.83323
54.555 5.984912
54.560 5.777021
54.565 5.899315
54.570 6.118994
54.575 6.461079
54.580 6.52163
54.585 6.253143
54.590 5.980067
54.595 6.031156
54.600 6.068834
54.605 5.856285
54.610 5.643167
54.615 6.035272
54.620 6.480982
54.625 6.507475
54.630 6.793312
54.635 6.859213
54.640 7.265042
54.645 7.224083
54.650 7.185718
54.655 7.124845
54.660 7.203956
54.665 6.973733
54.670 6.919528
54.675 6.643199
54.680 6.617983
54.685 6.651394
54.690 6.728993
54.695 6.620567
54.700 6.568491
54.705 6.153224
54.710 5.769424
54.715 5.767277
54.720 5.480543
54.725 5.479159
54.730 5.580937
54.735 5.774162
54.740 6.112087
54.745 6.352512
54.750 5.875856
54.755 5.987629
54.760 5.842124
54.765 5.750913
54.770 6.2436
54.775 6.339066
54.780 6.452769
54.785 6.662367
54.790 6.58827
54.795 6.421273
54.800 6.29096
54.805 5.729611
54.810 5.724992
54.815 5.588579
54.820 5.482246
54.825 5.843049
54.830 6.078685
54.835 6.278568
54.840 6.495891
54.845 6.891661
54.850 7.321712
54.855 7.375031
54.860 7.024152
54.865 7.114824
54.870 7.224747
54.875 7.168436
54.880 6.908321
54.885 6.486739
54.890 6.47299
54.895 6.705493
54.900 6.622112
54.905 6.475953
54.910 6.575238
54.915 6.755304
54.920 6.9001
54.925 6.709301
54.930 6.548458
54.935 6.300173
54.940 5.970123
54.945 6.04038
54.950 6.281322
54.955 6.615495
54.960 6.702349
54.965 6.759461
54.970 6.886162
54.975 7.392001
54.980 7.404076
54.985 7.581589
54.990 7.390332
54.995 7.225878
55.000 7.146316
55.005 7.379866
55.010 7.142325
55.015 7.003808
55.020 6.608531
55.025 6.608018
55.030 7.20663
55.035 7.283719
55.040 6.597796
55.045 6.306406
55.050 6.372624
55.055 6.626922
55.060 6.44472
55.065 5.986706
55.070 6.09841
55.075 6.472473
55.080 6.522012
55.085 6.217111
55.090 6.121917
55.095 6.514036
55.100 6.718759
55.105 6.748426
55.110 6.554605
55.115 6.399253
55.120 6.398187
55.125 6.66707
55.130 6.430718
55.135 6.184257
55.140 5.895373
55.145 5.764873
55.150 6.089787
55.155 6.214996
55.160 6.011378
55.165 5.965243
55.170 6.333569
55.175 6.791931
55.180 6.89088
55.185 6.555386
55.190 6.301763
55.195 6.532686
55.200 6.452998
55.205 6.111426
55.210 6.526111
55.215 6.812793
55.220 7.244643
55.225 7.257963
55.230 6.954054
55.235 6.976561
55.240 7.037535
55.245 6.877525
55.250 7.022192
55.255 7.255786
55.260 7.351622
55.265 7.914454
55.270 8.053766
55.275 7.571735
55.280 7.43454
55.285 7.239047
55.290 6.81574
55.295 6.674792
55.300 6.51245
55.305 6.411709
55.310 6.708704
55.315 6.796478
55.320 7.017202
55.325 7.312237
55.330 7.5363
55.335 7.862198
55.340 7.909029
55.345 7.895609
55.350 7.823035
55.355 7.517658
55.360 7.613256
55.365 7.583795
55.370 7.228554
55.375 7.445907
55.380 7.328026
55.385 7.108306
55.390 7.697337
55.395 7.383304
55.400 6.993718
55.405 7.024329
55.410 7.005354
55.415 6.773484
55.420 6.27291
55.425 5.713696
55.430 5.775921
55.435 6.160907
55.440 5.818619
55.445 6.255491
55.450 6.471959
55.455 6.719999
55.460 6.739527
55.465 6.491129
55.470 6.157618
55.475 6.2937
55.480 6.002223
55.485 6.262225
55.490 6.023295
55.495 6.010534
55.500 6.20576
55.505 6.946011
55.510 6.974128
55.515 7.015237
55.520 6.916536
55.525 7.387386
55.530 7.464134
55.535 7.311838
55.540 6.818744
55.545 6.916051
55.550 6.804912
55.555 6.780124
55.560 6.532526
55.565 6.688206
55.570 6.71354
55.575 6.868919
55.580 6.77708
55.585 6.726577
55.590 6.692369
55.595 6.522212
55.600 6.390822
55.605 6.155516
55.610 5.85933
55.615 6.018085
55.620 6.152009
55.625 6.304648
55.630 6.238448
55.635 6.442797
55.640 6.767229
55.645 6.841873
55.650 6.687869
55.655 6.888867
55.660 6.983538
55.665 7.413042
55.670 7.308792
55.675 7.15043
55.680 7.043536
55.685 7.009655
55.690 6.958885
55.695 7.124021
55.700 7.009257
55.705 7.039421
55.710 6.862242
55.715 6.980044
55.720 7.627282
55.725 7.699445
55.730 7.477169
55.735 7.375721
55.740 6.969605
55.745 6.952251
55.750 6.64018
55.755 5.97717
55.760 5.86155
55.765 5.821261
55.770 5.652138
55.775 5.770567
55.780 5.885965
55.785 5.928184
55.790 5.793558
55.795 5.933105
55.800 6.203374
55.805 6.836412
55.810 7.583604
55.815 7.737689
55.820 8.306884
55.825 8.318445
55.830 8.179434
55.835 8.262109
55.840 7.826943
55.845 7.410614
55.850 7.179536
55.855 7.034433
55.860 7.262588
55.865 7.370618
55.870 7.002996
55.875 7.368067
55.880 7.584253
55.885 7.504251
55.890 7.103373
55.895 6.697407
55.900 6.561535
55.905 6.586479
55.910 6.590207
55.915 6.626003
55.920 6.875601
55.925 6.988259
55.930 7.088251
55.935 7.456181
55.940 7.696149
55.945 7.847346
55.950 7.898853
55.955 7.358689
55.960 7.208894
55.965 7.305391
55.970 7.146049
55.975 6.592024
55.980 6.332019
55.985 6.268072
55.990 6.536853
55.995 6.852102
56.000 6.552459
56.005 6.504621
56.010 6.555561
56.015 7.071875
56.020 7.125419
56.025 7.229151
56.030 7.274527
56.035 7.450968
56.040 7.505857
56.045 7.356761
56.050 7.232255
56.055 7.251627
56.060 6.895487
56.065 6.886582
56.070 7.049387
56.075 7.075313
56.080 6.973418
56.085 6.912383
56.090 6.997743
56.095 7.422383
56.100 7.281107
56.105 6.758565
56.110 6.818197
56.115 6.75995
56.120 6.645733
56.125 6.66447
56.130 6.565621
56.135 6.882863
56.140 7.045496
56.145 7.019814
56.150 6.900053
56.155 6.646588
56.160 6.362048
56.165 6.176579
56.170 6.094938
56.175 6.181778
56.180 6.192778
56.185 6.23826
56.190 6.13932
56.195 6.109957
56.200 6.288199
56.205 6.184838
56.210 6.113534
56.215 6.469101
56.220 6.6617
56.225 6.93963
56.230 7.021436
56.235 6.947758
56.240 6.950283
56.245 7.185767
56.250 7.033171
56.255 6.719044
56.260 6.970448
56.265 7.068128
56.270 7.111892
56.275 7.373812
56.280 7.214869
56.285 7.477451
56.290 7.767748
56.295 7.584888
56.300 7.36759
56.305 7.217645
56.310 7.138568
56.315 7.201275
56.320 6.934109
56.325 6.849639
56.330 7.094168
56.335 7.518153
56.340 7.405465
56.345 7.066504
56.350 6.922334
56.355 7.08061
56.360 7.066224
56.365 6.896116
56.370 7.05408
56.375 7.093194
56.380 7.447786
56.385 7.494102
56.390 7.788865
56.395 7.772717
56.400 7.467668
56.405 7.110943
56.410 7.302547
56.415 7.403117
56.420 7.520953
56.425 7.012796
56.430 7.22046
56.435 7.643217
56.440 7.768206
56.445 7.782619
56.450 7.607941
56.455 7.71998
56.460 8.255928
56.465 8.426413
56.470 8.377064
56.475 8.342373
56.480 8.263343
56.485 8.455747
56.490 8.558434
56.495 8.746501
56.500 8.595071
56.505 8.547979
56.510 8.816469
56.515 8.712105
56.520 8.834099
56.525 8.529762
56.530 7.760228
56.535 7.717885
56.540 7.510936
56.545 7.284189
56.550 7.156106
56.555 7.409687
56.560 7.417006
56.565 7.477735
56.570 7.400947
56.575 7.483795
56.580 7.591053
56.585 7.772837
56.590 7.717979
56.595 7.696749
56.600 8.033939
56.605 8.312014
56.610 8.162354
56.615 8.150306
56.620 7.818902
56.625 7.421847
56.630 7.592472
56.635 7.312793
56.640 7.12233
56.645 7.039472
56.650 6.843721
56.655 6.916996
56.660 7.208711
56.665 7.387018
56.670 7.312749
56.675 7.413812
56.680 7.478653
56.685 7.668221
56.690 7.67925
56.695 7.22129
56.700 7.235273
56.705 7.395213
56.710 7.500404
56.715 7.770556
56.720 8.006144
56.725 8.03511
56.730 8.22939
56.735 7.771888
56.740 7.544938
56.745 7.302089
56.750 7.111539
56.755 6.464365
56.760 6.603025
56.765 7.071785
56.770 7.700152
56.775 7.835599
56.780 7.932666
56.785 8.184215
56.790 8.600088
56.795 8.432932
56.800 8.17202
56.805 8.23666
56.810 8.242628
56.815 8.117124
56.820 7.981762
56.825 7.685524
56.830 7.262506
56.835 6.875294
56.840 6.460468
56.845 6.489363
56.850 6.535502
56.855 6.616702
56.860 6.797988
56.865 7.200951
56.870 7.479358
56.875 7.811687
56.880 7.519048
56.885 7.515222
56.890 7.340468
56.895 7.466985
56.900 7.150436
56.905 6.906341
56.910 7.137426
56.915 7.487539
56.920 7.354621
56.925 7.371632
56.930 7.348252
56.935 7.360212
56.940 7.18075
56.945 6.640797
56.950 6.176079
56.955 6.172425
56.960 6.175435
56.965 6.208982
56.970 6.319501
56.975 6.364398
56.980 6.493419
56.985 6.91536
56.990 6.814232
56.995 6.698511
57.000 6.916243
57.005 7.229207
57.010 7.276671
57.015 7.427339
57.020 7.27058
57.025 7.684088
57.030 7.562198
57.035 7.406317
57.040 6.987467
57.045 6.660024
57.050 6.542956
57.055 6.511952
57.060 6.533388
57.065 6.478295
57.070 6.3677
57.075 6.884446
57.080 6.980943
57.085 7.261676
57.090 7.055711
57.095 7.204692
57.100 7.403839
57.105 7.007916
57.110 6.77083
57.115 7.175121
57.120 7.236463
57.125 7.511394
57.130 7.266403
57.135 7.273655
57.140 7.127244
57.145 6.9954
57.150 6.716629
57.155 6.311363
57.160 5.95529
57.165 5.804574
57.170 5.914663
57.175 6.23272
57.180 6.361469
57.185 6.317148
57.190 6.340451
57.195 6.570507
57.200 6.472052
57.205 6.575838
57.210 6.571827
57.215 6.959876
57.220 7.417935
57.225 7.966205
57.230 8.088474
57.235 8.477556
57.240 8.414763
57.245 8.162267
57.250 7.634881
57.255 7.824505
57.260 7.739001
57.265 7.732233
57.270 7.499393
57.275 7.417416
57.280 7.501686
57.285 7.95073
57.290 7.444856
57.295 7.205378
57.300 7.0366
57.305 7.08527
57.310 6.858993
57.315 7.031058
57.320 6.903723
57.325 7.123307
57.330 7.382163
57.335 7.577542
57.340 7.48091
57.345 7.755881
57.350 7.982083
57.355 7.927299
57.360 7.881698
57.365 7.896006
57.370 7.670313
57.375 8.101997
57.380 8.154943
57.385 7.707613
57.390 7.686543
57.395 7.788329
57.400 7.895401
57.405 7.910963
57.410 7.60769
57.415 7.392249
57.420 7.600228
57.425 7.703454
57.430 7.486101
57.435 7.647617
57.440 7.686511
57.445 7.911278
57.450 8.221372
57.455 8.00369
57.460 7.38535
57.465 7.403258
57.470 7.292475
57.475 7.431637
57.480 7.572223
57.485 7.438554
57.490 7.39393
57.495 7.742225
57.500 7.600747
57.505 7.301214
57.510 6.903857
57.515 6.602602
57.520 6.722115
57.525 6.917505
57.530 6.732722
57.535 6.847351
57.540 6.798982
57.545 6.947478
57.550 7.033104
57.555 6.81468
57.560 6.569146
57.565 6.626375
57.570 6.657286
57.575 6.507967
57.580 6.727047
57.585 6.848108
57.590 6.669453
57.595 7.043184
57.600 6.953506
57.605 6.999969
57.610 7.336374
57.615 7.169597
57.620 6.943403
57.625 6.856715
57.630 6.979075
57.635 7.251708
57.640 7.095717
57.645 7.162612
57.650 7.165396
57.655 7.616819
57.660 8.048339
57.665 7.83161
57.670 7.436074
57.675 7.230399
57.680 7.202226
57.685 7.454368
57.690 7.403301
57.695 7.308527
57.700 7.442877
57.705 7.84716
57.710 7.784126
57.715 7.699499
57.720 7.391804
57.725 6.942165
57.730 7.05598
57.735 6.6463
57.740 6.073385
57.745 6.183083
57.750 5.937478
57.755 5.878787
57.760 6.226743
57.765 6.312789
57.770 6.259773
57.775 6.486144
57.780 6.761408
57.785 6.902324
57.790 6.777189
57.795 6.161864
57.800 6.038382
57.805 6.478766
57.810 6.331008
57.815 6.179454
57.820 6.743412
57.825 6.993372
57.830 7.063418
57.835 6.527565
57.840 6.60381
57.845 7.10763
57.850 6.990992
57.855 6.439918
57.860 6.220157
57.865 6.403204
57.870 7.131679
57.875 7.027285
57.880 6.806778
57.885 6.636265
57.890 7.243113
57.895 7.400651
57.900 7.457247
57.905 7.256614
57.910 7.326747
57.915 7.334804
57.920 7.382265
57.925 6.976935
57.930 7.090901
57.935 7.197363
57.940 7.221088
57.945 7.58932
57.950 7.978647
57.955 7.834864
57.960 7.819205
57.965 7.922291
57.970 7.783651
57.975 7.746015
57.980 7.017084
57.985 6.510442
57.990 6.952737
57.995 7.058632
58.000 7.286747
58.005 7.241391
58.010 7.228012
58.015 7.629364
58.020 7.884698
58.025 7.950282
58.030 8.03266
58.035 7.799549
58.040 7.465859
58.045 7.485624
58.050 7.462285
58.055 7.417201
58.060 7.302506
58.065 7.291075
58.070 7.253191
58.075 7.630429
58.080 7.452013
58.085 7.56411
58.090 7.312078
58.095 7.196475
58.100 7.228313
58.105 7.65575
58.110 7.443997
58.115 7.350254
58.120 7.427729
58.125 7.565326
58.130 7.298064
58.135 6.846635
58.140 6.8558
58.145 6.909497
58.150 7.250099
58.155 6.778438
58.160 6.216718
58.165 6.318141
58.170 6.153293
58.175 5.835895
58.180 5.751143
58.185 5.639545
58.190 6.057374
58.195 6.363108
58.200 6.439338
58.205 6.760359
58.210 6.835233
58.215 7.289248
58.220 7.422723
58.225 7.324757
58.230 7.352721
58.235 7.191538
58.240 7.242021
58.245 7.35514
58.250 6.932145
58.255 6.627915
58.260 6.745337
58.265 6.964374
58.270 6.872807
58.275 6.827898
58.280 6.838286
58.285 7.027679
58.290 6.982068
58.295 6.74445
58.300 6.845791
58.305 7.175751
58.310 7.155489
58.315 7.259537
58.320 7.288004
58.325 7.694214
58.330 7.926013
58.335 7.805923
58.340 7.649313
58.345 7.51447
58.350 7.371814
58.355 7.222772
58.360 6.887143
58.365 6.633818
58.370 6.30022
58.375 6.07954
58.380 6.15959
58.385 5.688371
58.390 5.649663
58.395 5.649641
58.400 5.862681
58.405 6.50826
58.410 6.904251
58.415 7.007753
58.420 7.782021
58.425 8.207661
58.430 8.139266
58.435 8.09441
58.440 7.76629
58.445 7.52935
58.450 7.514697
58.455 7.071556
58.460 6.708705
58.465 6.814839
58.470 6.78157
58.475 6.79575
58.480 6.875421
58.485 6.988066
58.490 7.760083
58.495 8.172343
58.500 8.498659
58.505 8.403724
58.510 8.197402
58.515 7.927967
58.520 7.6508
58.525 7.210271
58.530 7.181291
58.535 7.251602
58.540 7.550196
58.545 7.610013
58.550 7.569302
58.555 7.581196
58.560 7.361935
58.565 7.304584
58.570 7.387375
58.575 7.41298
58.580 7.472745
58.585 7.351451
58.590 7.534894
58.595 7.803407
58.600 7.889166
58.605 7.832664
58.610 7.628131
58.615 7.491937
58.620 7.734649
58.625 7.732525
58.630 7.350036
58.635 6.946413
58.640 6.990876
58.645 7.007989
58.650 7.304914
58.655 7.274811
58.660 6.919344
58.665 7.076016
58.670 7.304875
58.675 7.18868
58.680 7.052551
58.685 7.04429
58.690 6.927131
58.695 7.258683
58.700 6.82278
58.705 6.09993
58.710 6.139093
58.715 6.121222
58.720 5.840768
58.725 6.269964
58.730 5.954894
58.735 6.157886
58.740 6.525355
58.745 6.809789
58.750 6.704952
58.755 6.464241
58.760 6.187196
58.765 6.248604
