!@!!GADDS PLOTSO FILE: Chi integration type
!@!!Title/SampleName: map-5e
!@!!Comment: ?
!@!!User: Bruker Instrument Administrator
!@!!Site: University of Illinois Chicago
!@!!Frame: map-5e_01_000.gfrm
!@!!Wavelengths    1.54184   1.54056   1.54439
!@!!Frame angles: 2Theta: 63.000 Omega: 50.000 Phi: 0.000 Chi: 90.000
!@!!Integration range: 2Theta: 53.000 to 73.000  Gamma: -105.000 to -75.000
!@!!Integration method: bin normalized
!@!N
!@!SS
!@!M
!@!L 0.0 0.0 0.0 0.0
!@!XDegrees
!@!YCounts
53.000 8.015723
53.005 8.234797
53.010 8.585154
53.015 8.364302
53.020 8.264165
53.025 7.745062
53.030 7.464931
53.035 7.519141
53.040 7.31618
53.045 7.562094
53.050 7.915182
53.055 7.824054
53.060 8.335679
53.065 8.678341
53.070 8.755467
53.075 9.085141
53.080 9.066695
53.085 9.081327
53.090 9.196583
53.095 8.622416
53.100 8.186872
53.105 8.290192
53.110 8.547215
53.115 8.597536
53.120 8.710978
53.125 8.7783
53.130 9.235139
53.135 9.408966
53.140 8.96823
53.145 8.864573
53.150 9.212901
53.155 9.313754
53.160 9.312803
53.165 9.324261
53.170 9.429842
53.175 9.097278
53.180 8.95615
53.185 8.756823
53.190 8.799086
53.195 8.676823
53.200 8.866716
53.205 8.816427
53.210 9.12798
53.215 8.792555
53.220 8.723861
53.225 9.03214
53.230 8.957466
53.235 8.849267
53.240 8.897099
53.245 8.976961
53.250 9.111134
53.255 9.21771
53.260 9.006588
53.265 9.253428
53.270 9.56189
53.275 9.721416
53.280 9.827033
53.285 9.787136
53.290 9.718814
53.295 9.575519
53.300 9.264428
53.305 9.19555
53.310 9.256302
53.315 9.317007
53.320 9.23518
53.325 8.736093
53.330 8.910259
53.335 9.049653
53.340 8.527083
53.345 8.54982
53.350 8.316636
53.355 8.612025
53.360 9.03088
53.365 9.202588
53.370 9.426441
53.375 9.846542
53.380 9.865417
53.385 9.98369
53.390 9.757341
53.395 9.873496
53.400 9.867991
53.405 9.691133
53.410 9.643742
53.415 9.605076
53.420 9.856119
53.425 10.014634
53.430 9.839967
53.435 9.336868
53.440 9.085412
53.445 8.823792
53.450 8.537423
53.455 8.067062
53.460 7.674027
53.465 7.818759
53.470 8.211748
53.475 8.722057
53.480 8.672622
53.485 8.7288
53.490 8.802013
53.495 9.034565
53.500 9.031381
53.505 8.979847
53.510 8.599329
53.515 8.541883
53.520 8.613177
53.525 8.967812
53.530 9.064525
53.535 9.081573
53.540 8.986601
53.545 9.547426
53.550 9.460265
53.555 9.314569
53.560 9.236507
53.565 9.39091
53.570 9.212452
53.575 9.141461
53.580 8.759112
53.585 9.042356
53.590 9.320759
53.595 9.124209
53.600 8.946571
53.605 9.071002
53.610 8.899498
53.615 9.037088
53.620 9.124421
53.625 9.465714
53.630 9.672094
53.635 9.829651
53.640 9.628973
53.645 9.618602
53.650 9.600228
53.655 9.418346
53.660 8.941514
53.665 8.468483
53.670 8.475882
53.675 9.268596
53.680 9.328267
53.685 8.952755
53.690 8.752074
53.695 9.119483
53.700 9.819799
53.705 9.962829
53.710 9.235175
53.715 9.310119
53.720 9.647508
53.725 9.866958
53.730 9.310506
53.735 8.893997
53.740 8.657213
53.745 8.719022
53.750 8.37902
53.755 8.614587
53.760 9.29608
53.765 9.9404
53.770 9.942808
53.775 9.819138
53.780 10.13004
53.785 10.71497
53.790 10.437435
53.795 10.075306
53.800 9.692538
53.805 9.606557
53.810 10.118606
53.815 10.421559
53.820 10.13798
53.825 9.978145
53.830 9.385186
53.835 9.20551
53.840 9.459842
53.845 9.359213
53.850 9.435635
53.855 9.391777
53.860 9.745518
53.865 9.795232
53.870 9.82123
53.875 9.704222
53.880 9.35006
53.885 8.985814
53.890 8.669279
53.895 8.457131
53.900 8.370304
53.905 8.624821
53.910 8.533616
53.915 8.337015
53.920 8.460204
53.925 8.695163
53.930 8.998016
53.935 9.215797
53.940 8.932809
53.945 8.750123
53.950 8.902122
53.955 8.64388
53.960 8.637289
53.965 8.835979
53.970 9.02107
53.975 9.300235
53.980 9.733641
53.985 9.680468
53.990 9.900348
53.995 9.956456
54.000 9.662971
54.005 9.507719
54.010 9.308367
54.015 9.152383
54.020 9.317473
54.025 9.211897
54.030 9.01729
54.035 9.275823
54.040 9.33285
54.045 9.6393
54.050 9.405432
54.055 9.124399
54.060 9.315073
54.065 9.263358
54.070 8.812757
54.075 8.958716
54.080 9.066442
54.085 9.356131
54.090 9.958169
54.095 9.660282
54.100 9.462235
54.105 9.448397
54.110 9.400361
54.115 9.503558
54.120 9.40139
54.125 8.877764
54.130 8.916331
54.135 9.8968
54.140 10.213686
54.145 10.196781
54.150 10.092191
54.155 9.762255
54.160 10.4719
54.165 10.380122
54.170 10.077361
54.175 10.007087
54.180 9.530313
54.185 9.602744
54.190 9.645208
54.195 9.53505
54.200 10.104738
54.205 9.809926
54.210 10.072778
54.215 10.669594
54.220 10.794168
54.225 11.2376
54.230 11.373206
54.235 11.603985
54.240 11.756388
54.245 11.87764
54.250 11.356887
54.255 11.158824
54.260 10.67614
54.265 10.263514
54.270 10.279904
54.275 9.938766
54.280 9.851278
54.285 10.18126
54.290 10.444789
54.295 10.417176
54.300 10.031666
54.305 9.255934
54.310 9.259237
54.315 9.377174
54.320 9.419109
54.325 9.292823
54.330 9.002582
54.335 9.449465
54.340 9.841589
54.345 9.772684
54.350 9.472771
54.355 9.432922
54.360 9.614016
54.365 10.130939
54.370 10.217901
54.375 10.056242
54.380 10.418973
54.385 10.55659
54.390 10.25086
54.395 10.447823
54.400 10.438908
54.405 10.605199
54.410 10.590214
54.415 10.535991
54.420 10.883233
54.425 11.088755
54.430 11.136987
54.435 10.662802
54.440 10.61939
54.445 10.389529
54.450 10.434752
54.455 10.039389
54.460 9.716899
54.465 9.736739
54.470 9.694383
54.475 9.309589
54.480 9.814757
54.485 9.914181
54.490 10.641091
54.495 10.758192
54.500 11.031763
54.505 11.2726
54.510 11.240398
54.515 11.10413
54.520 10.590549
54.525 10.105862
54.530 10.020462
54.535 9.573177
54.540 9.847573
54.545 9.990067
54.550 10.060836
54.555 10.499005
54.560 10.40049
54.565 10.159842
54.570 10.280951
54.575 10.177773
54.580 9.998102
54.585 9.778401
54.590 9.721676
54.595 9.733395
54.600 9.868405
54.605 10.098083
54.610 10.612602
54.615 11.042548
54.620 11.21388
54.625 11.213956
54.630 11.107062
54.635 11.039327
54.640 10.914026
54.645 10.405609
54.650 10.353209
54.655 10.744099
54.660 11.18913
54.665 11.670578
54.670 11.757104
54.675 11.434161
54.680 11.5578
54.685 11.264654
54.690 10.333521
54.695 10.055761
54.700 9.778261
54.705 9.964027
54.710 10.235909
54.715 9.977494
54.720 9.715788
54.725 9.576203
54.730 9.574255
54.735 9.430276
54.740 9.631815
54.745 9.795889
54.750 9.461181
54.755 9.366006
54.760 9.244108
54.765 9.174902
54.770 9.087867
54.775 8.578581
54.780 8.581112
54.785 9.021893
54.790 9.41845
54.795 9.928082
54.800 10.113841
54.805 10.329977
54.810 10.27795
54.815 10.3378
54.820 10.170193
54.825 10.340014
54.830 10.938773
54.835 11.080268
54.840 11.139152
54.845 11.396259
54.850 11.556591
54.855 11.931104
54.860 11.938179
54.865 11.528436
54.870 11.614485
54.875 11.343352
54.880 11.150861
54.885 11.11481
54.890 10.484625
54.895 10.239711
54.900 10.393957
54.905 10.286968
54.910 10.851571
54.915 11.022802
54.920 10.856918
54.925 11.12748
54.930 11.004394
54.935 10.48972
54.940 10.302231
54.945 9.787528
54.950 9.112006
54.955 9.336748
54.960 9.158343
54.965 9.332547
54.970 9.41211
54.975 9.323846
54.980 9.743461
54.985 10.845901
54.990 11.540413
54.995 11.769466
55.000 11.620172
55.005 11.707863
55.010 11.990342
55.015 12.048465
55.020 10.966468
55.025 10.331078
55.030 10.309518
55.035 10.674865
55.040 10.601765
55.045 10.518048
55.050 10.142056
55.055 11.176534
55.060 11.555492
55.065 11.683573
55.070 11.379667
55.075 11.310096
55.080 11.17117
55.085 11.218693
55.090 10.784126
55.095 10.438311
55.100 10.653195
55.105 11.191486
55.110 11.359725
55.115 11.152526
55.120 11.304179
55.125 11.241857
55.130 11.121941
55.135 10.858072
55.140 10.447766
55.145 10.430998
55.150 10.830743
55.155 10.83814
55.160 11.071304
55.165 11.384366
55.170 11.113017
55.175 11.072445
55.180 11.439837
55.185 11.835827
55.190 12.116559
55.195 11.370369
55.200 11.138124
55.205 11.588557
55.210 11.398004
55.215 11.231293
55.220 10.848245
55.225 10.521929
55.230 10.946661
55.235 11.004552
55.240 11.193835
55.245 11.705735
55.250 11.44656
55.255 11.473119
55.260 11.104779
55.265 10.754997
55.270 10.581817
55.275 10.589237
55.280 10.821057
55.285 10.656986
55.290 11.031846
55.295 11.44334
55.300 11.939328
55.305 12.604509
55.310 12.25011
55.315 12.084604
55.320 12.180137
55.325 11.619516
55.330 11.389776
55.335 11.06754
55.340 10.504768
55.345 10.883847
55.350 10.922276
55.355 11.311975
55.360 11.936934
55.365 12.038837
55.370 11.962732
55.375 11.902659
55.380 11.414787
55.385 11.010101
55.390 10.939146
55.395 10.944337
55.400 10.567102
55.405 10.289555
55.410 10.301868
55.415 10.489591
55.420 10.552008
55.425 10.372618
55.430 10.315523
55.435 11.059738
55.440 11.545126
55.445 11.756067
55.450 11.871052
55.455 11.732047
55.460 11.492938
55.465 11.497245
55.470 11.548456
55.475 11.411555
55.480 11.537085
55.485 11.37229
55.490 11.377668
55.495 11.314052
55.500 10.959143
55.505 10.780946
55.510 10.78587
55.515 10.53837
55.520 10.535878
55.525 10.767449
55.530 10.622314
55.535 11.195658
55.540 11.234966
55.545 11.176191
55.550 11.573454
55.555 11.326212
55.560 11.31655
55.565 11.945048
55.570 11.560699
55.575 11.560185
55.580 11.331658
55.585 11.436592
55.590 12.173644
55.595 12.533137
55.600 11.66818
55.605 11.464838
55.610 11.966523
55.615 12.123816
55.620 12.034641
55.625 11.414768
55.630 10.868731
55.635 11.374036
55.640 11.282349
55.645 10.907814
55.650 10.611477
55.655 10.469986
55.660 10.496343
55.665 10.679769
55.670 10.697145
55.675 10.74943
55.680 10.90349
55.685 11.109988
55.690 11.582741
55.695 11.916967
55.700 11.846194
55.705 11.894474
55.710 12.000625
55.715 12.085533
55.720 12.848259
55.725 12.787528
55.730 13.07938
55.735 13.261061
55.740 13.01751
55.745 12.623955
55.750 12.452609
55.755 11.573784
55.760 11.399277
55.765 10.520664
55.770 10.577708
55.775 10.959201
55.780 10.920911
55.785 10.959736
55.790 11.540179
55.795 11.684399
55.800 11.935321
55.805 11.813028
55.810 11.784431
55.815 11.779894
55.820 11.587077
55.825 11.665483
55.830 11.846789
55.835 12.442003
55.840 12.81578
55.845 13.168839
55.850 13.463617
55.855 13.689265
55.860 13.350782
55.865 13.158829
55.870 12.794085
55.875 12.855796
55.880 12.62135
55.885 12.250551
55.890 11.921764
55.895 11.858098
55.900 11.848825
55.905 11.940349
55.910 11.787457
55.915 11.553188
55.920 11.755734
55.925 11.933501
55.930 11.938475
55.935 12.003339
55.940 12.133246
55.945 12.145106
55.950 12.722859
55.955 12.345611
55.960 11.804368
55.965 11.550794
55.970 11.498123
55.975 11.706115
55.980 11.68399
55.985 11.405985
55.990 11.336196
55.995 11.298553
56.000 11.471729
56.005 11.388692
56.010 10.697683
56.015 10.609453
56.020 10.341432
56.025 10.842778
56.030 11.187676
56.035 11.014339
56.040 10.886083
56.045 10.968829
56.050 11.281451
56.055 11.325105
56.060 10.910331
56.065 10.847892
56.070 10.573426
56.075 10.226639
56.080 10.304596
56.085 10.366062
56.090 10.847322
56.095 11.012603
56.100 11.143041
56.105 11.273031
56.110 11.435906
56.115 11.74121
56.120 11.749658
56.125 11.903353
56.130 12.072716
56.135 12.574034
56.140 13.260688
56.145 13.353404
56.150 13.117358
56.155 12.725173
56.160 12.478111
56.165 12.055615
56.170 11.443614
56.175 10.888799
56.180 10.429766
56.185 10.281345
56.190 10.384595
56.195 10.645616
56.200 11.016075
56.205 11.364922
56.210 11.547792
56.215 12.188173
56.220 12.584234
56.225 12.697551
56.230 12.818981
56.235 12.865242
56.240 13.183281
56.245 13.204967
56.250 12.663746
56.255 12.567001
56.260 12.60053
56.265 12.845216
56.270 12.905142
56.275 12.680951
56.280 12.908937
56.285 13.070901
56.290 13.153431
56.295 13.038571
56.300 12.718605
56.305 13.067055
56.310 13.305475
56.315 13.590519
56.320 13.125896
56.325 12.718561
56.330 12.646331
56.335 12.811152
56.340 12.345417
56.345 11.904969
56.350 11.429622
56.355 12.059166
56.360 11.991741
56.365 11.73015
56.370 11.27683
56.375 11.342017
56.380 11.427171
56.385 11.628472
56.390 11.250171
56.395 11.387741
56.400 11.558778
56.405 11.708633
56.410 11.725051
56.415 11.752584
56.420 11.69593
56.425 12.213353
56.430 12.047103
56.435 12.119274
56.440 12.050892
56.445 12.032177
56.450 12.048351
56.455 11.629292
56.460 11.696774
56.465 11.928217
56.470 11.925527
56.475 12.159008
56.480 12.105219
56.485 12.245472
56.490 12.301558
56.495 11.968787
56.500 11.679117
56.505 11.199478
56.510 11.085025
56.515 10.884621
56.520 11.335702
56.525 11.747836
56.530 12.118404
56.535 13.060035
56.540 13.292002
56.545 13.100168
56.550 13.28193
56.555 13.321796
56.560 13.264994
56.565 13.192327
56.570 13.124187
56.575 13.279706
56.580 13.607683
56.585 13.597209
56.590 13.350096
56.595 13.656342
56.600 13.310055
56.605 12.905685
56.610 13.227955
56.615 13.220174
56.620 13.274207
56.625 12.938125
56.630 12.4482
56.635 12.283843
56.640 12.276412
56.645 11.787376
56.650 11.965844
56.655 11.879012
56.660 12.135744
56.665 12.543499
56.670 12.653295
56.675 12.819067
56.680 12.89017
56.685 12.817275
56.690 13.417132
56.695 13.487277
56.700 13.223377
56.705 13.402581
56.710 12.990939
56.715 12.85839
56.720 12.87437
56.725 12.32212
56.730 12.441154
56.735 13.16715
56.740 13.189765
56.745 13.448675
56.750 13.190399
56.755 13.116632
56.760 13.262367
56.765 12.653607
56.770 12.228946
56.775 12.846171
56.780 13.114197
56.785 13.396903
56.790 12.938016
56.795 12.712582
56.800 12.773231
56.805 12.289382
56.810 11.607671
56.815 11.516748
56.820 11.613552
56.825 12.224944
56.830 12.695402
56.835 13.373367
56.840 13.552146
56.845 13.816501
56.850 13.736502
56.855 13.535589
56.860 13.168579
56.865 13.04225
56.870 12.8304
56.875 13.113047
56.880 13.144873
56.885 13.374518
56.890 13.535829
56.895 13.618999
56.900 13.24092
56.905 12.797124
56.910 12.365666
56.915 12.338688
56.920 12.237091
56.925 12.850269
56.930 13.393599
56.935 14.094525
56.940 14.85928
56.945 14.984459
56.950 15.152421
56.955 14.863026
56.960 14.336165
56.965 13.870172
56.970 13.430134
56.975 13.108912
56.980 13.359751
56.985 13.261278
56.990 13.299506
56.995 13.226413
57.000 13.569706
57.005 13.511706
57.010 13.670251
57.015 13.38648
57.020 13.509568
57.025 13.610378
57.030 13.600924
57.035 13.288263
57.040 13.292465
57.045 12.754297
57.050 12.432394
57.055 12.014264
57.060 11.953756
57.065 12.085485
57.070 11.972783
57.075 11.927943
57.080 12.797518
57.085 13.332613
57.090 13.554675
57.095 13.526718
57.100 13.448657
57.105 13.593186
57.110 13.61919
57.115 13.057747
57.120 12.814227
57.125 12.613556
57.130 12.639451
57.135 12.894121
57.140 13.382795
57.145 13.74089
57.150 13.587163
57.155 13.496807
57.160 13.516447
57.165 13.367805
57.170 12.969301
57.175 12.306458
57.180 12.345687
57.185 12.648984
57.190 12.839325
57.195 13.104789
57.200 13.446372
57.205 14.038024
57.210 14.173572
57.215 13.818863
57.220 14.012877
57.225 14.097972
57.230 13.889676
57.235 13.632037
57.240 13.440362
57.245 13.698736
57.250 13.905922
57.255 13.642635
57.260 13.783242
57.265 13.922522
57.270 14.106397
57.275 14.159323
57.280 13.9589
57.285 13.921209
57.290 14.462914
57.295 14.838561
57.300 14.491861
57.305 14.235624
57.310 13.726761
57.315 13.398885
57.320 13.087898
57.325 12.921855
57.330 12.792866
57.335 12.654158
57.340 12.376438
57.345 12.657054
57.350 13.277751
57.355 13.649153
57.360 13.437534
57.365 13.631912
57.370 14.37446
57.375 14.828355
57.380 14.972967
57.385 15.230863
57.390 15.270233
57.395 14.819147
57.400 14.401461
57.405 13.741512
57.410 13.233871
57.415 13.102628
57.420 12.383971
57.425 12.263944
57.430 12.349889
57.435 12.388764
57.440 12.65581
57.445 12.887202
57.450 13.101753
57.455 13.164732
57.460 12.963326
57.465 13.027207
57.470 13.306692
57.475 13.366139
57.480 13.51752
57.485 13.868107
57.490 14.002346
57.495 14.202642
57.500 14.68148
57.505 14.812924
57.510 14.790565
57.515 14.390858
57.520 13.9227
57.525 14.02571
57.530 13.891954
57.535 13.496808
57.540 13.505367
57.545 13.845454
57.550 14.00973
57.555 13.795957
57.560 13.975044
57.565 13.806895
57.570 13.766705
57.575 13.518458
57.580 13.268172
57.585 13.428556
57.590 13.509229
57.595 13.090416
57.600 13.118973
57.605 13.189131
57.610 13.201058
57.615 13.167439
57.620 12.786755
57.625 13.052167
57.630 13.438298
57.635 13.212394
57.640 12.820611
57.645 12.785307
57.650 12.891287
57.655 13.106445
57.660 12.708632
57.665 12.630282
57.670 12.679388
57.675 12.838268
57.680 12.994029
57.685 13.21603
57.690 13.199484
57.695 13.325041
57.700 13.453076
57.705 13.997074
57.710 14.358502
57.715 14.587271
57.720 14.78337
57.725 15.160096
57.730 15.630214
57.735 16.279305
57.740 16.529869
57.745 16.022671
57.750 15.991581
57.755 15.66742
57.760 15.496752
57.765 15.295198
57.770 14.34755
57.775 14.054445
57.780 14.298841
57.785 14.45569
57.790 14.2654
57.795 14.094303
57.800 13.417985
57.805 13.262562
57.810 13.019511
57.815 13.168522
57.820 13.494335
57.825 14.050268
57.830 14.104156
57.835 14.294603
57.840 14.700637
57.845 14.674029
57.850 14.127754
57.855 13.638647
57.860 13.3209
57.865 13.607732
57.870 13.555211
57.875 13.22488
57.880 13.344827
57.885 13.432383
57.890 13.368388
57.895 13.287213
57.900 13.099115
57.905 13.341833
57.910 13.718974
57.915 13.96664
57.920 13.835789
57.925 13.320088
57.930 13.153155
57.935 12.812873
57.940 13.040015
57.945 12.885016
57.950 12.730471
57.955 12.539229
57.960 12.972985
57.965 13.23954
57.970 13.851502
57.975 13.636027
57.980 13.469691
57.985 13.422293
57.990 13.980942
57.995 13.837071
58.000 14.071549
58.005 13.898806
58.010 14.007206
58.015 14.640126
58.020 15.080276
58.025 14.883364
58.030 14.852582
58.035 14.780748
58.040 14.769757
58.045 14.556248
58.050 14.47506
58.055 14.624546
58.060 14.56228
58.065 14.986373
58.070 14.743918
58.075 14.686582
58.080 14.977736
58.085 14.588959
58.090 14.185307
58.095 14.194478
58.100 13.991653
58.105 13.954666
58.110 13.898526
58.115 14.146774
58.120 14.504619
58.125 14.381493
58.130 14.562595
58.135 14.616747
58.140 15.228978
58.145 15.281183
58.150 14.786976
58.155 15.289792
58.160 15.756566
58.165 15.63254
58.170 15.401634
58.175 15.165503
58.180 15.615634
58.185 15.551301
58.190 14.609421
58.195 13.783847
58.200 13.581936
58.205 13.708816
58.210 13.765401
58.215 13.225202
58.220 13.17185
58.225 12.955706
58.230 12.886749
58.235 12.502522
58.240 11.979279
58.245 11.37784
58.250 11.301629
58.255 11.60638
58.260 12.236939
58.265 12.774781
58.270 13.063278
58.275 13.186413
58.280 13.858757
58.285 14.194293
58.290 14.117476
58.295 14.570629
58.300 15.045295
58.305 15.212272
58.310 15.349352
58.315 15.091894
58.320 14.855589
58.325 15.263891
58.330 15.029865
58.335 14.829424
58.340 14.904353
58.345 14.798017
58.350 15.211125
58.355 15.384325
58.360 15.275637
58.365 15.345035
58.370 15.152681
58.375 14.938375
58.380 14.676512
58.385 14.020127
58.390 13.640718
58.395 14.188676
58.400 14.807378
58.405 15.417951
58.410 15.852739
58.415 15.942108
58.420 15.938
58.425 16.33774
58.430 15.694076
58.435 14.844535
58.440 14.539061
58.445 14.834408
58.450 15.231883
58.455 15.301742
58.460 15.178341
58.465 15.339044
58.470 15.82085
58.475 15.65097
58.480 15.823857
58.485 15.62591
58.490 15.820806
58.495 15.608347
58.500 14.954379
58.505 13.955581
58.510 13.849465
58.515 13.615524
58.520 13.758845
58.525 13.637748
