!@!!GADDS PLOTSO FILE: Chi integration type
!@!!Title/SampleName: map-12c
!@!!Comment: ?
!@!!User: Bruker Instrument Administrator
!@!!Site: University of Illinois Chicago
!@!!Frame: map-12c_01_000.gfrm
!@!!Wavelengths    1.54184   1.54056   1.54439
!@!!Frame angles: 2Theta: 63.000 Omega: 50.000 Phi: 0.000 Chi: 90.000
!@!!Integration range: 2Theta: 53.000 to 73.000  Gamma: -105.000 to -75.000
!@!!Integration method: bin normalized
!@!N
!@!SS
!@!M
!@!L 0.0 0.0 0.0 0.0
!@!XDegrees
!@!YCounts
53.000 4.198079
53.005 3.925256
53.010 4.069329
53.015 4.190399
53.020 4.114683
53.025 4.109995
53.030 3.845253
53.035 3.731248
53.040 3.623806
53.045 3.258168
53.050 3.358176
53.055 3.363301
53.060 3.438255
53.065 3.592184
53.070 3.783453
53.075 3.866871
53.080 4.073008
53.085 4.113867
53.090 4.491106
53.095 4.659658
53.100 4.513664
53.105 4.413562
53.110 4.236753
53.115 3.818058
53.120 3.656663
53.125 3.347043
53.130 2.927839
53.135 2.773561
53.140 2.837322
53.145 3.083852
53.150 3.226233
53.155 3.337713
53.160 3.480926
53.165 3.869547
53.170 4.272737
53.175 4.188294
53.180 4.050631
53.185 4.30384
53.190 4.160476
53.195 3.961777
53.200 3.508716
53.205 3.590671
53.210 3.703635
53.215 3.801531
53.220 3.801204
53.225 3.818048
53.230 3.943096
53.235 4.132637
53.240 4.105273
53.245 4.478826
53.250 4.526175
53.255 4.244907
53.260 4.198153
53.265 4.311381
53.270 4.335864
53.275 4.298637
53.280 4.067811
53.285 3.652972
53.290 3.843098
53.295 3.809032
53.300 3.692724
53.305 3.675466
53.310 3.303182
53.315 3.392134
53.320 3.610453
53.325 3.41564
53.330 3.416581
53.335 3.062453
53.340 2.950945
53.345 3.07771
53.350 3.00556
53.355 3.156663
53.360 3.21478
53.365 3.440626
53.370 3.743825
53.375 3.926572
53.380 3.950891
53.385 3.87871
53.390 4.038874
53.395 3.934081
53.400 3.644342
53.405 3.518178
53.410 3.477099
53.415 3.616786
53.420 3.471183
53.425 3.320704
53.430 3.103026
53.435 3.362419
53.440 3.198083
53.445 3.103992
53.450 2.849821
53.455 2.705559
53.460 2.730508
53.465 3.139137
53.470 3.006183
53.475 2.935393
53.480 2.951613
53.485 3.200469
53.490 3.415788
53.495 3.486447
53.500 3.453231
53.505 3.628286
53.510 3.670788
53.515 3.623348
53.520 3.368995
53.525 3.130155
53.530 2.83469
53.535 2.646011
53.540 2.607115
53.545 2.610764
53.550 2.573173
53.555 2.956137
53.560 3.339218
53.565 3.575773
53.570 3.454536
53.575 3.647356
53.580 3.798681
53.585 4.009079
53.590 3.758157
53.595 3.656545
53.600 3.648016
53.605 3.7206
53.610 3.911095
53.615 3.796159
53.620 3.660175
53.625 3.611238
53.630 3.447538
53.635 3.405304
53.640 3.305569
53.645 3.183895
53.650 3.334846
53.655 3.444554
53.660 3.588711
53.665 3.621596
53.670 3.627275
53.675 3.965627
53.680 3.833045
53.685 3.807616
53.690 3.692773
53.695 3.680919
53.700 3.712309
53.705 3.434862
53.710 3.15872
53.715 3.279721
53.720 3.32573
53.725 3.661282
53.730 3.571734
53.735 3.466785
53.740 3.743518
53.745 3.9469
53.750 3.993124
53.755 3.904006
53.760 3.719578
53.765 3.977201
53.770 4.037612
53.775 4.14006
53.780 4.2883
53.785 4.193031
53.790 3.931625
53.795 3.871376
53.800 3.926017
53.805 3.805926
53.810 3.39747
53.815 3.443281
53.820 3.585958
53.825 3.873634
53.830 3.851717
53.835 3.985768
53.840 3.915247
53.845 3.76877
53.850 3.53472
53.855 3.50542
53.860 3.298862
53.865 3.175338
53.870 2.964289
53.875 3.09205
53.880 2.975007
53.885 2.860348
53.890 3.175207
53.895 3.555529
53.900 3.786623
53.905 3.902012
53.910 4.005767
53.915 4.024903
53.920 4.045489
53.925 3.753206
53.930 3.661617
53.935 3.483884
53.940 3.579532
53.945 3.693687
53.950 3.761794
53.955 3.927345
53.960 3.78354
53.965 3.871364
53.970 3.997947
53.975 3.855573
53.980 3.737977
53.985 3.549993
53.990 3.374916
53.995 3.362164
54.000 3.508106
54.005 3.608436
54.010 3.789915
54.015 3.697851
54.020 3.66826
54.025 3.795128
54.030 3.679309
54.035 3.286777
54.040 2.950565
54.045 2.897384
54.050 3.059979
54.055 3.161539
54.060 3.067963
54.065 3.255891
54.070 3.192479
54.075 3.197624
54.080 3.12669
54.085 3.052579
54.090 3.004035
54.095 3.161768
54.100 3.03626
54.105 3.218703
54.110 3.18357
54.115 3.355569
54.120 3.583941
54.125 3.663583
54.130 3.471693
54.135 3.519321
54.140 3.698049
54.145 3.680918
54.150 3.21394
54.155 3.033969
54.160 3.088844
54.165 3.333388
54.170 3.538876
54.175 3.345024
54.180 3.542989
54.185 3.61081
54.190 3.715007
54.195 3.869843
54.200 4.167217
54.205 4.351687
54.210 4.60645
54.215 4.616012
54.220 4.554674
54.225 4.494516
54.230 4.044156
54.235 3.75122
54.240 3.465587
54.245 3.38212
54.250 3.218462
54.255 3.058148
54.260 3.06745
54.265 2.968456
54.270 2.917037
54.275 2.778764
54.280 2.703523
54.285 2.950379
54.290 3.195328
54.295 3.007557
54.300 2.761947
54.305 2.630303
54.310 2.75388
54.315 2.892754
54.320 2.946836
54.325 2.8218
54.330 3.151928
54.335 3.071198
54.340 2.891522
54.345 2.935139
54.350 3.123171
54.355 3.051004
54.360 3.040217
54.365 2.983656
54.370 3.278612
54.375 3.728552
54.380 3.77643
54.385 3.807457
54.390 3.833638
54.395 3.763767
54.400 3.679948
54.405 3.557415
54.410 3.302135
54.415 3.239221
54.420 3.064412
54.425 2.991396
54.430 3.37306
54.435 3.773634
54.440 3.886976
54.445 3.996859
54.450 4.094198
54.455 4.246514
54.460 4.335093
54.465 4.185898
54.470 3.952567
54.475 3.859947
54.480 3.629209
54.485 3.429911
54.490 3.618016
54.495 3.697471
54.500 3.691639
54.505 3.758719
54.510 3.721289
54.515 3.970647
54.520 4.039353
54.525 3.68415
54.530 3.646964
54.535 3.593821
54.540 3.55838
54.545 3.653521
54.550 3.520172
54.555 3.54021
54.560 3.592604
54.565 3.460913
54.570 3.355164
54.575 3.344168
54.580 3.408624
54.585 3.589381
54.590 3.597482
54.595 3.505178
54.600 3.618271
54.605 3.886168
54.610 3.890582
54.615 3.979518
54.620 3.993247
54.625 4.084054
54.630 4.202544
54.635 4.010528
54.640 4.109579
54.645 4.048843
54.650 3.820482
54.655 3.416939
54.660 3.302338
54.665 3.220204
54.670 3.185265
54.675 3.143176
54.680 3.492852
54.685 3.460483
54.690 3.767399
54.695 3.791838
54.700 3.760982
54.705 3.907112
54.710 3.707466
54.715 3.456771
54.720 3.481829
54.725 3.389375
54.730 3.56525
54.735 3.848727
54.740 3.61723
54.745 3.281901
54.750 2.912508
54.755 2.618077
54.760 2.539169
54.765 2.654404
54.770 2.666437
54.775 3.056333
54.780 3.385807
54.785 3.745682
54.790 4.048388
54.795 4.143691
54.800 3.826981
54.805 3.514856
54.810 3.197899
54.815 2.995556
54.820 2.916247
54.825 3.040614
54.830 2.91688
54.835 2.928622
54.840 3.175153
54.845 3.452472
54.850 3.715073
54.855 3.865804
54.860 3.746845
54.865 3.675061
54.870 3.662186
54.875 3.631114
54.880 3.410678
54.885 3.283182
54.890 3.329297
54.895 3.481918
54.900 3.403294
54.905 3.581932
54.910 3.513945
54.915 3.765787
54.920 3.73018
54.925 3.476935
54.930 3.404093
54.935 3.236563
54.940 3.201398
54.945 3.393395
54.950 3.389847
54.955 3.430653
54.960 3.518743
54.965 3.530621
54.970 3.820704
54.975 3.842354
54.980 3.650635
54.985 3.501585
54.990 3.064649
54.995 2.868135
55.000 2.786668
55.005 2.597464
55.010 2.462306
55.015 2.513668
55.020 2.516074
55.025 2.930306
55.030 3.197328
55.035 3.504649
55.040 3.53582
55.045 3.64204
55.050 3.792262
55.055 3.763823
55.060 3.658792
55.065 3.513955
55.070 3.497575
55.075 3.43662
55.080 3.464068
55.085 3.270352
55.090 3.122843
55.095 3.17464
55.100 3.604517
55.105 3.785883
55.110 3.679624
55.115 3.834178
55.120 4.098217
55.125 4.194272
55.130 4.108287
55.135 3.693314
55.140 3.378931
55.145 3.36233
55.150 3.096114
55.155 3.046232
55.160 3.272856
55.165 3.275927
55.170 3.225533
55.175 3.453049
55.180 3.685262
55.185 3.876328
55.190 3.509486
55.195 3.226007
55.200 3.181499
55.205 3.052212
55.210 2.816381
55.215 2.712503
55.220 2.600141
55.225 2.782229
55.230 2.755129
55.235 2.649325
55.240 3.120986
55.245 3.305343
55.250 3.233021
55.255 3.362196
55.260 3.558963
55.265 3.724347
55.270 3.651542
55.275 3.27615
55.280 3.321454
55.285 3.525136
55.290 3.579731
55.295 3.575693
55.300 3.688172
55.305 3.771519
55.310 3.891873
55.315 3.841289
55.320 3.699273
55.325 3.654258
55.330 3.620724
55.335 3.504959
55.340 3.551633
55.345 3.486113
55.350 3.279779
55.355 3.137649
55.360 2.989231
55.365 3.00944
55.370 3.139612
55.375 3.203526
55.380 3.434432
55.385 3.607362
55.390 3.760858
55.395 3.576557
55.400 3.562621
55.405 3.365261
55.410 3.040051
55.415 2.682277
55.420 2.438471
55.425 2.720846
55.430 3.005128
55.435 3.064243
55.440 3.172419
55.445 3.439698
55.450 3.730959
55.455 4.035817
55.460 4.100202
55.465 4.306008
55.470 4.338012
55.475 4.342778
55.480 4.320624
55.485 4.279351
55.490 4.087139
55.495 3.946254
55.500 3.540495
55.505 3.73243
55.510 3.840994
55.515 3.841117
55.520 3.793103
55.525 3.751578
55.530 3.368927
55.535 3.625425
55.540 3.419439
55.545 3.254657
55.550 3.280034
55.555 3.374348
55.560 3.410413
55.565 3.47589
55.570 3.168631
55.575 3.266756
55.580 3.102319
55.585 3.134736
55.590 3.082572
55.595 3.184599
55.600 3.383549
55.605 3.542346
55.610 3.646003
55.615 3.856383
55.620 3.649292
55.625 3.839988
55.630 3.790452
55.635 3.47846
55.640 3.544247
55.645 3.600352
55.650 3.648802
55.655 3.865444
55.660 3.774052
55.665 3.655014
55.670 3.742082
55.675 3.612926
55.680 3.455333
55.685 3.18441
55.690 3.014527
55.695 3.134038
55.700 3.426554
55.705 3.649939
55.710 3.974372
55.715 4.277575
55.720 4.557214
55.725 4.623994
55.730 4.721524
55.735 4.472095
55.740 4.097473
55.745 4.077607
55.750 4.021881
55.755 3.773947
55.760 3.454431
55.765 3.326293
55.770 3.752652
55.775 3.893638
55.780 3.425372
55.785 3.396519
55.790 3.468919
55.795 3.735917
55.800 3.862009
55.805 3.572721
55.810 3.520713
55.815 3.735884
55.820 3.7597
55.825 3.708688
55.830 3.740287
55.835 3.510552
55.840 3.471941
55.845 3.882603
55.850 4.229584
55.855 4.404497
55.860 4.349365
55.865 4.089138
55.870 4.08281
55.875 4.20482
55.880 3.921757
55.885 3.756366
55.890 3.566429
55.895 3.674308
55.900 3.8235
55.905 3.860931
55.910 3.945765
55.915 3.813399
55.920 4.131986
55.925 4.511459
55.930 4.412827
55.935 4.479217
55.940 5.171136
55.945 5.162297
55.950 4.864582
55.955 4.424837
55.960 4.420172
55.965 4.313046
55.970 4.211216
55.975 3.351824
55.980 3.154531
55.985 3.123393
55.990 2.981077
55.995 2.935392
56.000 3.029959
56.005 3.002662
56.010 3.239055
56.015 3.434242
56.020 3.623265
56.025 3.627522
56.030 3.632705
56.035 3.472555
56.040 3.39893
56.045 3.677718
56.050 3.631885
56.055 3.541146
56.060 3.667563
56.065 3.617309
56.070 3.876375
56.075 3.867763
56.080 3.6034
56.085 3.959132
56.090 3.944254
56.095 3.999714
56.100 4.037909
56.105 3.85908
56.110 3.670902
56.115 3.369318
56.120 3.239146
56.125 3.188962
56.130 3.161882
56.135 3.193599
56.140 3.254209
56.145 3.42749
56.150 3.440706
56.155 3.487295
56.160 3.469169
56.165 3.458032
56.170 3.529872
56.175 3.410125
56.180 3.537548
56.185 3.881242
56.190 3.865197
56.195 3.697625
56.200 3.655309
56.205 3.680885
56.210 3.733199
56.215 3.849932
56.220 3.545574
56.225 3.672268
56.230 4.099144
56.235 4.302281
56.240 4.364817
56.245 4.201926
56.250 4.273372
56.255 4.345618
56.260 4.086666
56.265 3.762097
56.270 3.432569
56.275 3.331776
56.280 3.32449
56.285 3.015743
56.290 2.961177
56.295 3.319387
56.300 3.453087
56.305 3.754928
56.310 4.048803
56.315 4.058746
56.320 4.469951
56.325 4.607409
56.330 4.570745
56.335 4.56223
56.340 4.367738
56.345 4.307917
56.350 4.108366
56.355 4.092489
56.360 3.916183
56.365 3.641697
56.370 3.725
56.375 3.715965
56.380 3.622487
56.385 3.5257
56.390 3.191274
56.395 3.514007
56.400 3.458596
56.405 3.311323
56.410 3.232963
56.415 3.411112
56.420 3.852866
56.425 4.140404
56.430 4.048094
56.435 4.14048
56.440 4.31588
56.445 4.479434
56.450 4.374139
56.455 4.168731
56.460 4.097002
56.465 4.036251
56.470 4.095317
56.475 4.209413
56.480 4.324668
56.485 4.239433
56.490 4.111774
56.495 4.276807
56.500 4.310636
56.505 4.371554
56.510 4.506066
56.515 4.400832
56.520 4.743649
56.525 4.830297
56.530 4.873961
56.535 4.883132
56.540 4.450145
56.545 3.981609
56.550 3.87917
56.555 3.554063
56.560 3.44367
56.565 3.243159
56.570 3.119027
56.575 3.179038
56.580 3.398199
56.585 3.503907
56.590 3.524512
56.595 3.749567
56.600 3.797828
56.605 3.975681
56.610 4.124636
56.615 3.948423
56.620 4.24829
56.625 4.267025
56.630 3.907669
56.635 4.069607
56.640 4.201474
56.645 4.056656
56.650 3.857399
56.655 3.584306
56.660 3.837656
56.665 3.964469
56.670 3.862898
56.675 3.730773
56.680 3.731702
56.685 3.72215
56.690 3.59666
56.695 3.521969
56.700 3.67004
56.705 3.698163
56.710 3.827646
56.715 3.822456
56.720 4.051238
56.725 4.141711
56.730 4.175774
56.735 4.099785
56.740 3.957609
56.745 3.996253
56.750 4.157163
56.755 4.413922
56.760 4.478478
56.765 4.275487
56.770 4.284911
56.775 4.031887
56.780 3.982631
56.785 3.981754
56.790 3.880095
56.795 3.93195
56.800 3.979633
56.805 3.96573
56.810 4.098056
56.815 4.187459
56.820 4.281078
56.825 4.343827
56.830 4.135594
56.835 4.18313
56.840 4.319181
56.845 4.455556
56.850 4.360595
56.855 4.238439
56.860 3.989625
56.865 4.163867
56.870 4.151982
56.875 3.911689
56.880 3.795221
56.885 3.876383
56.890 3.79026
56.895 3.975535
56.900 3.744787
56.905 3.695328
56.910 4.047895
56.915 4.162675
56.920 4.224008
56.925 4.274617
56.930 4.205812
56.935 4.156815
56.940 3.777682
56.945 3.373776
56.950 3.416404
56.955 3.486629
56.960 3.422107
56.965 3.343815
56.970 3.807973
56.975 4.531359
56.980 4.634073
56.985 4.49807
56.990 4.570286
56.995 4.884516
57.000 5.030234
57.005 5.142339
57.010 5.034441
57.015 5.096502
57.020 5.087528
57.025 4.823411
57.030 4.632068
57.035 4.502185
57.040 3.950607
57.045 3.433156
57.050 3.385585
57.055 3.44422
57.060 3.55194
57.065 3.509925
57.070 3.524022
57.075 3.696661
57.080 3.829494
57.085 3.728003
57.090 3.653716
57.095 3.581109
57.100 3.905717
57.105 4.004172
57.110 4.166097
57.115 4.008392
57.120 4.054708
57.125 4.393839
57.130 4.572572
57.135 4.488587
57.140 4.462695
57.145 4.464166
57.150 4.659705
57.155 4.361251
57.160 4.322987
57.165 4.361509
57.170 4.216817
57.175 4.129112
57.180 4.059061
57.185 3.993737
57.190 4.16993
57.195 3.969169
57.200 3.724512
57.205 3.712594
57.210 3.786439
57.215 3.850091
57.220 3.857026
57.225 3.870763
57.230 3.81866
57.235 3.791863
57.240 3.815534
57.245 3.557299
57.250 3.530001
57.255 3.752331
57.260 3.649277
57.265 3.664465
57.270 3.642193
57.275 3.701071
57.280 4.161755
57.285 4.331036
57.290 4.209858
57.295 4.255866
57.300 4.48143
57.305 4.650934
57.310 4.464159
57.315 3.875269
57.320 3.708763
57.325 3.79286
57.330 3.830916
57.335 3.732635
57.340 3.634053
57.345 3.97394
57.350 4.488121
57.355 4.336169
57.360 4.100728
57.365 3.871661
57.370 4.044621
57.375 3.930883
57.380 3.605451
57.385 3.330455
57.390 3.597782
57.395 3.792705
57.400 3.768137
57.405 3.882981
57.410 3.916403
57.415 4.04082
57.420 4.243041
57.425 3.971757
57.430 3.573294
57.435 3.458755
57.440 3.175452
57.445 3.113913
57.450 3.205066
57.455 3.038662
57.460 3.365827
57.465 3.729647
57.470 3.547138
57.475 3.764003
57.480 3.990668
57.485 3.888594
57.490 4.124199
57.495 3.795635
57.500 3.847924
57.505 4.130811
57.510 4.049565
57.515 4.089364
57.520 4.015729
57.525 3.736281
57.530 3.684575
57.535 3.857414
57.540 3.911086
57.545 3.999124
57.550 3.927029
57.555 4.207382
57.560 4.557122
57.565 4.619222
57.570 4.337867
57.575 4.459129
57.580 4.396833
57.585 4.446078
57.590 4.27008
57.595 4.241467
57.600 4.453104
57.605 4.411979
57.610 4.201441
57.615 4.115002
57.620 4.074648
57.625 4.178469
57.630 4.044958
57.635 3.820605
57.640 3.832109
57.645 3.988896
57.650 3.943208
57.655 3.893618
57.660 3.993366
57.665 4.323061
57.670 4.340671
57.675 4.34156
57.680 4.25878
57.685 4.410782
57.690 4.218427
57.695 4.027817
57.700 3.679088
57.705 3.907362
57.710 3.982574
57.715 3.83297
57.720 3.784027
57.725 3.954358
57.730 3.821361
57.735 4.292283
57.740 4.277481
57.745 4.043557
57.750 4.001741
57.755 3.890133
57.760 3.968223
57.765 4.041684
57.770 3.64641
57.775 3.617452
57.780 3.729062
57.785 3.983853
57.790 4.057737
57.795 4.072607
57.800 4.2909
57.805 4.778663
57.810 4.913053
57.815 5.005238
57.820 5.226277
57.825 5.713324
57.830 5.388526
57.835 4.888714
57.840 4.514197
57.845 4.3626
57.850 4.331971
57.855 3.861531
57.860 3.499185
57.865 3.635782
57.870 3.675897
57.875 3.501392
57.880 3.446201
57.885 3.713561
57.890 3.694095
57.895 3.450947
57.900 3.526912
57.905 3.552684
57.910 3.621951
57.915 3.595782
57.920 3.250828
57.925 3.206124
57.930 3.583089
57.935 3.820728
57.940 3.930699
57.945 3.858109
57.950 3.774741
57.955 3.714852
57.960 3.800013
57.965 3.642685
57.970 3.889034
57.975 3.957506
57.980 3.779149
57.985 3.650188
57.990 3.61897
57.995 3.470248
58.000 3.491524
58.005 3.083655
58.010 3.286927
58.015 3.64469
58.020 3.80067
58.025 3.937845
58.030 3.982422
58.035 3.907835
58.040 4.010403
58.045 3.858357
58.050 3.793385
58.055 4.039135
58.060 4.048658
58.065 4.232935
58.070 4.368767
58.075 4.376066
58.080 4.337396
58.085 4.208534
58.090 4.121716
58.095 4.008754
58.100 3.871712
58.105 3.925133
58.110 4.137289
58.115 4.102761
58.120 4.18667
58.125 4.10588
58.130 4.163779
58.135 4.134662
58.140 4.044549
58.145 4.134835
58.150 4.347939
58.155 4.594462
58.160 4.783332
58.165 4.652124
58.170 4.593851
58.175 4.550615
58.180 4.355473
58.185 4.285356
58.190 3.79349
58.195 3.635221
58.200 3.972209
58.205 4.047695
58.210 3.858083
58.215 3.771808
58.220 3.643858
58.225 3.710487
58.230 3.933756
58.235 3.738436
58.240 3.689545
58.245 3.835583
58.250 3.78151
58.255 3.999619
58.260 4.122968
58.265 3.825858
58.270 3.61744
58.275 3.702547
58.280 3.783692
58.285 3.959189
58.290 3.974369
58.295 4.067785
58.300 4.148342
58.305 4.214239
58.310 3.995707
58.315 4.057045
58.320 4.080795
58.325 3.942495
58.330 3.848065
58.335 3.873671
58.340 4.188467
58.345 4.224257
58.350 4.411198
58.355 4.494857
58.360 4.67807
58.365 4.67606
58.370 4.771401
58.375 4.585744
58.380 4.373754
58.385 3.830794
58.390 4.001188
58.395 4.021524
58.400 4.333361
58.405 4.471938
58.410 4.51313
58.415 4.617339
58.420 4.778887
58.425 4.404522
58.430 4.357945
58.435 4.139473
58.440 3.966532
58.445 4.012218
58.450 4.116529
58.455 4.298721
58.460 4.218632
58.465 4.089671
58.470 4.17873
58.475 4.08484
58.480 4.044815
58.485 3.981963
58.490 4.108921
58.495 4.197735
58.500 4.187862
58.505 4.266763
58.510 4.17206
58.515 4.049831
58.520 4.040543
58.525 3.821948
58.530 3.867115
58.535 3.942231
58.540 3.949492
58.545 4.010348
58.550 4.092675
58.555 4.032042
58.560 3.921367
58.565 4.095375
58.570 3.955463
58.575 3.889209
58.580 3.901126
58.585 3.794457
58.590 3.759379
58.595 3.918615
58.600 3.623951
58.605 3.748197
58.610 3.86925
58.615 4.023684
58.620 4.093426
58.625 4.194721
58.630 4.197986
58.635 4.319608
58.640 4.247487
58.645 3.987595
58.650 4.029439
58.655 4.200939
58.660 4.044751
58.665 4.048251
58.670 4.04819
58.675 4.123562
58.680 4.339989
58.685 4.449568
58.690 4.481887
58.695 4.452855
58.700 4.488936
58.705 4.563183
58.710 4.544106
58.715 4.352445
58.720 4.274925
58.725 4.208581
58.730 4.284493
58.735 4.39559
58.740 4.111145
58.745 4.113727
58.750 4.282051
58.755 4.206486
58.760 4.651666
