!@!!GADDS PLOTSO FILE: Chi integration type
!@!!Title/SampleName: map-145
!@!!Comment: ?
!@!!User: Bruker Instrument Administrator
!@!!Site: University of Illinois Chicago
!@!!Frame: map-145_01_000.gfrm
!@!!Wavelengths    1.54184   1.54056   1.54439
!@!!Frame angles: 2Theta: 63.000 Omega: 50.000 Phi: 0.000 Chi: 90.000
!@!!Integration range: 2Theta: 53.000 to 73.000  Gamma: -105.000 to -75.000
!@!!Integration method: bin normalized
!@!N
!@!SS
!@!M
!@!L 0.0 0.0 0.0 0.0
!@!XDegrees
!@!YCounts
53.000 8.301133
53.005 8.634392
53.010 8.892383
53.015 8.60279
53.020 8.66048
53.025 8.971236
53.030 8.97805
53.035 8.889744
53.040 9.240541
53.045 9.556767
53.050 9.87313
53.055 10.069666
53.060 10.134171
53.065 10.172844
53.070 10.176511
53.075 9.753653
53.080 9.520279
53.085 9.786989
53.090 9.554177
53.095 9.654615
53.100 9.86321
53.105 9.667537
53.110 9.043455
53.115 9.078167
53.120 9.193911
53.125 9.192745
53.130 9.593422
53.135 10.217618
53.140 10.365818
53.145 10.664595
53.150 10.721025
53.155 11.220984
53.160 11.604676
53.165 11.035519
53.170 10.441278
53.175 10.450147
53.180 10.707886
53.185 10.46209
53.190 10.273144
53.195 10.132068
53.200 10.418609
53.205 10.434085
53.210 10.455125
53.215 10.034998
53.220 9.800732
53.225 9.225418
53.230 8.779737
53.235 9.271092
53.240 9.593284
53.245 10.034456
53.250 10.171146
53.255 10.01068
53.260 10.191467
53.265 9.704963
53.270 8.953711
53.275 8.732993
53.280 8.868361
53.285 9.049332
53.290 9.464687
53.295 9.429415
53.300 9.723386
53.305 10.274819
53.310 10.257998
53.315 10.538775
53.320 10.667268
53.325 10.54322
53.330 10.909599
53.335 11.107835
53.340 10.851816
53.345 10.731523
53.350 9.717487
53.355 9.530725
53.360 9.371895
53.365 8.937517
53.370 8.559403
53.375 8.342973
53.380 8.491084
53.385 8.943147
53.390 9.058167
53.395 9.279402
53.400 9.521841
53.405 9.936692
53.410 10.171009
53.415 10.053658
53.420 10.121043
53.425 9.828099
53.430 9.937687
53.435 9.774049
53.440 9.764144
53.445 9.665452
53.450 9.554171
53.455 9.627972
53.460 9.577386
53.465 9.732182
53.470 9.747995
53.475 9.528429
53.480 9.35442
53.485 9.631474
53.490 9.538403
53.495 9.437238
53.500 9.311086
53.505 9.317
53.510 10.082264
53.515 10.857658
53.520 10.684742
53.525 10.782996
53.530 10.848266
53.535 11.118028
53.540 11.223485
53.545 10.704614
53.550 10.582903
53.555 10.540987
53.560 10.910914
53.565 10.896156
53.570 10.673767
53.575 10.498479
53.580 10.22163
53.585 10.293919
53.590 10.627096
53.595 10.34584
53.600 10.811919
53.605 11.029767
53.610 11.240282
53.615 11.614702
53.620 11.831658
53.625 12.394598
53.630 12.40593
53.635 12.285405
53.640 12.202218
53.645 11.692141
53.650 11.794246
53.655 11.213971
53.660 10.526022
53.665 10.812918
53.670 10.563797
53.675 10.810318
53.680 10.962148
53.685 11.02307
53.690 11.28337
53.695 11.263952
53.700 11.144626
53.705 11.447782
53.710 11.309306
53.715 11.112769
53.720 10.858059
53.725 11.051192
53.730 11.58678
53.735 11.598751
53.740 11.752247
53.745 11.69338
53.750 11.627724
53.755 11.52881
53.760 11.193211
53.765 10.612491
53.770 10.268669
53.775 9.795704
53.780 10.192384
53.785 10.31659
53.790 10.154701
53.795 10.110159
53.800 10.153571
53.805 9.988081
53.810 9.976848
53.815 9.8989
53.820 10.060061
53.825 10.102085
53.830 9.67274
53.835 9.756177
53.840 9.753914
53.845 10.064506
53.850 9.99068
53.855 9.937808
53.860 10.190801
53.865 10.273164
53.870 10.28081
53.875 10.749312
53.880 10.434284
53.885 10.383361
53.890 10.280462
53.895 9.889151
53.900 10.227365
53.905 10.222428
53.910 10.520754
53.915 10.630425
53.920 10.717806
53.925 10.690972
53.930 11.277946
53.935 11.337602
53.940 11.354188
53.945 11.521572
53.950 11.094189
53.955 11.213349
53.960 11.054697
53.965 10.583512
53.970 10.611837
53.975 10.447693
53.980 10.115809
53.985 10.520886
53.990 10.948051
53.995 11.589378
54.000 11.710532
54.005 11.104839
54.010 11.522102
54.015 11.53928
54.020 11.582732
54.025 11.405725
54.030 11.171848
54.035 11.622757
54.040 11.632536
54.045 11.188022
54.050 11.523739
54.055 11.497834
54.060 11.681936
54.065 11.549722
54.070 11.220712
54.075 11.306914
54.080 11.727729
54.085 11.346551
54.090 11.278172
54.095 10.898325
54.100 11.033903
54.105 11.361278
54.110 11.348318
54.115 11.165814
54.120 11.225548
54.125 11.367901
54.130 11.260148
54.135 11.143229
54.140 10.765611
54.145 10.528921
54.150 10.1844
54.155 9.582994
54.160 9.160392
54.165 9.528697
54.170 9.576903
54.175 9.634054
54.180 9.678329
54.185 10.062226
54.190 10.438102
54.195 10.310937
54.200 10.423339
54.205 10.217146
54.210 10.457869
54.215 10.741302
54.220 10.796103
54.225 10.980393
54.230 11.247568
54.235 11.791564
54.240 11.889578
54.245 11.34166
54.250 11.265689
54.255 11.763267
54.260 12.290792
54.265 12.292447
54.270 12.145555
54.275 12.322994
54.280 12.435095
54.285 12.277716
54.290 11.896248
54.295 11.569895
54.300 11.809472
54.305 11.888483
54.310 11.854082
54.315 11.829369
54.320 11.594479
54.325 11.492493
54.330 11.591923
54.335 11.748793
54.340 11.759885
54.345 11.71325
54.350 12.125733
54.355 12.162573
54.360 11.844119
54.365 11.515764
54.370 11.149519
54.375 11.426477
54.380 11.528253
54.385 11.214299
54.390 11.239284
54.395 11.280109
54.400 11.580249
54.405 11.924009
54.410 12.221433
54.415 11.990267
54.420 12.18868
54.425 12.545743
54.430 12.713134
54.435 12.261332
54.440 11.610966
54.445 11.097369
54.450 11.626491
54.455 11.770656
54.460 11.35456
54.465 11.328261
54.470 12.460352
54.475 13.071412
54.480 12.735206
54.485 12.311834
54.490 12.106776
54.495 12.251722
54.500 12.106166
54.505 11.420562
54.510 11.535348
54.515 12.509072
54.520 12.822096
54.525 13.01383
54.530 12.527812
54.535 12.137098
54.540 11.831822
54.545 11.079578
54.550 10.76584
54.555 10.742562
54.560 11.179623
54.565 11.353458
54.570 11.641144
54.575 12.101706
54.580 12.511073
54.585 12.445374
54.590 12.307961
54.595 12.207426
54.600 12.222242
54.605 12.044926
54.610 11.311116
54.615 11.117206
54.620 11.385403
54.625 11.125693
54.630 11.187094
54.635 11.430734
54.640 11.649103
54.645 12.050233
54.650 12.252503
54.655 12.573071
54.660 12.73452
54.665 12.516566
54.670 12.450203
54.675 12.426678
54.680 11.992537
54.685 11.827548
54.690 11.497387
54.695 11.716382
54.700 11.876089
54.705 11.760562
54.710 11.623659
54.715 11.682112
54.720 11.183456
54.725 10.647898
54.730 10.493546
54.735 10.320728
54.740 10.713062
54.745 10.818808
54.750 10.833971
54.755 11.266042
54.760 11.621356
54.765 11.374763
54.770 11.41748
54.775 11.34329
54.780 11.651437
54.785 12.324011
54.790 12.304817
54.795 12.13534
54.800 12.031048
54.805 11.915307
54.810 11.709735
54.815 11.612958
54.820 10.682825
54.825 10.559157
54.830 10.711769
54.835 10.779646
54.840 10.833615
54.845 11.093019
54.850 11.200066
54.855 11.457723
54.860 11.356434
54.865 11.72075
54.870 12.108692
54.875 11.987629
54.880 11.511088
54.885 11.140741
54.890 11.233462
54.895 11.431895
54.900 11.344077
54.905 11.136823
54.910 11.460408
54.915 11.510621
54.920 11.467769
54.925 11.500624
54.930 11.846917
54.935 12.052879
54.940 12.166097
54.945 12.104477
54.950 12.466765
54.955 12.47982
54.960 12.491363
54.965 12.285014
54.970 12.044616
54.975 11.84675
54.980 12.086022
54.985 12.529906
54.990 13.039657
54.995 13.014159
55.000 12.720141
55.005 12.880132
55.010 13.548182
55.015 13.367406
55.020 12.975598
55.025 12.925943
55.030 13.293831
55.035 13.580494
55.040 13.343241
55.045 12.729589
55.050 12.99578
55.055 13.28669
55.060 13.006911
55.065 12.673063
55.070 12.546316
55.075 12.406569
55.080 12.63114
55.085 11.858045
55.090 11.48392
55.095 11.392499
55.100 11.744905
55.105 11.806057
55.110 11.511643
55.115 11.423941
55.120 11.829112
55.125 11.795018
55.130 11.704201
55.135 11.144935
55.140 11.760945
55.145 12.596712
55.150 12.514124
55.155 12.38644
55.160 12.397452
55.165 12.304161
55.170 12.18141
55.175 11.891932
55.180 11.686053
55.185 12.040345
55.190 12.260558
55.195 12.552681
55.200 12.665719
55.205 13.003953
55.210 12.941345
55.215 12.846795
55.220 12.70805
55.225 12.855351
55.230 13.114493
55.235 13.276222
55.240 13.249852
55.245 13.134539
55.250 12.954557
55.255 11.882237
55.260 11.925118
55.265 11.535054
55.270 11.086106
55.275 10.646397
55.280 10.585271
55.285 10.612494
55.290 11.053844
55.295 10.770712
55.300 11.641625
55.305 12.305761
55.310 12.272109
55.315 12.634338
55.320 12.70108
55.325 12.951041
55.330 12.597908
55.335 12.005887
55.340 11.810504
55.345 11.991333
55.350 12.07028
55.355 12.387031
55.360 12.530365
55.365 12.537343
55.370 12.536544
55.375 12.298676
55.380 12.076167
55.385 12.343908
55.390 12.727804
55.395 12.797632
55.400 12.840261
55.405 12.948159
55.410 12.99932
55.415 13.093261
55.420 12.983006
55.425 12.62077
55.430 12.517704
55.435 12.166613
55.440 12.082479
55.445 12.314912
55.450 12.851665
55.455 12.582514
55.460 12.668036
55.465 12.55388
55.470 12.756537
55.475 12.640329
55.480 12.560596
55.485 12.167425
55.490 12.313601
55.495 12.581638
55.500 12.576884
55.505 12.996465
55.510 13.615894
55.515 13.996597
55.520 14.175131
55.525 13.948617
55.530 13.379549
55.535 13.557943
55.540 13.038819
55.545 12.282327
55.550 11.485079
55.555 11.533435
55.560 11.761207
55.565 11.95914
55.570 11.948061
55.575 12.259154
55.580 12.764806
55.585 12.842324
55.590 12.910116
55.595 12.941293
55.600 13.255926
55.605 13.227682
55.610 12.983634
55.615 12.536756
55.620 12.228045
55.625 12.22839
55.630 12.363691
55.635 12.044014
55.640 12.096251
55.645 12.199485
55.650 12.080682
55.655 12.14965
55.660 11.568204
55.665 11.667299
55.670 11.661281
55.675 11.876033
55.680 12.423483
55.685 12.956447
55.690 13.13722
55.695 13.112886
55.700 13.1566
55.705 13.623587
55.710 13.337938
55.715 12.78688
55.720 12.682588
55.725 12.547312
55.730 12.382489
55.735 11.973146
55.740 11.459065
55.745 11.841441
55.750 12.446955
55.755 12.460076
55.760 12.543131
55.765 12.818621
55.770 13.397519
55.775 13.45848
55.780 13.429501
55.785 13.107779
55.790 12.799665
55.795 12.398076
55.800 11.840755
55.805 11.262445
55.810 11.286638
55.815 11.609609
55.820 12.144456
55.825 12.476532
55.830 12.508501
55.835 13.229698
55.840 13.436846
55.845 13.234262
55.850 12.539456
55.855 12.354032
55.860 12.341451
55.865 12.519027
55.870 11.622406
55.875 11.636136
55.880 11.312181
55.885 10.996862
55.890 10.551416
55.895 10.94709
55.900 11.648621
55.905 12.545288
55.910 12.521377
55.915 12.972398
55.920 13.43413
55.925 13.425925
55.930 13.160091
55.935 12.608494
55.940 12.39671
55.945 13.016196
55.950 12.855697
55.955 13.039071
55.960 13.120601
55.965 12.679023
55.970 12.957901
55.975 12.679554
55.980 12.388639
55.985 12.492975
55.990 12.285018
55.995 12.124038
56.000 12.092545
56.005 11.842092
56.010 11.95723
56.015 11.997869
56.020 12.509301
56.025 12.892909
56.030 13.562286
56.035 13.832875
56.040 13.927007
56.045 14.033516
56.050 13.69381
56.055 13.643108
56.060 13.284554
56.065 12.9358
56.070 12.806612
56.075 12.632579
56.080 12.773343
56.085 12.961529
56.090 12.923555
56.095 13.345716
56.100 13.538164
56.105 13.797321
56.110 13.59604
56.115 13.190434
56.120 12.624121
56.125 12.061886
56.130 11.579978
56.135 11.509011
56.140 11.843344
56.145 12.337423
56.150 12.461947
56.155 13.076923
56.160 13.307484
56.165 13.822705
56.170 13.587337
56.175 13.267159
56.180 13.113838
56.185 13.442959
56.190 13.357546
56.195 13.767618
56.200 14.295405
56.205 14.358777
56.210 14.370959
56.215 14.57941
56.220 14.100956
56.225 14.166848
56.230 14.187716
56.235 13.806916
56.240 14.255077
56.245 14.63216
56.250 14.589241
56.255 14.670639
56.260 14.188426
56.265 13.385427
56.270 13.231645
56.275 12.720176
56.280 12.284093
56.285 12.383678
56.290 12.781788
56.295 13.339052
56.300 13.367959
56.305 13.195328
56.310 13.463301
56.315 13.605375
56.320 13.895096
56.325 14.124555
56.330 13.967079
56.335 14.016248
56.340 14.219004
56.345 14.186735
56.350 13.771024
56.355 13.443179
56.360 13.208464
56.365 12.98455
56.370 12.936174
56.375 12.642604
56.380 12.698277
56.385 13.05222
56.390 12.960068
56.395 12.725434
56.400 13.175149
56.405 13.457354
56.410 13.995398
56.415 13.873649
56.420 13.359243
56.425 12.773303
56.430 12.736078
56.435 12.32708
56.440 12.416657
56.445 12.342617
56.450 12.950687
56.455 13.219125
56.460 13.719518
56.465 14.094692
56.470 14.613271
56.475 14.684172
56.480 14.489767
56.485 14.41566
56.490 15.11403
56.495 15.681292
56.500 15.440066
56.505 14.960718
56.510 14.702371
56.515 14.18871
56.520 13.676909
56.525 12.988287
56.530 12.557545
56.535 12.543775
56.540 12.53444
56.545 12.177116
56.550 12.121077
56.555 12.621652
56.560 13.158567
56.565 13.072757
56.570 13.046137
56.575 12.972284
56.580 13.406403
56.585 13.653187
56.590 13.536938
56.595 12.912084
56.600 12.5054
56.605 12.605089
56.610 12.717665
56.615 13.047482
56.620 12.976428
56.625 13.14174
56.630 13.96351
56.635 15.139793
56.640 15.336631
56.645 15.4547
56.650 15.432583
56.655 15.839149
56.660 15.504885
56.665 14.786358
56.670 14.026302
56.675 14.543993
56.680 14.504596
56.685 14.953589
56.690 15.193137
56.695 15.165151
56.700 15.692831
56.705 15.656641
56.710 15.483408
56.715 15.246062
56.720 14.823148
56.725 14.732637
56.730 14.834615
56.735 14.690269
56.740 14.332217
56.745 14.304092
56.750 14.150427
56.755 14.158599
56.760 14.375023
56.765 14.606406
56.770 14.583973
56.775 15.208467
56.780 15.199422
56.785 15.174571
56.790 14.824777
56.795 14.65677
56.800 14.854836
56.805 15.006109
56.810 14.350372
56.815 14.44455
56.820 14.93996
56.825 14.878668
56.830 14.618521
56.835 13.928769
56.840 14.168351
56.845 14.265809
56.850 13.887638
56.855 13.558672
56.860 13.249699
56.865 13.025833
56.870 13.137733
56.875 12.752789
56.880 12.650366
56.885 13.105176
56.890 13.081366
56.895 12.866771
56.900 13.105569
56.905 13.26624
56.910 13.690354
56.915 14.127176
56.920 13.760252
56.925 13.905709
56.930 14.436428
56.935 13.798851
56.940 13.757453
56.945 13.491134
56.950 13.364418
56.955 13.521713
56.960 13.525825
56.965 13.494211
56.970 14.222554
56.975 14.12423
56.980 13.928152
56.985 14.271852
56.990 14.616129
56.995 14.61779
57.000 14.458255
57.005 14.402884
57.010 14.570041
57.015 14.209554
57.020 13.433213
57.025 13.322231
57.030 13.471634
57.035 13.58322
57.040 13.769536
57.045 13.902796
57.050 14.410344
57.055 14.488767
57.060 14.04214
57.065 13.605457
57.070 13.458539
57.075 13.224986
57.080 13.188772
57.085 12.816674
57.090 12.432102
57.095 12.391607
57.100 12.464258
57.105 12.129376
57.110 12.10622
57.115 12.28749
57.120 12.631776
57.125 13.298591
57.130 14.039195
57.135 14.930327
57.140 14.952392
57.145 14.752747
57.150 14.643225
57.155 14.539187
57.160 13.937385
57.165 13.466517
57.170 13.048686
57.175 13.527213
57.180 14.221755
57.185 14.158005
57.190 13.920656
57.195 14.144402
57.200 14.298717
57.205 14.807352
57.210 14.754304
57.215 14.43656
57.220 14.530103
57.225 14.861123
57.230 14.79364
57.235 14.098411
57.240 13.654274
57.245 13.327089
57.250 13.991173
57.255 14.320579
57.260 14.633693
57.265 14.95057
57.270 15.244652
57.275 14.894732
57.280 14.744309
57.285 14.115336
57.290 14.294518
57.295 14.103253
57.300 14.119151
57.305 14.78136
57.310 15.143076
57.315 15.332411
57.320 15.560007
57.325 15.434474
57.330 15.311177
57.335 14.916588
57.340 14.391619
57.345 14.394406
57.350 13.869137
57.355 13.824224
57.360 13.875735
57.365 14.460275
57.370 15.301486
57.375 15.694825
57.380 15.584404
57.385 15.753177
57.390 15.596589
57.395 15.62675
57.400 15.311133
57.405 14.875259
57.410 14.629971
57.415 14.51286
57.420 14.270062
57.425 14.008136
57.430 13.815657
57.435 14.1694
57.440 14.040838
57.445 14.232982
57.450 14.154495
57.455 14.313375
57.460 13.804505
57.465 13.575963
57.470 12.980198
57.475 13.422642
57.480 13.681108
57.485 14.006327
57.490 14.359628
57.495 15.606006
57.500 15.870871
57.505 16.240215
57.510 16.465219
57.515 16.944435
57.520 17.454681
57.525 17.335238
57.530 17.206871
57.535 17.154854
57.540 17.068237
57.545 17.052919
57.550 16.366369
57.555 15.995577
57.560 16.271229
57.565 15.485221
57.570 15.200519
57.575 15.07212
57.580 14.912238
57.585 15.195783
57.590 14.568461
57.595 14.6747
57.600 15.076375
57.605 14.899949
57.610 14.481252
57.615 14.309261
57.620 14.277023
57.625 15.021624
57.630 14.817626
57.635 14.995506
57.640 15.547865
57.645 15.572103
57.650 15.384851
57.655 15.361573
57.660 15.032591
57.665 14.616307
57.670 14.228135
57.675 14.195623
57.680 14.136774
57.685 14.532698
57.690 15.228294
57.695 15.509086
57.700 15.645841
57.705 15.777992
57.710 15.306729
57.715 15.492514
57.720 15.07073
57.725 14.438923
57.730 13.854411
57.735 13.359716
57.740 13.173953
57.745 13.323587
57.750 13.274962
57.755 13.111512
57.760 12.74493
57.765 12.786943
57.770 13.29156
57.775 13.613096
57.780 14.182377
57.785 14.132399
57.790 13.81764
57.795 13.852753
57.800 14.597933
57.805 15.03211
57.810 15.383742
57.815 15.30884
57.820 15.759178
57.825 16.469269
57.830 16.896893
57.835 16.684528
57.840 16.396324
57.845 16.264145
57.850 16.020441
57.855 15.781807
57.860 15.396742
57.865 15.001931
57.870 15.021114
57.875 14.971462
57.880 14.573918
57.885 14.094121
57.890 13.817472
57.895 13.92008
57.900 13.9903
57.905 13.638271
57.910 13.520144
57.915 14.063905
57.920 14.865063
57.925 15.303258
57.930 15.368826
57.935 15.57791
57.940 16.128691
57.945 15.92076
57.950 15.900133
57.955 15.88923
57.960 15.896443
57.965 16.307272
57.970 16.518921
57.975 16.362585
57.980 16.613041
57.985 16.536457
57.990 16.608253
57.995 16.289639
58.000 15.881264
58.005 15.965434
58.010 16.159739
58.015 16.068457
58.020 16.013741
58.025 15.476078
58.030 15.361675
58.035 15.251642
58.040 14.949006
58.045 14.704565
58.050 14.678774
58.055 14.708473
58.060 15.003624
58.065 15.471237
58.070 15.002737
58.075 14.786107
58.080 15.606565
58.085 15.493699
58.090 15.223153
58.095 15.172354
58.100 15.004412
58.105 15.487274
58.110 15.662659
58.115 14.620181
58.120 14.426268
58.125 14.588211
58.130 14.435197
58.135 14.849689
58.140 14.768197
58.145 14.329967
58.150 14.538805
58.155 14.934793
58.160 15.229214
58.165 15.395867
58.170 15.019378
58.175 14.775903
58.180 15.126548
58.185 15.516484
58.190 15.864858
58.195 15.894847
58.200 15.637076
58.205 15.698297
58.210 16.159313
58.215 15.975735
58.220 15.887042
58.225 15.573264
58.230 15.507102
58.235 15.581721
58.240 15.372303
58.245 15.198009
58.250 15.006962
58.255 14.700014
58.260 14.654711
58.265 15.023396
58.270 15.647544
58.275 15.635467
58.280 16.129135
58.285 16.653034
58.290 16.771229
58.295 16.142056
58.300 16.136147
58.305 16.414072
58.310 16.868196
58.315 16.421522
58.320 16.047628
58.325 16.185278
58.330 16.717361
58.335 16.177301
58.340 15.777599
58.345 15.727408
58.350 15.985716
58.355 16.199787
58.360 16.207701
58.365 16.167072
58.370 16.072557
58.375 16.070738
58.380 15.838569
58.385 15.716014
58.390 15.714565
58.395 15.653612
58.400 15.575299
58.405 15.734464
58.410 16.074011
58.415 16.388397
58.420 16.802494
58.425 16.755133
58.430 16.92363
58.435 17.336731
58.440 17.236288
58.445 17.381849
58.450 17.398479
58.455 17.311419
58.460 17.287539
