!@!!GADDS PLOTSO FILE: Chi integration type
!@!!Title/SampleName: map-69
!@!!Comment: ?
!@!!User: Bruker Instrument Administrator
!@!!Site: University of Illinois Chicago
!@!!Frame: map-69_01_000.gfrm
!@!!Wavelengths    1.54184   1.54056   1.54439
!@!!Frame angles: 2Theta: 63.000 Omega: 50.000 Phi: 0.000 Chi: 90.000
!@!!Integration range: 2Theta: 53.000 to 73.000  Gamma: -105.000 to -75.000
!@!!Integration method: bin normalized
!@!N
!@!SS
!@!M
!@!L 0.0 0.0 0.0 0.0
!@!XDegrees
!@!YCounts
53.000 7.975286
53.005 8.705745
53.010 9.335835
53.015 9.840904
53.020 9.719631
53.025 9.465442
53.030 9.274891
53.035 9.472727
53.040 9.14097
53.045 8.62084
53.050 8.734049
53.055 8.860465
53.060 9.006206
53.065 9.147267
53.070 9.056718
53.075 8.800961
53.080 8.791419
53.085 8.293036
53.090 8.16569
53.095 8.579676
53.100 8.569677
53.105 8.797436
53.110 9.160401
53.115 9.30823
53.120 9.821552
53.125 9.954563
53.130 9.634504
53.135 9.533538
53.140 9.570126
53.145 9.392954
53.150 9.755299
53.155 9.744063
53.160 9.543489
53.165 9.348486
53.170 9.234123
53.175 8.980418
53.180 8.849147
53.185 9.115962
53.190 8.863051
53.195 9.294414
53.200 9.584045
53.205 9.935591
53.210 9.73359
53.215 9.544764
53.220 9.087301
53.225 9.322153
53.230 9.460946
53.235 8.862776
53.240 8.48444
53.245 8.668588
53.250 8.716067
53.255 8.661289
53.260 8.1151
53.265 7.645997
53.270 7.523899
53.275 7.836906
53.280 7.760171
53.285 7.762524
53.290 7.373462
53.295 7.526233
53.300 8.076497
53.305 8.555089
53.310 8.669498
53.315 8.168551
53.320 8.36744
53.325 8.707728
53.330 8.749474
53.335 8.839535
53.340 8.646758
53.345 8.78056
53.350 8.776421
53.355 8.396975
53.360 8.435987
53.365 8.802713
53.370 8.847556
53.375 8.480009
53.380 8.392747
53.385 8.679488
53.390 9.665009
53.395 9.941894
53.400 9.512291
53.405 9.897154
53.410 10.487585
53.415 10.915369
53.420 11.128169
53.425 10.735342
53.430 10.93463
53.435 10.827148
53.440 10.640494
53.445 10.550562
53.450 10.250526
53.455 9.550467
53.460 9.302599
53.465 9.40254
53.470 9.259505
53.475 9.363076
53.480 8.627103
53.485 9.36186
53.490 9.814154
53.495 9.639496
53.500 9.648368
53.505 9.73051
53.510 9.646933
53.515 9.793043
53.520 9.49353
53.525 9.314257
53.530 9.359828
53.535 8.850549
53.540 8.649022
53.545 9.055782
53.550 9.075758
53.555 8.887527
53.560 8.71497
53.565 8.641923
53.570 9.119628
53.575 9.028559
53.580 8.84203
53.585 9.058038
53.590 8.962916
53.595 8.930231
53.600 8.68515
53.605 8.637581
53.610 8.84956
53.615 8.453572
53.620 8.578606
53.625 9.179209
53.630 9.285213
53.635 9.492515
53.640 9.393134
53.645 9.524455
53.650 9.648712
53.655 9.520159
53.660 9.784623
53.665 10.098989
53.670 10.070872
53.675 10.152714
53.680 10.106302
53.685 10.427062
53.690 10.528332
53.695 10.342092
53.700 10.321178
53.705 10.39182
53.710 9.941936
53.715 9.678728
53.720 9.530818
53.725 9.494235
53.730 9.489695
53.735 9.660945
53.740 10.15103
53.745 11.024036
53.750 11.763341
53.755 12.066341
53.760 11.943337
53.765 11.306174
53.770 11.227706
53.775 11.073578
53.780 10.290573
53.785 9.529477
53.790 9.202513
53.795 9.484278
53.800 9.904079
53.805 9.860342
53.810 9.410626
53.815 9.759606
53.820 10.094967
53.825 10.462529
53.830 10.641188
53.835 10.344694
53.840 10.201574
53.845 10.531075
53.850 10.400913
53.855 9.998336
53.860 9.706048
53.865 9.164838
53.870 9.135718
53.875 9.274383
53.880 9.214361
53.885 9.355753
53.890 9.145112
53.895 9.1786
53.900 9.293955
53.905 9.437493
53.910 9.495698
53.915 9.452933
53.920 9.714592
53.925 10.436749
53.930 10.630795
53.935 10.491314
53.940 10.605719
53.945 10.944001
53.950 10.773767
53.955 10.285984
53.960 9.488631
53.965 9.470394
53.970 9.484865
53.975 9.327162
53.980 9.489033
53.985 9.579239
53.990 10.21751
53.995 10.940517
54.000 10.668953
54.005 10.583976
54.010 10.745405
54.015 10.798178
54.020 10.571389
54.025 9.994382
54.030 9.555247
54.035 10.047104
54.040 10.166711
54.045 9.533957
54.050 9.443419
54.055 9.739304
54.060 9.49624
54.065 9.849868
54.070 9.782541
54.075 9.409136
54.080 9.82846
54.085 9.40123
54.090 9.695686
54.095 9.702597
54.100 9.507437
54.105 9.785953
54.110 10.188055
54.115 9.974657
54.120 10.112373
54.125 10.009913
54.130 10.71041
54.135 10.983224
54.140 10.754978
54.145 10.268918
54.150 10.047431
54.155 10.04973
54.160 9.75579
54.165 9.504764
54.170 8.985224
54.175 9.326805
54.180 10.132044
54.185 10.436007
54.190 10.186774
54.195 10.263906
54.200 9.968231
54.205 10.234516
54.210 10.162961
54.215 10.021395
54.220 10.602463
54.225 11.063335
54.230 11.136708
54.235 11.507318
54.240 11.25353
54.245 10.99886
54.250 10.526396
54.255 9.956638
54.260 9.619232
54.265 9.466842
54.270 9.305937
54.275 9.363618
54.280 9.807987
54.285 9.832221
54.290 9.767981
54.295 9.404281
54.300 9.491488
54.305 9.622377
54.310 9.682239
54.315 9.954847
54.320 10.097342
54.325 10.509436
54.330 10.895859
54.335 10.802468
54.340 10.502271
54.345 10.19
54.350 10.02959
54.355 10.169262
54.360 10.088596
54.365 9.947251
54.370 10.148203
54.375 10.709463
54.380 10.777506
54.385 10.831677
54.390 10.161975
54.395 9.951669
54.400 9.794947
54.405 9.309999
54.410 8.86953
54.415 8.760879
54.420 8.885623
54.425 9.357067
54.430 9.595428
54.435 9.696126
54.440 9.840122
54.445 9.492649
54.450 9.236674
54.455 8.911346
54.460 9.021148
54.465 8.978228
54.470 9.305805
54.475 9.26336
54.480 9.466284
54.485 9.465875
54.490 9.767052
54.495 9.587791
54.500 9.295042
54.505 9.345003
54.510 9.591922
54.515 9.900692
54.520 9.927698
54.525 9.998078
54.530 10.342121
54.535 10.459554
54.540 10.278152
54.545 10.350492
54.550 10.272831
54.555 9.962791
54.560 9.989777
54.565 9.896766
54.570 9.899908
54.575 9.74422
54.580 9.66244
54.585 9.980708
54.590 10.186893
54.595 9.967734
54.600 10.140777
54.605 10.551396
54.610 10.50328
54.615 10.599159
54.620 10.747722
54.625 10.726557
54.630 11.036923
54.635 10.963979
54.640 10.548931
54.645 11.142096
54.650 11.372024
54.655 11.536489
54.660 11.606043
54.665 11.264101
54.670 11.372276
54.675 11.495286
54.680 10.833752
54.685 10.444035
54.690 10.260094
54.695 10.295579
54.700 10.464925
54.705 10.332403
54.710 10.263352
54.715 10.67959
54.720 10.724411
54.725 10.500098
54.730 10.886061
54.735 10.670366
54.740 10.487453
54.745 10.358166
54.750 9.893406
54.755 9.729403
54.760 9.655264
54.765 9.737102
54.770 10.196891
54.775 10.697471
54.780 11.083472
54.785 11.027131
54.790 11.161898
54.795 11.317309
54.800 11.181222
54.805 10.969853
54.810 10.230008
54.815 10.328089
54.820 10.700315
54.825 10.657339
54.830 10.616367
54.835 10.636385
54.840 10.785623
54.845 11.477547
54.850 11.5122
54.855 11.670547
54.860 12.129369
54.865 12.064291
54.870 11.881295
54.875 12.01767
54.880 11.8217
54.885 11.370923
54.890 11.284323
54.895 11.176145
54.900 11.139181
54.905 11.052114
54.910 10.937942
54.915 10.771836
54.920 10.924071
54.925 10.642772
54.930 10.48552
54.935 10.580656
54.940 10.512683
54.945 10.452271
54.950 10.418462
54.955 10.363633
54.960 10.230314
54.965 10.125632
54.970 10.113594
54.975 10.560378
54.980 10.796094
54.985 10.537706
54.990 10.3695
54.995 10.559187
55.000 10.581193
55.005 10.484052
55.010 10.16519
55.015 10.441302
55.020 10.981854
55.025 11.231787
55.030 11.372712
55.035 11.027099
55.040 10.858008
55.045 10.68758
55.050 10.480417
55.055 10.734762
55.060 11.249243
55.065 11.107375
55.070 11.628142
55.075 11.960799
55.080 12.149357
55.085 12.075909
55.090 11.256613
55.095 10.826699
55.100 10.955765
55.105 10.866118
55.110 10.672598
55.115 10.986114
55.120 11.240508
55.125 11.434354
55.130 11.141936
55.135 10.801384
55.140 11.188703
55.145 11.800872
55.150 11.643407
55.155 11.558397
55.160 11.454221
55.165 11.532735
55.170 11.612353
55.175 11.2757
55.180 10.628089
55.185 11.107927
55.190 11.305088
55.195 11.46261
55.200 11.757922
55.205 11.612738
55.210 11.877652
55.215 12.050172
55.220 12.076568
55.225 12.454318
55.230 12.280869
55.235 11.882487
55.240 11.113603
55.245 10.612781
55.250 10.111978
55.255 9.520081
55.260 8.901419
55.265 9.08709
55.270 9.479182
55.275 9.931442
55.280 9.853411
55.285 10.112785
55.290 9.788188
55.295 10.047295
55.300 10.177801
55.305 10.313049
55.310 10.06146
55.315 10.776095
55.320 10.98213
55.325 11.585354
55.330 11.574154
55.335 11.642758
55.340 11.524317
55.345 11.905719
55.350 11.538197
55.355 11.827573
55.360 11.659513
55.365 11.564529
55.370 11.35712
55.375 10.891129
55.380 10.489417
55.385 10.413648
55.390 10.362484
55.395 10.409271
55.400 10.438375
55.405 11.109126
55.410 11.6482
55.415 11.652694
55.420 11.516703
55.425 11.334414
55.430 11.229874
55.435 11.30456
55.440 11.391164
55.445 11.498319
55.450 11.42562
55.455 11.352962
55.460 11.095985
55.465 11.114281
55.470 10.999116
55.475 10.372777
55.480 10.346964
55.485 10.33781
55.490 10.356996
55.495 10.902703
55.500 11.161614
55.505 11.345725
55.510 11.871768
55.515 11.412359
55.520 11.135663
55.525 11.397028
55.530 11.585889
55.535 11.706635
55.540 11.82567
55.545 11.792752
55.550 12.167274
55.555 12.736088
55.560 12.697845
55.565 12.314414
55.570 11.960293
55.575 11.691143
55.580 11.57127
55.585 11.468544
55.590 11.716032
55.595 11.212762
55.600 11.18661
55.605 11.470209
55.610 11.652094
55.615 11.983717
55.620 12.20355
55.625 12.020392
55.630 12.6817
55.635 12.930708
55.640 12.685624
55.645 12.588313
55.650 11.780772
55.655 11.464478
55.660 11.22315
55.665 10.198616
55.670 9.494876
55.675 9.300609
55.680 9.138679
55.685 9.803948
55.690 10.171618
55.695 10.780433
55.700 11.410383
55.705 11.924997
55.710 11.811506
55.715 12.211677
55.720 12.079213
55.725 11.441847
55.730 10.965461
55.735 10.561778
55.740 10.141439
55.745 10.28476
55.750 10.368118
55.755 9.986139
55.760 9.930292
55.765 10.102442
55.770 10.989211
55.775 11.696262
55.780 12.183617
55.785 12.113892
55.790 12.6199
55.795 12.59095
55.800 12.1403
55.805 11.034904
55.810 10.351056
55.815 10.277763
55.820 10.296
55.825 10.580751
55.830 10.783455
55.835 10.781032
55.840 11.073545
55.845 11.454226
55.850 11.370148
55.855 11.263298
55.860 10.533587
55.865 10.623399
55.870 11.492272
55.875 11.777878
55.880 11.520625
55.885 11.31485
55.890 11.325788
55.895 11.764389
55.900 11.678952
55.905 11.473204
55.910 12.25528
55.915 12.37774
55.920 12.680063
55.925 13.042797
55.930 13.47451
55.935 13.726947
55.940 13.587909
55.945 13.071988
55.950 13.201632
55.955 12.938509
55.960 12.576943
55.965 11.967431
55.970 11.907462
55.975 11.755626
55.980 11.826574
55.985 11.654865
55.990 11.582144
55.995 11.876474
56.000 12.147349
56.005 12.48355
56.010 12.923087
56.015 12.840986
56.020 12.715774
56.025 12.969977
56.030 12.688568
56.035 12.71938
56.040 12.546652
56.045 12.574085
56.050 12.968438
56.055 13.458828
56.060 13.475682
56.065 13.262601
56.070 12.755189
56.075 12.986326
56.080 13.048443
56.085 12.528375
56.090 11.942645
56.095 11.898664
56.100 12.132384
56.105 12.209265
56.110 11.577463
56.115 11.327042
56.120 11.606362
56.125 11.48085
56.130 11.29662
56.135 11.414745
56.140 11.700222
56.145 11.851299
56.150 11.71894
56.155 11.672373
56.160 12.211551
56.165 12.724781
56.170 12.366293
56.175 11.935887
56.180 11.325873
56.185 11.282485
56.190 11.288775
56.195 10.465811
56.200 10.361081
56.205 10.95327
56.210 11.480676
56.215 12.270154
56.220 12.582454
56.225 13.068365
56.230 13.879331
56.235 14.405505
56.240 14.436211
56.245 14.367807
56.250 13.504705
56.255 13.146065
56.260 12.648925
56.265 12.066401
56.270 11.669006
56.275 11.637396
56.280 11.424006
56.285 12.13029
56.290 12.58009
56.295 12.914026
56.300 13.156497
56.305 12.803161
56.310 12.813916
56.315 12.31365
56.320 11.677258
56.325 11.478104
56.330 10.964937
56.335 11.276472
56.340 11.463971
56.345 11.620811
56.350 11.692167
56.355 11.682657
56.360 12.058595
56.365 12.452446
56.370 12.249598
56.375 12.502578
56.380 12.825523
56.385 13.372267
56.390 13.425913
56.395 13.362363
56.400 12.836184
56.405 12.413009
56.410 11.95681
56.415 11.547535
56.420 11.811581
56.425 12.244808
56.430 12.296303
56.435 12.928501
56.440 13.117656
56.445 13.569515
56.450 13.758545
56.455 13.409326
56.460 13.096242
56.465 12.769992
56.470 12.676687
56.475 12.772015
56.480 12.455249
56.485 12.555944
56.490 12.141806
56.495 12.018589
56.500 11.896583
56.505 11.694703
56.510 11.212609
56.515 11.168134
56.520 11.561855
56.525 12.461257
56.530 12.86275
56.535 12.868431
56.540 13.046078
56.545 13.497676
56.550 13.436871
56.555 13.301291
56.560 12.983091
56.565 12.516185
56.570 12.603601
56.575 12.352253
56.580 12.591826
56.585 12.717182
56.590 12.886587
56.595 13.384488
56.600 13.671262
56.605 13.871827
56.610 14.163125
56.615 14.088736
56.620 14.016921
56.625 14.126566
56.630 13.337065
56.635 13.174604
56.640 13.234499
56.645 12.960207
56.650 12.731065
56.655 12.259764
56.660 11.792655
56.665 12.452448
56.670 12.803124
56.675 13.013336
56.680 13.027284
56.685 12.960866
56.690 13.488354
56.695 13.828292
56.700 13.858747
56.705 13.838519
56.710 13.998262
56.715 13.681789
56.720 14.003417
56.725 13.80368
56.730 13.582546
56.735 12.881466
56.740 12.481266
56.745 12.461287
56.750 13.00145
56.755 13.124283
56.760 13.471774
56.765 14.126388
56.770 14.962742
56.775 15.072458
56.780 14.635219
56.785 14.188491
56.790 13.82294
56.795 13.948356
56.800 13.305398
56.805 12.927233
56.810 13.112117
56.815 13.308142
56.820 13.32052
56.825 13.601207
56.830 12.999975
56.835 13.046115
56.840 13.212802
56.845 12.828244
56.850 12.723935
56.855 12.535555
56.860 12.292895
56.865 12.405828
56.870 12.338949
56.875 11.923988
56.880 12.024844
56.885 12.163238
56.890 12.366469
56.895 12.534791
56.900 12.741242
56.905 13.085715
56.910 13.185152
56.915 13.364099
56.920 13.056152
56.925 12.813683
56.930 12.408048
56.935 12.327488
56.940 12.323295
56.945 12.189422
56.950 12.101171
56.955 12.15804
56.960 12.727518
56.965 12.559386
56.970 12.489512
56.975 12.481997
56.980 13.23442
56.985 13.650826
56.990 13.714729
56.995 13.288894
57.000 13.900458
57.005 13.561706
57.010 13.180566
57.015 12.591218
57.020 12.447402
57.025 12.623796
57.030 12.420053
57.035 12.039933
57.040 12.174824
57.045 12.458676
57.050 13.250572
57.055 13.77222
57.060 14.013682
57.065 14.344954
57.070 14.039779
57.075 13.772912
57.080 13.538623
57.085 13.072047
57.090 12.972463
57.095 12.621315
57.100 12.3889
57.105 12.857988
57.110 13.417185
57.115 13.415617
57.120 12.969372
57.125 12.705056
57.130 13.02149
57.135 13.778699
57.140 13.904788
57.145 13.410865
57.150 13.512707
57.155 13.579726
57.160 13.694547
57.165 13.701799
57.170 13.277439
57.175 13.137381
57.180 13.08098
57.185 12.835752
57.190 12.917555
57.195 13.116648
57.200 13.483456
57.205 13.380595
57.210 12.89514
57.215 13.119749
57.220 13.006599
57.225 12.704649
57.230 12.014091
57.235 11.542455
57.240 11.687117
57.245 11.872285
57.250 11.705201
57.255 12.032831
57.260 12.342366
57.265 12.477297
57.270 12.494082
57.275 12.414298
57.280 12.917136
57.285 13.543146
57.290 13.55928
57.295 13.649966
57.300 13.763397
57.305 13.8529
57.310 13.765675
57.315 13.598017
57.320 13.181004
57.325 13.047385
57.330 13.140293
57.335 13.693867
57.340 14.29308
57.345 14.861779
57.350 14.77799
57.355 14.864599
57.360 15.123582
57.365 14.850607
57.370 14.239924
57.375 14.034212
57.380 14.247344
57.385 14.246404
57.390 14.176473
57.395 14.001328
57.400 14.534767
57.405 14.624882
57.410 14.094063
57.415 13.636051
57.420 13.696406
57.425 13.753432
57.430 13.721543
57.435 13.600471
57.440 13.553256
57.445 13.674585
57.450 14.011281
57.455 14.120699
57.460 14.40289
57.465 14.286817
57.470 14.069923
57.475 14.116466
57.480 13.983921
57.485 13.709367
57.490 13.356908
57.495 13.291665
57.500 13.559514
57.505 13.350716
57.510 13.094851
57.515 12.532157
57.520 12.100642
57.525 11.895348
57.530 11.533118
57.535 11.53517
57.540 11.637381
57.545 11.940724
57.550 13.252704
57.555 14.13061
57.560 14.209037
57.565 14.340239
57.570 14.473581
57.575 14.497624
57.580 14.302042
57.585 13.626039
57.590 13.696279
57.595 14.18071
57.600 14.434162
57.605 14.254056
57.610 14.693386
57.615 14.755277
57.620 14.877809
57.625 14.642386
57.630 14.216918
57.635 13.965746
57.640 13.882607
57.645 13.801857
57.650 14.106565
57.655 14.178216
57.660 14.537318
57.665 14.24304
57.670 13.926117
57.675 14.170249
57.680 13.938789
57.685 14.147258
57.690 14.569493
57.695 14.740077
57.700 15.855727
57.705 16.488598
57.710 16.440844
57.715 16.292162
57.720 16.210709
57.725 16.063496
57.730 16.076153
57.735 15.500488
57.740 15.663054
57.745 15.675577
57.750 16.078484
57.755 15.952514
57.760 16.118589
57.765 15.816175
57.770 15.587952
57.775 14.877866
57.780 14.581992
57.785 14.851936
57.790 14.375813
57.795 14.132055
57.800 14.56077
57.805 14.975427
57.810 15.074596
57.815 14.992934
57.820 14.385555
57.825 14.290329
57.830 14.262111
57.835 13.946239
57.840 13.553571
57.845 13.568089
57.850 13.40733
57.855 13.550767
57.860 13.543525
57.865 13.362652
57.870 13.778316
57.875 14.382381
57.880 14.247004
57.885 14.736163
57.890 14.907761
57.895 14.884552
57.900 15.089868
57.905 15.454007
57.910 15.60792
57.915 16.359068
57.920 16.944126
57.925 16.502174
57.930 16.293997
57.935 16.339029
57.940 16.067247
57.945 15.927845
57.950 15.331445
57.955 14.577025
57.960 15.1055
57.965 15.166095
57.970 14.919069
57.975 15.042657
57.980 14.908584
57.985 15.38643
57.990 15.710804
57.995 15.984481
58.000 16.549059
58.005 16.741646
58.010 16.192755
58.015 16.047804
58.020 16.15284
58.025 16.421005
58.030 16.627604
58.035 15.94076
58.040 15.89915
58.045 16.219427
58.050 15.795228
58.055 15.552265
58.060 15.10088
58.065 15.291726
58.070 15.988417
58.075 15.576747
58.080 15.461812
58.085 15.642155
58.090 15.478065
58.095 15.371994
58.100 15.284217
58.105 15.316206
58.110 15.51684
58.115 15.824164
58.120 16.07238
58.125 16.435965
58.130 16.409937
58.135 16.053347
58.140 16.290056
58.145 16.39176
58.150 16.625254
58.155 16.595371
58.160 16.085781
58.165 16.033689
58.170 16.042936
58.175 15.269995
58.180 15.215082
58.185 14.746572
58.190 14.626122
58.195 14.651889
58.200 14.852297
58.205 15.148366
58.210 15.981949
58.215 16.001978
58.220 16.120712
58.225 16.592722
58.230 16.605709
58.235 16.143127
58.240 15.921882
58.245 15.251218
58.250 15.439445
58.255 15.624522
58.260 15.747124
58.265 16.465244
58.270 17.475508
58.275 17.660219
58.280 18.110422
58.285 18.444324
58.290 19.042105
58.295 18.840788
58.300 19.531128
58.305 19.615551
58.310 19.998766
58.315 20.184811
58.320 19.669081
58.325 19.526745
58.330 19.48274
58.335 19.254217
58.340 19.014627
58.345 19.145969
58.350 19.325661
58.355 19.748957
58.360 19.864813
58.365 20.211849
58.370 20.368471
58.375 20.724232
58.380 20.203325
58.385 20.4916
58.390 21.458511
58.395 21.575966
58.400 21.896051
58.405 22.430099
58.410 22.839703
58.415 22.917532
58.420 23.251156
58.425 23.305265
58.430 23.011152
58.435 22.498707
58.440 22.134384
58.445 22.565565
58.450 23.732496
58.455 23.645325
58.460 24.139359
58.465 25.144699
58.470 25.872078
58.475 26.072369
58.480 26.421286
58.485 26.478451
58.490 27.405441
58.495 27.992126
58.500 28.869371
58.505 29.292707
58.510 29.788599
