!@!!GADDS PLOTSO FILE: Chi integration type
!@!!Title/SampleName: map-be
!@!!Comment: ?
!@!!User: Bruker Instrument Administrator
!@!!Site: University of Illinois Chicago
!@!!Frame: map-be_01_000.gfrm
!@!!Wavelengths    1.54184   1.54056   1.54439
!@!!Frame angles: 2Theta: 63.000 Omega: 50.000 Phi: 0.000 Chi: 90.000
!@!!Integration range: 2Theta: 53.000 to 73.000  Gamma: -105.000 to -75.000
!@!!Integration method: bin normalized
!@!N
!@!SS
!@!M
!@!L 0.0 0.0 0.0 0.0
!@!XDegrees
!@!YCounts
53.000 9.239661
53.005 9.169632
53.010 8.465597
53.015 8.074542
53.020 8.051607
53.025 8.082833
53.030 8.190907
53.035 8.08392
53.040 7.948356
53.045 8.204305
53.050 8.416465
53.055 8.555873
53.060 8.310712
53.065 7.928471
53.070 8.066796
53.075 8.321991
53.080 8.494641
53.085 8.25304
53.090 8.81855
53.095 8.992321
53.100 8.935019
53.105 9.184858
53.110 8.870648
53.115 8.320016
53.120 8.319054
53.125 7.567701
53.130 7.701217
53.135 7.320924
53.140 7.120739
53.145 7.376183
53.150 7.692409
53.155 7.699437
53.160 7.902727
53.165 8.17767
53.170 8.361511
53.175 8.436286
53.180 8.92667
53.185 8.93713
53.190 9.07254
53.195 8.693504
53.200 8.614386
53.205 9.151489
53.210 8.9822
53.215 8.768678
53.220 8.844323
53.225 8.980066
53.230 9.174516
53.235 8.875878
53.240 8.494916
53.245 8.164555
53.250 8.031904
53.255 8.055399
53.260 7.893815
53.265 7.840687
53.270 8.010836
53.275 8.594542
53.280 8.776279
53.285 8.500716
53.290 8.685425
53.295 8.714231
53.300 8.997005
53.305 8.776664
53.310 8.895844
53.315 9.195514
53.320 9.032033
53.325 9.364387
53.330 9.824083
53.335 10.013829
53.340 10.30193
53.345 10.199872
53.350 10.497912
53.355 10.324561
53.360 9.72928
53.365 9.523986
53.370 9.186142
53.375 9.21646
53.380 9.127305
53.385 9.207252
53.390 9.804826
53.395 9.492566
53.400 9.535308
53.405 9.405743
53.410 9.195659
53.415 9.455235
53.420 9.124105
53.425 8.611016
53.430 8.451174
53.435 7.879314
53.440 7.760128
53.445 7.540411
53.450 7.198807
53.455 7.253571
53.460 7.405174
53.465 7.462046
53.470 7.810247
53.475 7.891851
53.480 8.16488
53.485 8.526684
53.490 8.660343
53.495 9.169822
53.500 9.939913
53.505 10.035534
53.510 10.039292
53.515 9.80199
53.520 9.849356
53.525 9.999601
53.530 9.806703
53.535 9.649462
53.540 9.598405
53.545 9.17585
53.550 9.350139
53.555 9.108122
53.560 9.154741
53.565 9.293993
53.570 8.905046
53.575 8.865148
53.580 9.113433
53.585 8.872228
53.590 8.604093
53.595 8.250377
53.600 7.958466
53.605 8.185869
53.610 8.41441
53.615 8.471339
53.620 9.00878
53.625 9.712646
53.630 10.39858
53.635 10.942825
53.640 10.608898
53.645 10.443849
53.650 10.477968
53.655 10.174266
53.660 9.851923
53.665 9.322399
53.670 9.077088
53.675 9.055035
53.680 9.014035
53.685 8.863832
53.690 8.944226
53.695 8.974344
53.700 8.579576
53.705 8.640357
53.710 8.759822
53.715 8.556992
53.720 8.605103
53.725 8.325053
53.730 8.491307
53.735 8.488675
53.740 8.356905
53.745 8.472648
53.750 8.960005
53.755 8.832923
53.760 9.177121
53.765 9.101522
53.770 9.30923
53.775 9.921704
53.780 9.981176
53.785 9.82684
53.790 9.659214
53.795 9.242487
53.800 9.288858
53.805 9.000644
53.810 8.354023
53.815 8.466408
53.820 8.220013
53.825 8.520007
53.830 8.729352
53.835 8.827866
53.840 8.82323
53.845 8.842473
53.850 8.60586
53.855 9.034099
53.860 9.078141
53.865 8.796794
53.870 9.07498
53.875 9.565965
53.880 9.650013
53.885 9.511055
53.890 9.154751
53.895 9.086844
53.900 8.83542
53.905 8.923078
53.910 8.695994
53.915 8.792619
53.920 8.959422
53.925 9.025512
53.930 9.192145
53.935 9.070472
53.940 8.740367
53.945 8.700963
53.950 8.405367
53.955 8.273315
53.960 8.017293
53.965 7.968949
53.970 8.09024
53.975 7.812112
53.980 8.109753
53.985 8.415838
53.990 8.623929
53.995 9.683367
54.000 10.261182
54.005 10.813926
54.010 11.437965
54.015 11.680759
54.020 11.81217
54.025 11.623474
54.030 10.768379
54.035 10.580855
54.040 10.267892
54.045 9.989347
54.050 9.675311
54.055 9.104545
54.060 8.711111
54.065 8.774889
54.070 8.513812
54.075 8.494403
54.080 8.51485
54.085 8.917866
54.090 9.243896
54.095 9.559899
54.100 9.725705
54.105 9.722391
54.110 9.914189
54.115 9.723406
54.120 9.732943
54.125 9.91416
54.130 9.819283
54.135 9.608033
54.140 9.371106
54.145 9.09359
54.150 9.064516
54.155 9.190399
54.160 9.299322
54.165 8.990851
54.170 9.009146
54.175 9.209109
54.180 9.161564
54.185 8.620255
54.190 8.383358
54.195 7.955197
54.200 8.53947
54.205 8.888472
54.210 8.496724
54.215 8.668898
54.220 9.265577
54.225 9.286952
54.230 9.781301
54.235 9.847208
54.240 10.254452
54.245 11.113555
54.250 11.06913
54.255 11.207532
54.260 11.163751
54.265 10.603192
54.270 10.855187
54.275 10.011532
54.280 9.324731
54.285 9.50341
54.290 9.477734
54.295 9.664787
54.300 9.738105
54.305 9.585697
54.310 10.373163
54.315 10.830123
54.320 10.498414
54.325 10.426898
54.330 10.41604
54.335 10.458948
54.340 10.731987
54.345 10.71983
54.350 10.511057
54.355 10.42934
54.360 10.500173
54.365 10.67015
54.370 10.420296
54.375 10.218676
54.380 9.845272
54.385 9.881983
54.390 10.032525
54.395 10.074354
54.400 10.098964
54.405 9.854862
54.410 10.088736
54.415 10.432421
54.420 10.68657
54.425 11.311686
54.430 10.797009
54.435 10.42887
54.440 10.805466
54.445 10.421568
54.450 10.411517
54.455 9.999086
54.460 9.662975
54.465 9.460402
54.470 9.450475
54.475 9.035542
54.480 9.134394
54.485 8.457408
54.490 8.332716
54.495 8.479099
54.500 8.790969
54.505 8.292179
54.510 8.289458
54.515 7.948526
54.520 8.176298
54.525 8.288206
54.530 8.669622
54.535 9.046364
54.540 9.994858
54.545 10.582681
54.550 10.914716
54.555 11.408815
54.560 10.884279
54.565 10.247772
54.570 9.986423
54.575 9.696842
54.580 9.907583
54.585 10.135106
54.590 9.635458
54.595 9.895961
54.600 10.211445
54.605 10.343238
54.610 10.000442
54.615 9.646395
54.620 9.491171
54.625 10.02816
54.630 10.107043
54.635 10.057183
54.640 9.851428
54.645 9.878983
54.650 10.23105
54.655 9.932625
54.660 9.394406
54.665 9.222972
54.670 9.258091
54.675 8.884576
54.680 8.659347
54.685 8.558559
54.690 8.673511
54.695 8.944158
54.700 9.034276
54.705 9.197288
54.710 9.530176
54.715 9.568647
54.720 10.005981
54.725 10.571566
54.730 10.935058
54.735 11.025518
54.740 10.947111
54.745 11.061082
54.750 10.911351
54.755 10.657462
54.760 10.04213
54.765 9.933195
54.770 10.127839
54.775 10.018533
54.780 10.156887
54.785 10.30037
54.790 10.801945
54.795 10.772817
54.800 10.517681
54.805 10.13
54.810 10.113399
54.815 9.921597
54.820 9.468556
54.825 9.318715
54.830 9.394227
54.835 9.296958
54.840 9.539804
54.845 9.861246
54.850 9.995588
54.855 10.020863
54.860 9.888088
54.865 9.933368
54.870 10.434855
54.875 10.375921
54.880 10.479366
54.885 10.268921
54.890 10.458188
54.895 10.30983
54.900 9.889715
54.905 9.636464
54.910 9.973424
54.915 10.121381
54.920 10.504493
54.925 10.292405
54.930 10.695803
54.935 11.360845
54.940 11.374864
54.945 11.360331
54.950 11.266686
54.955 11.103205
54.960 11.128801
54.965 10.8323
54.970 10.363607
54.975 10.039516
54.980 9.95403
54.985 9.802695
54.990 9.951145
54.995 10.48866
55.000 10.560584
55.005 10.819266
55.010 10.929255
55.015 10.594093
55.020 11.05866
55.025 10.978746
55.030 10.679311
55.035 10.701308
55.040 10.550512
55.045 10.641266
55.050 10.836083
55.055 10.694752
55.060 10.524593
55.065 10.575645
55.070 10.383196
55.075 10.286297
55.080 10.20983
55.085 9.579899
55.090 9.391493
55.095 9.190681
55.100 9.122899
55.105 9.340377
55.110 9.545811
55.115 9.621165
55.120 10.006864
55.125 10.121841
55.130 10.884431
55.135 11.23843
55.140 11.007663
55.145 10.956673
55.150 11.20472
55.155 12.064366
55.160 12.175917
55.165 11.842566
55.170 11.903991
55.175 12.326411
55.180 12.598124
55.185 12.435769
55.190 11.961872
55.195 12.136561
55.200 11.999938
55.205 11.745235
55.210 12.086449
55.215 12.020296
55.220 12.003656
55.225 11.277339
55.230 10.564766
55.235 10.689726
55.240 10.320895
55.245 9.945986
55.250 9.779799
55.255 9.627108
55.260 9.898861
55.265 10.293406
55.270 10.579768
55.275 10.955984
55.280 11.241458
55.285 11.314019
55.290 11.266518
55.295 10.903939
55.300 10.65029
55.305 10.16556
55.310 9.665302
55.315 9.432377
55.320 9.569218
55.325 9.582414
55.330 9.843608
55.335 10.430382
55.340 11.175796
55.345 11.882217
55.350 11.886318
55.355 11.909518
55.360 12.299788
55.365 12.047574
55.370 11.809061
55.375 11.383027
55.380 11.123544
55.385 11.259392
55.390 11.030276
55.395 10.650981
55.400 10.599075
55.405 10.306647
55.410 10.730924
55.415 10.703133
55.420 10.111535
55.425 9.904192
55.430 9.82447
55.435 10.273091
55.440 9.784037
55.445 9.15072
55.450 8.889336
55.455 9.724104
55.460 10.170295
55.465 10.120136
55.470 10.181109
55.475 10.510641
55.480 11.246054
55.485 11.475423
55.490 11.036668
55.495 11.091177
55.500 11.301978
55.505 11.501846
55.510 11.470443
55.515 10.89676
55.520 10.728371
55.525 10.55969
55.530 10.446493
55.535 10.913211
55.540 10.875875
55.545 11.528326
55.550 11.990263
55.555 12.315645
55.560 13.165664
55.565 13.045763
55.570 12.680628
55.575 12.393605
55.580 11.766576
55.585 11.849247
55.590 11.776686
55.595 11.375403
55.600 11.344644
55.605 11.806736
55.610 12.104316
55.615 11.835128
55.620 11.574666
55.625 11.738533
55.630 11.921868
55.635 11.790107
55.640 11.223524
55.645 11.415945
55.650 11.87228
55.655 11.701185
55.660 11.533247
55.665 11.930732
55.670 11.918421
55.675 11.496113
55.680 11.169661
55.685 11.055484
55.690 11.036703
55.695 10.553399
55.700 9.951507
55.705 10.041648
55.710 10.606617
55.715 10.828146
55.720 10.833608
55.725 10.591188
55.730 10.769694
55.735 10.649961
55.740 10.651951
55.745 10.247915
55.750 9.93103
55.755 9.829697
55.760 10.194468
55.765 10.517526
55.770 10.907248
55.775 10.655723
55.780 10.621207
55.785 10.790017
55.790 10.702502
55.795 10.386086
55.800 9.991934
55.805 10.307971
55.810 10.273054
55.815 10.253724
55.820 10.080004
55.825 10.245058
55.830 10.490735
55.835 10.829146
55.840 11.028191
55.845 11.216885
55.850 11.964848
55.855 12.284591
55.860 12.317807
55.865 12.295381
55.870 11.846413
55.875 11.733492
55.880 11.693666
55.885 11.115044
55.890 11.107135
55.895 11.018456
55.900 10.976719
55.905 10.745562
55.910 10.800809
55.915 10.991437
55.920 11.64136
55.925 11.891494
55.930 11.866609
55.935 12.009278
55.940 12.649737
55.945 12.76411
55.950 12.605676
55.955 11.785247
55.960 11.683162
55.965 11.68014
55.970 11.711482
55.975 11.47106
55.980 11.327107
55.985 11.426366
55.990 11.747337
55.995 11.572538
56.000 11.393475
56.005 11.448505
56.010 11.768018
56.015 12.078534
56.020 11.832047
56.025 11.580848
56.030 11.736641
56.035 12.122857
56.040 11.933864
56.045 11.173594
56.050 10.587458
56.055 10.832928
56.060 10.782297
56.065 10.689678
56.070 10.100338
56.075 9.713675
56.080 9.897268
56.085 10.783628
56.090 10.343372
56.095 10.279775
56.100 10.253536
56.105 10.549835
56.110 10.630093
56.115 10.543284
56.120 10.41259
56.125 10.727467
56.130 10.561644
56.135 10.40614
56.140 10.693139
56.145 11.397512
56.150 11.558299
56.155 11.65192
56.160 11.425715
56.165 11.794507
56.170 12.210446
56.175 12.13166
56.180 11.536229
56.185 10.972032
56.190 11.012418
56.195 11.382309
56.200 11.607934
56.205 11.40496
56.210 11.435301
56.215 12.017519
56.220 11.880986
56.225 11.857519
56.230 12.266116
56.235 12.662774
56.240 12.739333
56.245 13.11575
56.250 12.846867
56.255 13.160127
56.260 12.880692
56.265 12.544489
56.270 11.974664
56.275 11.759199
56.280 11.737742
56.285 12.306767
56.290 12.66615
56.295 12.692324
56.300 12.28573
56.305 12.857681
56.310 13.213772
56.315 13.015528
56.320 12.672642
56.325 12.819316
56.330 13.211744
56.335 13.730645
56.340 13.633898
56.345 13.408811
56.350 13.434604
56.355 13.367951
56.360 13.282994
56.365 13.148418
56.370 12.762515
56.375 12.375763
56.380 12.316598
56.385 12.1913
56.390 12.503188
56.395 11.880232
56.400 11.926898
56.405 12.108418
56.410 12.222296
56.415 12.211074
56.420 12.183912
56.425 11.931157
56.430 12.069731
56.435 11.576888
56.440 10.91483
56.445 10.860827
56.450 10.790958
56.455 11.015644
56.460 11.102106
56.465 11.468094
56.470 11.744433
56.475 12.026937
56.480 12.354731
56.485 12.401392
56.490 12.42347
56.495 12.45503
56.500 12.29215
56.505 12.201065
56.510 12.220849
56.515 12.236558
56.520 12.533642
56.525 11.803056
56.530 11.36439
56.535 11.797341
56.540 11.774353
56.545 11.078712
56.550 10.705473
56.555 10.390774
56.560 10.758803
56.565 10.64378
56.570 10.09652
56.575 9.943867
56.580 10.257207
56.585 10.146487
56.590 10.558694
56.595 11.224319
56.600 11.77141
56.605 12.050736
56.610 12.447013
56.615 12.526476
56.620 12.585913
56.625 11.97247
56.630 11.621226
56.635 11.115564
56.640 11.257018
56.645 11.628403
56.650 11.851786
56.655 11.733477
56.660 11.990396
56.665 12.10616
56.670 12.004945
56.675 11.709846
56.680 11.270513
56.685 11.424735
56.690 11.915259
56.695 12.194911
56.700 12.215122
56.705 12.787882
56.710 13.115767
56.715 13.605633
56.720 13.439076
56.725 13.614562
56.730 14.049273
56.735 14.16664
56.740 13.611987
56.745 13.494726
56.750 13.665995
56.755 13.856583
56.760 13.5223
56.765 13.144162
56.770 13.003131
56.775 13.511206
56.780 13.770527
56.785 13.426553
56.790 13.179323
56.795 13.076467
56.800 12.703439
56.805 12.968788
56.810 12.914579
56.815 12.687316
56.820 12.713714
56.825 12.386677
56.830 12.315116
56.835 12.716392
56.840 12.946688
56.845 12.997454
56.850 13.133431
56.855 13.452087
56.860 13.843152
56.865 13.607832
56.870 13.561943
56.875 12.899566
56.880 12.585655
56.885 12.445985
56.890 12.016978
56.895 11.962923
56.900 12.005603
56.905 12.071394
56.910 12.317843
56.915 12.160134
56.920 12.288732
56.925 12.403007
56.930 12.611654
56.935 12.874811
56.940 12.753515
56.945 12.897917
56.950 12.619
56.955 12.194208
56.960 11.972775
56.965 11.651007
56.970 11.694171
56.975 12.111209
56.980 12.010813
56.985 11.996066
56.990 12.444794
56.995 12.626844
57.000 12.959475
57.005 12.745973
57.010 12.218032
57.015 12.815938
57.020 12.690735
57.025 12.160295
57.030 11.876223
57.035 11.453937
57.040 11.135493
57.045 10.858291
57.050 10.677037
57.055 10.832697
57.060 11.63025
57.065 11.997663
57.070 12.787948
57.075 13.930096
57.080 14.390326
57.085 14.369435
57.090 14.826988
57.095 14.252782
57.100 13.759887
57.105 12.760991
57.110 12.31464
57.115 12.743692
57.120 13.060504
57.125 13.046516
57.130 13.667878
57.135 14.123169
57.140 14.313293
57.145 13.800335
57.150 13.542448
57.155 13.480207
57.160 13.215706
57.165 12.743134
57.170 12.647778
57.175 12.788695
57.180 12.901222
57.185 12.835185
57.190 12.82273
57.195 13.272443
57.200 13.81706
57.205 13.949244
57.210 13.728758
57.215 13.374334
57.220 12.842212
57.225 12.824865
57.230 12.37233
57.235 12.149649
57.240 11.889751
57.245 11.820581
57.250 12.298489
57.255 12.240188
57.260 12.026412
57.265 11.815933
57.270 12.23914
57.275 12.369301
57.280 12.91299
57.285 13.211761
57.290 13.424882
57.295 13.818546
57.300 14.331974
57.305 14.35329
57.310 14.618549
57.315 14.369677
57.320 13.714414
57.325 14.122156
57.330 14.307347
57.335 14.442182
57.340 14.452067
57.345 14.691483
57.350 14.303002
57.355 14.690061
57.360 14.395724
57.365 14.280413
57.370 14.099339
57.375 13.458722
57.380 13.37896
57.385 14.187233
57.390 14.393016
57.395 14.472493
57.400 14.078816
57.405 13.674766
57.410 13.622204
57.415 13.316523
57.420 13.034272
57.425 13.081023
57.430 13.121655
57.435 12.925671
57.440 13.190286
57.445 13.209057
57.450 12.949944
57.455 12.776862
57.460 12.267587
57.465 12.175874
57.470 11.927799
57.475 12.473343
57.480 13.065746
57.485 13.141413
57.490 13.379831
57.495 13.743933
57.500 14.228355
57.505 14.430772
57.510 13.761651
57.515 13.761338
57.520 14.860006
57.525 15.018436
57.530 14.719611
57.535 14.491608
57.540 14.545319
57.545 14.69028
57.550 14.504167
57.555 13.528273
57.560 13.735259
57.565 13.800857
57.570 13.840181
57.575 13.937215
57.580 13.961231
57.585 13.771018
57.590 13.594743
57.595 13.329469
57.600 13.402982
57.605 13.351809
57.610 13.314563
57.615 13.606443
57.620 13.954431
57.625 14.202679
57.630 14.033746
57.635 13.988468
57.640 13.698303
57.645 13.605186
57.650 13.708271
57.655 13.803295
57.660 13.479675
57.665 13.058682
57.670 13.112659
57.675 13.534051
57.680 13.445329
57.685 13.429136
57.690 13.50535
57.695 14.120567
57.700 14.511514
57.705 14.242011
57.710 14.007995
57.715 14.123375
57.720 13.952238
57.725 13.691459
57.730 13.037942
57.735 12.850242
57.740 13.164069
57.745 13.419688
57.750 13.360161
57.755 13.643118
57.760 13.701581
57.765 13.972208
57.770 14.679151
57.775 14.896344
57.780 15.341587
57.785 15.46188
57.790 15.085727
57.795 14.970845
57.800 15.257361
57.805 15.175704
57.810 15.14541
57.815 14.856758
57.820 14.562647
57.825 14.637175
57.830 14.887
57.835 14.649201
57.840 14.200366
57.845 14.196597
57.850 13.793611
57.855 13.566098
57.860 13.419237
57.865 13.398919
57.870 13.945903
57.875 14.475645
57.880 14.347838
57.885 14.61264
57.890 15.15345
57.895 15.124363
57.900 14.54563
57.905 14.130194
57.910 13.883471
57.915 13.99025
57.920 14.193013
57.925 14.069173
57.930 14.317916
57.935 15.054444
57.940 15.308442
57.945 15.553695
57.950 15.485683
57.955 15.410932
57.960 15.267943
57.965 15.023752
57.970 14.624288
57.975 14.135519
57.980 13.717001
57.985 13.914885
57.990 13.612067
57.995 13.843778
58.000 14.011757
58.005 14.554888
58.010 14.792546
58.015 15.06185
58.020 15.018843
58.025 15.205787
58.030 15.792927
58.035 16.121918
58.040 16.255535
58.045 16.421154
58.050 16.23769
58.055 16.498369
58.060 16.618425
58.065 16.169647
58.070 16.217331
58.075 15.607563
58.080 15.395267
58.085 15.682499
58.090 15.237359
58.095 15.051777
58.100 15.078887
58.105 15.293893
58.110 15.716854
58.115 15.538721
58.120 15.295324
58.125 15.4545
58.130 15.376234
58.135 15.472468
58.140 15.049605
58.145 15.265454
58.150 15.415012
58.155 15.475999
58.160 15.313358
58.165 15.40335
58.170 15.913049
58.175 16.366762
58.180 16.27434
58.185 16.131369
58.190 16.063833
58.195 16.572704
58.200 16.397821
58.205 16.148794
58.210 16.635267
58.215 17.145052
58.220 17.569906
58.225 18.317707
58.230 17.96384
58.235 17.544193
58.240 17.243031
58.245 17.04483
58.250 17.310547
58.255 17.207699
58.260 16.765522
58.265 16.88563
58.270 16.879993
58.275 17.085058
58.280 16.712774
58.285 16.41733
58.290 16.657776
58.295 16.934208
58.300 17.656788
58.305 18.032341
58.310 17.902487
58.315 17.823935
58.320 17.844967
58.325 18.237259
58.330 17.804342
58.335 17.737263
58.340 18.187979
58.345 18.281096
58.350 17.739515
58.355 17.583937
58.360 17.461006
58.365 18.462124
58.370 18.843616
58.375 18.663515
58.380 18.77957
58.385 19.175972
58.390 19.111494
58.395 18.715302
58.400 18.738253
58.405 19.435019
58.410 19.66082
58.415 20.265699
58.420 21.775122
58.425 22.912933
58.430 23.871325
58.435 23.684145
58.440 23.047958
58.445 23.753294
58.450 24.079706
58.455 24.194654
58.460 24.240854
58.465 24.301722
58.470 24.973898
58.475 25.254763
58.480 24.693281
58.485 24.568707
58.490 24.445112
58.495 24.947485
58.500 25.361065
58.505 25.916414
58.510 26.583635
58.515 27.231628
58.520 28.184658
58.525 28.625444
58.530 28.36289
