!@!!GADDS PLOTSO FILE: Chi integration type
!@!!Title/SampleName: map-35
!@!!Comment: ?
!@!!User: Bruker Instrument Administrator
!@!!Site: University of Illinois Chicago
!@!!Frame: map-35_01_000.gfrm
!@!!Wavelengths    1.54184   1.54056   1.54439
!@!!Frame angles: 2Theta: 63.000 Omega: 50.000 Phi: 0.000 Chi: 90.000
!@!!Integration range: 2Theta: 53.000 to 73.000  Gamma: -105.000 to -75.000
!@!!Integration method: bin normalized
!@!N
!@!SS
!@!M
!@!L 0.0 0.0 0.0 0.0
!@!XDegrees
!@!YCounts
53.000 7.756298
53.005 7.779622
53.010 8.033394
53.015 7.757944
53.020 7.663403
53.025 7.35546
53.030 7.422966
53.035 7.66005
53.040 7.72249
53.045 7.569614
53.050 7.434157
53.055 7.42125
53.060 7.810113
53.065 7.818651
53.070 7.868351
53.075 7.944706
53.080 8.374813
53.085 8.319871
53.090 8.444528
53.095 8.690458
53.100 8.894372
53.105 9.12068
53.110 9.192061
53.115 9.611499
53.120 9.700203
53.125 9.213663
53.130 9.004097
53.135 8.69427
53.140 8.253644
53.145 7.859456
53.150 7.333943
53.155 7.582845
53.160 7.799047
53.165 8.150341
53.170 8.20991
53.175 8.40898
53.180 8.42717
53.185 8.299844
53.190 8.188382
53.195 8.066479
53.200 7.709134
53.205 7.542795
53.210 7.861496
53.215 8.489512
53.220 8.36403
53.225 8.296897
53.230 8.276452
53.235 8.277904
53.240 8.492987
53.245 7.844847
53.250 7.657879
53.255 7.832105
53.260 7.401688
53.265 7.59971
53.270 7.701917
53.275 7.962872
53.280 8.016164
53.285 7.973384
53.290 8.174401
53.295 8.685068
53.300 8.636905
53.305 8.665028
53.310 8.895651
53.315 9.095425
53.320 9.344825
53.325 9.027207
53.330 8.794949
53.335 8.922693
53.340 8.935371
53.345 8.370241
53.350 8.394892
53.355 8.250271
53.360 8.432527
53.365 8.222741
53.370 8.116659
53.375 8.0182
53.380 8.205694
53.385 8.24958
53.390 8.390288
53.395 8.456373
53.400 8.463286
53.405 8.293236
53.410 8.383036
53.415 8.335463
53.420 8.382291
53.425 8.264625
53.430 8.457186
53.435 8.766672
53.440 8.996524
53.445 9.002746
53.450 8.966809
53.455 8.819618
53.460 8.749277
53.465 8.30512
53.470 8.028219
53.475 8.163882
53.480 8.39426
53.485 8.214804
53.490 8.288037
53.495 8.711864
53.500 9.184196
53.505 9.417813
53.510 9.284903
53.515 9.183165
53.520 9.530842
53.525 9.614821
53.530 9.273912
53.535 8.670426
53.540 8.210258
53.545 8.101818
53.550 8.264856
53.555 8.337441
53.560 8.390981
53.565 8.502776
53.570 8.892076
53.575 9.185615
53.580 9.093289
53.585 9.330762
53.590 9.493313
53.595 9.81057
53.600 9.682537
53.605 9.936395
53.610 9.566971
53.615 9.290348
53.620 8.879579
53.625 8.543732
53.630 8.422088
53.635 8.157523
53.640 8.397612
53.645 8.84943
53.650 8.895852
53.655 9.097979
53.660 8.996325
53.665 9.004045
53.670 8.875237
53.675 8.452272
53.680 8.349845
53.685 8.128811
53.690 8.228367
53.695 8.480038
53.700 8.091375
53.705 8.214533
53.710 8.071764
53.715 8.007888
53.720 7.926963
53.725 7.668918
53.730 8.017384
53.735 8.572254
53.740 8.285987
53.745 8.536482
53.750 8.850648
53.755 8.948893
53.760 8.897857
53.765 8.68428
53.770 8.569022
53.775 8.579335
53.780 8.607318
53.785 8.268337
53.790 8.304266
53.795 8.570334
53.800 9.070511
53.805 9.849184
53.810 9.79896
53.815 9.711491
53.820 9.815414
53.825 9.383525
53.830 9.133835
53.835 8.591384
53.840 8.498791
53.845 9.154075
53.850 9.64752
53.855 10.1812
53.860 10.198124
53.865 10.239022
53.870 10.365341
53.875 9.812722
53.880 9.346732
53.885 8.961651
53.890 9.049784
53.895 9.332963
53.900 9.090714
53.905 9.143273
53.910 9.327437
53.915 8.985909
53.920 8.852452
53.925 8.807125
53.930 8.729318
53.935 8.785465
53.940 8.491277
53.945 9.074953
53.950 9.409917
53.955 9.710993
53.960 9.631975
53.965 9.225456
53.970 9.155475
53.975 9.04037
53.980 8.694942
53.985 8.573341
53.990 8.020533
53.995 8.186657
54.000 8.772198
54.005 8.964399
54.010 9.359412
54.015 9.513064
54.020 9.761201
54.025 9.805892
54.030 9.480727
54.035 9.119794
54.040 9.020179
54.045 9.054846
54.050 8.798911
54.055 8.517347
54.060 8.350026
54.065 8.607301
54.070 9.050056
54.075 8.835693
54.080 9.022076
54.085 9.572851
54.090 10.153783
54.095 10.792616
54.100 10.858046
54.105 10.949667
54.110 11.426135
54.115 11.156138
54.120 10.683688
54.125 10.221089
54.130 10.000662
54.135 9.634312
54.140 9.303901
54.145 9.200586
54.150 9.368849
54.155 9.308324
54.160 9.45259
54.165 9.702096
54.170 9.716846
54.175 9.620843
54.180 8.876039
54.185 8.544485
54.190 9.045974
54.195 8.920081
54.200 8.81394
54.205 9.054508
54.210 9.301301
54.215 9.416079
54.220 9.501598
54.225 9.322412
54.230 9.374297
54.235 9.377085
54.240 9.232558
54.245 9.390356
54.250 9.650173
54.255 9.357132
54.260 9.700177
54.265 10.114865
54.270 9.995957
54.275 10.071528
54.280 10.230929
54.285 10.258634
54.290 10.363477
54.295 9.734634
54.300 9.760242
54.305 10.501614
54.310 10.780348
54.315 11.007075
54.320 11.328134
54.325 11.342137
54.330 11.534025
54.335 11.561028
54.340 11.266244
54.345 11.034977
54.350 10.475847
54.355 10.255798
54.360 10.261202
54.365 9.897334
54.370 9.669457
54.375 9.270512
54.380 9.132547
54.385 9.593419
54.390 9.608479
54.395 9.489633
54.400 9.217362
54.405 8.77648
54.410 8.542627
54.415 8.479135
54.420 8.420158
54.425 8.583594
54.430 8.710309
54.435 9.104578
54.440 9.67384
54.445 9.982302
54.450 9.989891
54.455 9.87661
54.460 10.094703
54.465 10.498159
54.470 10.351823
54.475 10.383234
54.480 10.618716
54.485 10.84433
54.490 11.05697
54.495 11.016668
54.500 10.812079
54.505 11.006088
54.510 10.644052
54.515 10.43146
54.520 10.420581
54.525 10.541216
54.530 10.589385
54.535 10.812033
54.540 10.892065
54.545 10.483425
54.550 10.251276
54.555 9.969843
54.560 9.832768
54.565 10.091077
54.570 9.94723
54.575 10.067084
54.580 9.961639
54.585 10.21208
54.590 10.173192
54.595 9.726772
54.600 9.161263
54.605 8.91038
54.610 9.232284
54.615 9.70322
54.620 9.891113
54.625 9.732165
54.630 9.966286
54.635 10.01147
54.640 9.843806
54.645 9.690812
54.650 9.537053
54.655 9.346062
54.660 9.814389
54.665 10.264011
54.670 10.73656
54.675 11.170321
54.680 11.481466
54.685 11.565099
54.690 11.461409
54.695 11.099588
54.700 10.521382
54.705 10.226422
54.710 10.223346
54.715 9.434056
54.720 9.334496
54.725 9.436884
54.730 9.496332
54.735 9.394729
54.740 9.196704
54.745 9.165682
54.750 9.776229
54.755 9.846202
54.760 10.019691
54.765 10.263933
54.770 10.681584
54.775 10.667315
54.780 10.603292
54.785 10.533653
54.790 10.483658
54.795 10.386823
54.800 10.271544
54.805 10.268389
54.810 9.89784
54.815 9.825865
54.820 10.0401
54.825 9.856436
54.830 9.923696
54.835 9.93674
54.840 9.839165
54.845 10.274614
54.850 10.084619
54.855 9.630901
54.860 9.808607
54.865 9.779364
54.870 9.767404
54.875 10.017313
54.880 10.397852
54.885 10.970442
54.890 11.290488
54.895 11.310454
54.900 11.291709
54.905 11.306406
54.910 11.170238
54.915 11.336367
54.920 11.118103
54.925 10.478169
54.930 9.930949
54.935 10.050229
54.940 9.694865
54.945 9.475517
54.950 9.09972
54.955 9.189072
54.960 9.654912
54.965 9.667035
54.970 9.345378
54.975 9.827851
54.980 10.158672
54.985 10.306914
54.990 10.532541
54.995 10.812332
55.000 10.981021
55.005 11.05058
55.010 10.58801
55.015 10.351685
55.020 10.042207
55.025 9.84496
55.030 9.774236
55.035 9.473271
55.040 9.327769
55.045 9.586119
55.050 9.81161
55.055 9.720078
55.060 9.748609
55.065 9.845726
55.070 10.194695
55.075 9.955997
55.080 10.230456
55.085 10.34274
55.090 10.468379
55.095 10.668803
55.100 10.583398
55.105 10.606131
55.110 10.985066
55.115 10.284725
55.120 10.223665
55.125 10.186458
55.130 10.051821
55.135 9.889191
55.140 9.814852
55.145 10.172851
55.150 10.552452
55.155 10.151011
55.160 10.178125
55.165 10.142718
55.170 10.409984
55.175 10.0994
55.180 9.701003
55.185 9.217875
55.190 9.254916
55.195 9.491083
55.200 9.505226
55.205 9.802593
55.210 9.89255
55.215 10.608637
55.220 11.356194
55.225 11.145674
55.230 10.303152
55.235 9.986231
55.240 9.84246
55.245 9.746184
55.250 9.219367
55.255 9.066848
55.260 9.627074
55.265 10.421041
55.270 11.022916
55.275 11.131175
55.280 11.195307
55.285 11.296271
55.290 10.637073
55.295 10.304036
55.300 10.145659
55.305 9.941759
55.310 9.847973
55.315 9.807783
55.320 9.932567
55.325 10.413733
55.330 10.511162
55.335 9.970998
55.340 9.579334
55.345 9.493732
55.350 9.468059
55.355 9.682674
55.360 9.739578
55.365 9.773517
55.370 10.335819
55.375 10.57689
55.380 10.953067
55.385 10.934345
55.390 10.684367
55.395 10.664905
55.400 10.204082
55.405 9.907784
55.410 10.060956
55.415 10.478387
55.420 10.716387
55.425 11.2054
55.430 11.081751
55.435 11.70451
55.440 11.958035
55.445 12.008608
55.450 11.175698
55.455 11.019183
55.460 10.905658
55.465 11.125964
55.470 11.082896
55.475 10.866373
55.480 10.705084
55.485 11.421167
55.490 11.263257
55.495 11.053295
55.500 11.336007
55.505 11.216192
55.510 11.499015
55.515 11.232002
55.520 10.545728
55.525 10.707129
55.530 10.746844
55.535 10.541959
55.540 10.505399
55.545 10.134176
55.550 10.348628
55.555 10.840792
55.560 10.700572
55.565 10.645281
55.570 10.931632
55.575 11.284881
55.580 11.397915
55.585 11.76825
55.590 12.201833
55.595 12.146458
55.600 12.112136
55.605 11.338756
55.610 10.959225
55.615 10.490648
55.620 10.038975
55.625 9.199536
55.630 9.200136
55.635 9.054952
55.640 9.39371
55.645 9.732263
55.650 10.025004
55.655 10.379072
55.660 10.66427
55.665 10.76558
55.670 11.346997
55.675 11.57097
55.680 11.93343
55.685 11.866735
55.690 12.153506
55.695 12.78613
55.700 12.828419
55.705 12.631372
55.710 12.505692
55.715 12.449532
55.720 11.907542
55.725 11.331185
55.730 10.799608
55.735 10.071822
55.740 9.716026
55.745 9.324609
55.750 9.515469
55.755 9.816561
55.760 9.886988
55.765 10.044759
55.770 10.125939
55.775 10.107237
55.780 10.128241
55.785 10.058918
55.790 10.077062
55.795 10.242275
55.800 10.060627
55.805 10.160646
55.810 10.180358
55.815 10.435521
55.820 10.476491
55.825 10.738611
55.830 10.816325
55.835 10.930599
55.840 11.634809
55.845 11.893996
55.850 12.249089
55.855 12.498111
55.860 12.044633
55.865 12.13405
55.870 12.594593
55.875 12.65252
55.880 12.832954
55.885 12.672895
55.890 12.218791
55.895 12.312797
55.900 12.398393
55.905 12.258359
55.910 12.26909
55.915 11.956851
55.920 12.2532
55.925 12.853504
55.930 13.197238
55.935 13.204562
55.940 13.190729
55.945 13.230922
55.950 13.437729
55.955 13.501108
55.960 13.420194
55.965 13.305299
55.970 13.187155
55.975 13.059123
55.980 12.430367
55.985 11.865083
55.990 11.193216
55.995 10.869255
56.000 10.847368
56.005 10.534353
56.010 10.493184
56.015 10.731906
56.020 10.967678
56.025 11.044685
56.030 10.900044
56.035 10.900037
56.040 11.083573
56.045 11.190876
56.050 10.955894
56.055 11.09891
56.060 11.323185
56.065 11.415545
56.070 11.393515
56.075 11.724861
56.080 11.487866
56.085 11.368
56.090 11.275748
56.095 11.206381
56.100 11.078386
56.105 10.861497
56.110 10.466063
56.115 11.108628
56.120 11.513118
56.125 11.513475
56.130 11.715243
56.135 12.335018
56.140 12.855325
56.145 13.060462
56.150 13.053274
56.155 12.746545
56.160 12.485274
56.165 12.144018
56.170 11.759164
56.175 11.229689
56.180 11.204198
56.185 11.314821
56.190 11.635747
56.195 12.350651
56.200 12.518349
56.205 12.67519
56.210 12.48493
56.215 12.036619
56.220 11.827003
56.225 12.018585
56.230 12.472589
56.235 12.918192
56.240 12.883036
56.245 13.434785
56.250 13.340816
56.255 13.479255
56.260 13.50821
56.265 12.888674
56.270 12.566973
56.275 12.116357
56.280 12.196345
56.285 12.581414
56.290 12.745994
56.295 12.856335
56.300 12.574671
56.305 12.683801
56.310 12.917509
56.315 12.49544
56.320 11.886323
56.325 11.470318
56.330 10.675517
56.335 10.607646
56.340 10.696523
56.345 10.920172
56.350 11.089578
56.355 11.735909
56.360 11.852456
56.365 12.116749
56.370 12.466899
56.375 11.561558
56.380 11.578768
56.385 11.732299
56.390 11.30669
56.395 11.412374
56.400 11.35481
56.405 10.962974
56.410 11.499976
56.415 11.631593
56.420 11.285129
56.425 11.463991
56.430 11.647421
56.435 11.695045
56.440 11.524142
56.445 11.539751
56.450 11.323284
56.455 11.940313
56.460 11.611669
56.465 11.278272
56.470 11.209448
56.475 11.501571
56.480 11.76671
56.485 12.251513
56.490 12.136982
56.495 12.071229
56.500 12.076704
56.505 12.08277
56.510 12.057233
56.515 11.779657
56.520 11.692691
56.525 11.550686
56.530 11.442258
56.535 11.093811
56.540 11.165009
56.545 11.097991
56.550 10.638026
56.555 10.218521
56.560 10.108074
56.565 9.902757
56.570 9.863902
56.575 9.842172
56.580 10.27681
56.585 10.417676
56.590 10.672041
56.595 11.473711
56.600 11.654983
56.605 11.84092
56.610 11.75869
56.615 11.953094
56.620 12.31091
56.625 12.279952
56.630 12.171719
56.635 12.726541
56.640 12.74412
56.645 12.729911
56.650 12.499475
56.655 12.423166
56.660 12.186661
56.665 11.863726
56.670 12.022483
56.675 12.14476
56.680 12.136515
56.685 12.07581
56.690 12.027642
56.695 12.510382
56.700 12.484351
56.705 11.988016
56.710 12.095283
56.715 12.184206
56.720 12.423665
56.725 12.723763
56.730 12.458775
56.735 13.219368
56.740 13.678164
56.745 14.128917
56.750 14.111986
56.755 14.060083
56.760 13.867403
56.765 13.10742
56.770 12.272599
56.775 12.121275
56.780 11.920302
56.785 12.202147
56.790 11.60848
56.795 11.993119
56.800 12.94149
56.805 13.56205
56.810 14.045795
56.815 14.198644
56.820 14.307017
56.825 14.739075
56.830 14.677361
56.835 13.997551
56.840 13.81686
56.845 13.269861
56.850 12.790955
56.855 12.530224
56.860 12.341968
56.865 12.463635
56.870 13.400983
56.875 13.083199
56.880 13.020993
56.885 13.33325
56.890 13.385477
56.895 13.245675
56.900 12.90143
56.905 12.546215
56.910 12.618418
56.915 12.455979
56.920 12.14327
56.925 11.975204
56.930 12.197536
56.935 11.989497
56.940 11.700387
56.945 12.034332
56.950 12.633634
56.955 12.824123
56.960 13.277932
56.965 13.047504
56.970 13.393833
56.975 14.094483
56.980 13.839491
56.985 13.41827
56.990 13.182201
56.995 13.111628
57.000 13.142159
57.005 13.586954
57.010 13.57268
57.015 13.56223
57.020 13.775351
57.025 14.216499
57.030 14.027464
57.035 13.74481
57.040 12.789241
57.045 12.266459
57.050 12.657311
57.055 12.548105
57.060 12.286727
57.065 12.730485
57.070 13.321797
57.075 13.684094
57.080 13.818326
57.085 13.46752
57.090 13.49769
57.095 13.266773
57.100 12.9531
57.105 12.933299
57.110 12.486333
57.115 12.165991
57.120 11.804971
57.125 11.932028
57.130 11.876469
57.135 11.480186
57.140 11.496593
57.145 11.856552
57.150 12.684057
57.155 12.826994
57.160 13.248715
57.165 13.808133
57.170 13.503902
57.175 13.523198
57.180 13.309255
57.185 12.971703
57.190 13.371756
57.195 13.221855
57.200 13.232531
57.205 13.621593
57.210 13.78581
57.215 13.898151
57.220 13.969708
57.225 13.629056
57.230 13.057076
57.235 12.732668
57.240 12.355375
57.245 12.260832
57.250 12.403305
57.255 12.354067
57.260 12.528211
57.265 12.686148
57.270 13.282322
57.275 13.849652
57.280 13.45729
57.285 13.373965
57.290 13.37412
57.295 13.19762
57.300 13.417542
57.305 12.948874
57.310 12.501144
57.315 13.361389
57.320 13.34236
57.325 13.615825
57.330 13.976335
57.335 14.308578
57.340 14.951457
57.345 15.326488
57.350 15.001207
57.355 15.110087
57.360 14.856066
57.365 14.73823
57.370 14.699852
57.375 14.219951
57.380 13.667766
57.385 13.63751
57.390 13.47319
57.395 13.538001
57.400 13.034193
57.405 13.253982
57.410 13.539119
57.415 13.841438
57.420 13.561367
57.425 13.171731
57.430 13.030652
57.435 13.087298
57.440 12.938839
57.445 12.930737
57.450 12.807473
57.455 13.161734
57.460 13.643352
57.465 13.806892
57.470 13.754177
57.475 13.495042
57.480 13.278019
57.485 13.487831
57.490 13.595949
57.495 13.53664
57.500 13.55984
57.505 13.483697
57.510 13.349766
57.515 13.553237
57.520 13.307341
57.525 13.209579
57.530 13.424311
57.535 13.337346
57.540 13.663899
57.545 14.138804
57.550 14.083597
57.555 14.437664
57.560 14.850824
57.565 14.81064
57.570 14.332745
57.575 14.258358
57.580 13.77397
57.585 13.563843
57.590 13.31449
57.595 12.818915
57.600 12.758647
57.605 12.693366
57.610 12.794574
57.615 12.698118
57.620 13.068684
57.625 13.327645
57.630 13.425984
57.635 13.409054
57.640 13.576819
57.645 13.482393
57.650 13.87989
57.655 13.922132
57.660 13.943385
57.665 14.344533
57.670 14.270538
57.675 14.251804
57.680 14.063786
57.685 14.211364
57.690 13.948892
57.695 13.569554
57.700 12.794502
57.705 12.969172
57.710 13.194155
57.715 13.114985
57.720 12.84696
57.725 13.068198
57.730 13.184048
57.735 13.569581
57.740 13.598929
57.745 13.504872
57.750 13.561511
57.755 13.289045
57.760 13.593712
57.765 13.83518
57.770 13.791585
57.775 13.90541
57.780 13.870642
57.785 13.717814
57.790 13.542724
57.795 13.506831
57.800 13.782227
57.805 14.018575
57.810 13.765597
57.815 13.989805
57.820 14.413041
57.825 14.970471
57.830 14.180408
57.835 13.959526
57.840 13.670313
57.845 13.779555
57.850 13.894553
57.855 13.523882
57.860 13.365797
57.865 13.814235
57.870 13.518071
57.875 13.466241
57.880 13.661633
57.885 13.346171
57.890 13.829144
57.895 13.677011
57.900 13.89475
57.905 13.904625
57.910 13.438014
57.915 13.697392
57.920 13.646945
57.925 13.529477
57.930 13.691937
57.935 13.104817
57.940 13.412285
57.945 13.437471
57.950 13.133756
57.955 13.022132
57.960 12.974442
57.965 12.851431
57.970 13.211978
57.975 12.894929
57.980 13.068985
57.985 13.273376
57.990 13.425338
57.995 13.933157
58.000 14.464281
58.005 14.979107
58.010 15.396976
58.015 15.669666
58.020 15.672807
58.025 15.557035
58.030 15.086223
58.035 14.600649
58.040 14.202104
58.045 14.004127
58.050 13.56703
58.055 13.469407
58.060 13.214146
58.065 12.738767
58.070 12.689066
58.075 12.880133
58.080 13.37606
58.085 13.355691
58.090 13.380373
58.095 13.848119
58.100 14.155331
58.105 14.399399
58.110 14.467871
58.115 14.026793
58.120 13.873521
58.125 13.787407
58.130 13.726166
58.135 14.05706
58.140 13.895542
58.145 13.517515
58.150 13.590501
58.155 14.205086
58.160 14.616854
58.165 14.51908
58.170 14.322249
58.175 14.591674
58.180 14.809184
58.185 14.645324
58.190 14.397656
58.195 14.435753
58.200 14.423562
58.205 14.190025
58.210 13.819633
58.215 13.910959
58.220 14.263286
58.225 13.976987
58.230 13.447517
58.235 14.047113
58.240 14.407359
58.245 14.901906
58.250 15.450871
58.255 15.998808
58.260 15.979667
58.265 15.827359
58.270 15.19532
58.275 15.375052
58.280 14.827988
58.285 14.105031
58.290 13.350862
58.295 13.848522
58.300 14.243568
58.305 14.702093
58.310 14.678491
58.315 14.553085
58.320 14.316291
58.325 14.333451
58.330 14.072822
58.335 14.226281
58.340 13.81431
58.345 13.786621
58.350 14.026873
58.355 14.381741
58.360 14.475842
58.365 14.491752
58.370 14.194518
58.375 13.469352
58.380 13.166431
58.385 13.120729
58.390 13.63979
58.395 14.142818
58.400 14.421446
58.405 14.856009
58.410 15.626275
58.415 15.873063
58.420 16.27689
58.425 15.706792
58.430 15.386521
58.435 14.860442
58.440 14.607153
58.445 14.447467
58.450 14.097644
58.455 13.782526
58.460 13.898911
58.465 13.873684
58.470 14.020337
58.475 13.750956
58.480 13.773685
58.485 14.528001
58.490 14.824022
58.495 14.590496
58.500 15.075037
58.505 15.29032
58.510 15.527673
58.515 15.903703
58.520 15.293406
58.525 15.238394
58.530 15.456471
58.535 15.676004
58.540 15.875447
