!@!!GADDS PLOTSO FILE: Chi integration type
!@!!Title/SampleName: map-18a
!@!!Comment: ?
!@!!User: Bruker Instrument Administrator
!@!!Site: University of Illinois Chicago
!@!!Frame: map-18a_01_000.gfrm
!@!!Wavelengths    1.54184   1.54056   1.54439
!@!!Frame angles: 2Theta: 63.000 Omega: 50.000 Phi: 0.000 Chi: 90.000
!@!!Integration range: 2Theta: 53.000 to 73.000  Gamma: -105.000 to -75.000
!@!!Integration method: bin normalized
!@!N
!@!SS
!@!M
!@!L 0.0 0.0 0.0 0.0
!@!XDegrees
!@!YCounts
53.000 9.153332
53.005 9.026409
53.010 9.035624
53.015 9.283644
53.020 8.968462
53.025 8.702298
53.030 8.974143
53.035 9.422491
53.040 9.445994
53.045 9.372444
53.050 9.562033
53.055 9.617894
53.060 9.916698
53.065 9.642977
53.070 8.978826
53.075 8.780611
53.080 8.747292
53.085 8.750969
53.090 8.963399
53.095 9.195394
53.100 9.08623
53.105 9.330307
53.110 9.652941
53.115 9.978459
53.120 9.787207
53.125 9.2177
53.130 9.102874
53.135 9.123359
53.140 9.629103
53.145 9.814021
53.150 9.543443
53.155 9.70543
53.160 10.443356
53.165 10.732139
53.170 10.835958
53.175 9.854292
53.180 9.503358
53.185 9.945165
53.190 9.983744
53.195 9.257036
53.200 9.056416
53.205 9.231407
53.210 9.295637
53.215 8.975098
53.220 8.479617
53.225 8.587311
53.230 8.825099
53.235 8.882473
53.240 8.915595
53.245 9.503544
53.250 9.880243
53.255 10.169091
53.260 9.715195
53.265 9.673937
53.270 9.749259
53.275 9.642374
53.280 9.169123
53.285 8.866574
53.290 8.305332
53.295 8.531958
53.300 8.805594
53.305 8.68578
53.310 8.492537
53.315 8.799212
53.320 8.927592
53.325 9.132728
53.330 9.183378
53.335 8.947637
53.340 9.091652
53.345 9.205326
53.350 9.194589
53.355 9.454556
53.360 9.763835
53.365 9.851121
53.370 10.206589
53.375 10.038712
53.380 9.714729
53.385 9.980618
53.390 9.803728
53.395 9.534628
53.400 9.06339
53.405 8.663915
53.410 9.005389
53.415 9.245483
53.420 9.220359
53.425 9.775118
53.430 9.886134
53.435 9.956456
53.440 10.055522
53.445 9.815691
53.450 9.432214
53.455 8.906899
53.460 8.378689
53.465 8.554672
53.470 8.918864
53.475 9.189667
53.480 9.144415
53.485 9.064353
53.490 9.247
53.495 9.527515
53.500 9.657839
53.505 9.575603
53.510 9.103365
53.515 9.170193
53.520 9.555277
53.525 9.439633
53.530 9.108386
53.535 8.807441
53.540 8.724105
53.545 8.850754
53.550 8.79528
53.555 8.793595
53.560 8.720153
53.565 8.782458
53.570 8.641716
53.575 8.181742
53.580 8.349795
53.585 8.146316
53.590 7.894411
53.595 7.92194
53.600 7.61274
53.605 8.034771
53.610 8.647963
53.615 8.618103
53.620 9.198431
53.625 10.053595
53.630 10.233027
53.635 10.329778
53.640 10.924726
53.645 11.296591
53.650 11.444191
53.655 11.129708
53.660 10.993845
53.665 10.951449
53.670 10.550363
53.675 9.566485
53.680 9.143613
53.685 9.169793
53.690 9.161397
53.695 8.905967
53.700 9.113665
53.705 9.609274
53.710 9.664619
53.715 9.761866
53.720 9.60356
53.725 9.62117
53.730 9.587273
53.735 9.484851
53.740 9.560422
53.745 9.896651
53.750 10.164836
53.755 10.20137
53.760 10.045953
53.765 10.493135
53.770 10.81457
53.775 10.851404
53.780 10.727173
53.785 10.391885
53.790 10.12412
53.795 10.303888
53.800 9.977201
53.805 9.476791
53.810 9.459902
53.815 9.621644
53.820 9.746831
53.825 9.729465
53.830 9.36328
53.835 9.293252
53.840 9.155797
53.845 8.449619
53.850 8.533813
53.855 8.838904
53.860 9.345903
53.865 9.916924
53.870 10.06752
53.875 10.806921
53.880 11.095081
53.885 10.734424
53.890 10.674086
53.895 10.169159
53.900 9.84672
53.905 9.648654
53.910 9.107332
53.915 9.760401
53.920 10.014487
53.925 9.981584
53.930 10.026777
53.935 10.058266
53.940 10.282403
53.945 10.458861
53.950 10.124333
53.955 9.751021
53.960 9.646083
53.965 9.730536
53.970 9.966426
53.975 10.103301
53.980 9.828963
53.985 9.863234
53.990 10.184078
53.995 9.946117
54.000 10.364168
54.005 10.426291
54.010 10.783315
54.015 11.169097
54.020 11.279745
54.025 11.636222
54.030 11.853678
54.035 11.737066
54.040 11.740395
54.045 11.74669
54.050 11.990488
54.055 11.710998
54.060 11.45851
54.065 11.091377
54.070 10.513622
54.075 10.341657
54.080 9.730668
54.085 9.76917
54.090 9.964189
54.095 9.731569
54.100 9.784552
54.105 9.965466
54.110 10.211024
54.115 10.089511
54.120 9.722589
54.125 9.54298
54.130 9.799827
54.135 9.874486
54.140 9.619788
54.145 9.390243
54.150 9.802909
54.155 10.073606
54.160 9.852346
54.165 9.911757
54.170 9.780728
54.175 9.738595
54.180 9.715103
54.185 9.854593
54.190 9.977349
54.195 10.241129
54.200 10.647876
54.205 10.960238
54.210 11.048625
54.215 10.894894
54.220 10.451946
54.225 10.763846
54.230 10.582847
54.235 10.521229
54.240 10.752911
54.245 10.548561
54.250 10.300274
54.255 10.344578
54.260 10.345266
54.265 10.126653
54.270 9.832865
54.275 9.470398
54.280 9.495903
54.285 9.906632
54.290 9.953877
54.295 9.447229
54.300 9.856521
54.305 10.130416
54.310 10.154585
54.315 10.160813
54.320 9.844512
54.325 9.542734
54.330 9.816363
54.335 9.667984
54.340 9.955072
54.345 10.195871
54.350 9.882179
54.355 9.748108
54.360 10.030951
54.365 9.657648
54.370 8.897969
54.375 8.769269
54.380 8.987747
54.385 9.183426
54.390 9.255233
54.395 9.508506
54.400 10.103395
54.405 10.088679
54.410 9.677445
54.415 9.639231
54.420 9.366973
54.425 9.608046
54.430 9.586228
54.435 9.731863
54.440 10.255135
54.445 10.361197
54.450 10.51777
54.455 10.554171
54.460 10.222386
54.465 10.159782
54.470 10.360678
54.475 10.339293
54.480 10.091722
54.485 9.926151
54.490 10.498297
54.495 10.40755
54.500 10.259523
54.505 10.302466
54.510 10.045798
54.515 10.430998
54.520 10.094716
54.525 10.243506
54.530 10.531457
54.535 10.254043
54.540 9.970724
54.545 10.179606
54.550 10.294439
54.555 10.560792
54.560 10.024621
54.565 9.939708
54.570 10.23551
54.575 10.320454
54.580 10.191424
54.585 9.893203
54.590 9.878895
54.595 10.422304
54.600 10.100974
54.605 10.336536
54.610 10.120815
54.615 10.152375
54.620 10.674836
54.625 10.650578
54.630 10.224285
54.635 10.191766
54.640 9.856601
54.645 10.584852
54.650 10.767683
54.655 10.310284
54.660 10.617207
54.665 10.543159
54.670 10.723937
54.675 10.315547
54.680 9.6101
54.685 9.777598
54.690 9.602221
54.695 9.474617
54.700 9.670984
54.705 9.633611
54.710 10.074643
54.715 10.216044
54.720 9.915363
54.725 10.066009
54.730 10.071499
54.735 10.113791
54.740 9.975492
54.745 9.791626
54.750 9.486507
54.755 9.456896
54.760 9.24537
54.765 9.585504
54.770 9.323735
54.775 9.186543
54.780 9.36809
54.785 9.721889
54.790 9.822725
54.795 9.979304
54.800 9.683152
54.805 10.145249
54.810 10.19694
54.815 10.372908
54.820 10.4391
54.825 10.43984
54.830 10.153856
54.835 10.33549
54.840 10.527308
54.845 10.399623
54.850 10.261155
54.855 10.110669
54.860 10.550575
54.865 11.215698
54.870 11.026042
54.875 10.992028
54.880 11.460428
54.885 11.828357
54.890 11.881925
54.895 11.410998
54.900 11.194597
54.905 11.174185
54.910 11.030126
54.915 10.638397
54.920 10.102099
54.925 10.236691
54.930 10.3284
54.935 10.1571
54.940 10.36764
54.945 10.395464
54.950 10.78543
54.955 11.115345
54.960 10.606505
54.965 10.611048
54.970 10.697687
54.975 10.828415
54.980 10.852284
54.985 10.776658
54.990 10.833515
54.995 11.075605
55.000 11.039498
55.005 10.789423
55.010 10.515597
55.015 10.749788
55.020 10.658264
55.025 10.450576
55.030 10.315255
55.035 10.123802
55.040 9.922765
55.045 9.959179
55.050 9.923524
55.055 9.89287
55.060 10.004939
55.065 9.76145
55.070 10.269067
55.075 10.457411
55.080 10.756955
55.085 11.138777
55.090 11.436488
55.095 11.58415
55.100 11.648026
55.105 11.186973
55.110 11.038796
55.115 10.738623
55.120 10.100357
55.125 9.602035
55.130 9.273688
55.135 9.655982
55.140 9.972272
55.145 9.850416
55.150 10.23659
55.155 10.500767
55.160 11.083574
55.165 11.095463
55.170 10.752268
55.175 10.74582
55.180 10.526268
55.185 10.53041
55.190 10.820867
55.195 10.702146
55.200 10.961472
55.205 10.765595
55.210 10.733935
55.215 10.7277
55.220 10.286077
55.225 10.022008
55.230 9.860085
55.235 9.957701
55.240 10.122165
55.245 10.385391
55.250 10.397349
55.255 9.925406
55.260 9.741546
55.265 10.045254
55.270 10.28223
55.275 9.952988
55.280 9.824097
55.285 10.172714
55.290 10.247737
55.295 10.404311
55.300 9.873134
55.305 9.845744
55.310 10.129264
55.315 10.286743
55.320 10.097636
55.325 10.33145
55.330 10.073065
55.335 10.253365
55.340 9.992109
55.345 9.735141
55.350 9.852948
55.355 9.789306
55.360 9.899863
55.365 10.501536
55.370 10.375366
55.375 10.211811
55.380 10.374043
55.385 9.941566
55.390 10.007803
55.395 9.851036
55.400 9.664543
55.405 9.666255
55.410 10.055164
55.415 9.689406
55.420 9.866885
55.425 10.297996
55.430 10.94747
55.435 11.145962
55.440 11.468806
55.445 11.407073
55.450 11.411967
55.455 11.142736
55.460 10.863331
55.465 10.260485
55.470 10.184047
55.475 10.117667
55.480 10.04518
55.485 9.901065
55.490 9.839156
55.495 9.738541
55.500 9.645087
55.505 9.631325
55.510 9.689642
55.515 9.85399
55.520 9.768169
55.525 9.577414
55.530 9.179989
55.535 9.130749
55.540 8.882408
55.545 8.800189
55.550 9.083657
55.555 9.412687
55.560 9.102567
55.565 9.141194
55.570 9.120355
55.575 9.193386
55.580 9.544978
55.585 9.502218
55.590 9.814579
55.595 10.657238
55.600 11.030837
55.605 10.548157
55.610 10.322667
55.615 9.755986
55.620 9.613985
55.625 9.432997
55.630 8.985626
55.635 8.638927
55.640 9.006716
55.645 9.223687
55.650 9.514958
55.655 9.642674
55.660 9.439486
55.665 9.020436
55.670 9.061281
55.675 9.147546
55.680 9.002324
55.685 8.688819
55.690 8.417503
55.695 8.589384
55.700 9.210703
55.705 9.355821
55.710 9.104531
55.715 9.241716
55.720 9.596387
55.725 9.771188
55.730 9.415829
55.735 9.04229
55.740 9.149517
55.745 9.341351
55.750 8.884256
55.755 8.429218
55.760 8.559511
55.765 9.327532
55.770 9.341813
55.775 9.598317
55.780 9.846972
55.785 9.993979
55.790 10.059755
55.795 9.698352
55.800 9.567964
55.805 9.52496
55.810 9.027369
55.815 8.864754
55.820 8.728668
55.825 8.965375
55.830 9.002126
55.835 8.661115
55.840 8.788438
55.845 9.310268
55.850 9.52204
55.855 9.743531
55.860 9.725094
55.865 9.851326
55.870 9.636723
55.875 9.773976
55.880 9.786337
55.885 10.060999
55.890 10.104784
55.895 10.404438
55.900 10.304454
55.905 10.580516
55.910 10.290887
55.915 10.16131
55.920 10.501565
55.925 10.705033
55.930 10.866034
55.935 11.270493
55.940 11.38134
55.945 11.894001
55.950 11.846045
55.955 11.670987
55.960 11.040053
55.965 10.646108
55.970 10.308863
55.975 10.193225
55.980 9.496949
55.985 9.082742
55.990 8.988056
55.995 9.218162
56.000 9.719777
56.005 9.745231
56.010 9.26359
56.015 9.363598
56.020 9.655869
56.025 9.916827
56.030 10.098023
56.035 9.755842
56.040 9.772103
56.045 10.421369
56.050 10.6254
56.055 10.484913
56.060 10.033879
56.065 9.860086
56.070 10.063373
56.075 10.239127
56.080 10.278365
56.085 10.364635
56.090 10.385407
56.095 10.877227
56.100 11.159433
56.105 10.993617
56.110 10.60925
56.115 10.743738
56.120 10.935554
56.125 10.892699
56.130 10.426832
56.135 10.333673
56.140 10.276804
56.145 10.508873
56.150 10.48876
56.155 10.065228
56.160 10.219591
56.165 10.113345
56.170 10.159416
56.175 10.267689
56.180 9.834833
56.185 9.79799
56.190 9.971305
56.195 9.373898
56.200 9.635123
56.205 9.373314
56.210 9.709607
56.215 9.823129
56.220 9.254876
56.225 9.444012
56.230 10.070385
56.235 10.308598
56.240 10.388931
56.245 10.447125
56.250 10.511271
56.255 10.636825
56.260 10.498941
56.265 10.128651
56.270 9.765186
56.275 10.000429
56.280 9.943081
56.285 9.874256
56.290 10.240876
56.295 10.441876
56.300 10.491681
56.305 10.447822
56.310 10.484837
56.315 10.406168
56.320 10.612247
56.325 10.819629
56.330 10.836758
56.335 10.874479
56.340 11.031071
56.345 10.803563
56.350 11.132867
56.355 11.287493
56.360 10.948846
56.365 10.847758
56.370 10.964966
56.375 10.692479
56.380 10.760977
56.385 10.578409
56.390 10.441687
56.395 10.801302
56.400 11.055253
56.405 10.911485
56.410 11.001959
56.415 10.803868
56.420 10.894552
56.425 10.889195
56.430 10.444516
56.435 10.336602
56.440 10.670799
56.445 10.986456
56.450 11.12201
56.455 11.264155
56.460 11.607106
56.465 11.787762
56.470 12.017976
56.475 12.683108
56.480 13.01973
56.485 13.542881
56.490 13.97022
56.495 14.091535
56.500 13.874211
56.505 13.569323
56.510 13.290044
56.515 12.727163
56.520 12.463248
56.525 12.561636
56.530 12.510337
56.535 13.032271
56.540 12.766058
56.545 12.748957
56.550 13.178555
56.555 13.48635
56.560 13.234231
56.565 13.126719
56.570 12.838139
56.575 13.509517
56.580 13.297054
56.585 12.819527
56.590 12.241211
56.595 12.121331
56.600 12.153001
56.605 11.405935
56.610 10.942604
56.615 10.879429
56.620 10.880235
56.625 10.850647
56.630 10.796007
56.635 10.842838
56.640 11.482865
56.645 11.338758
56.650 11.402497
56.655 11.607241
56.660 11.836314
56.665 11.813955
56.670 11.696801
56.675 11.685874
56.680 11.829271
56.685 11.766244
56.690 11.611847
56.695 11.386621
56.700 11.108656
56.705 11.615186
56.710 11.583373
56.715 11.526516
56.720 11.407278
56.725 10.936188
56.730 10.505643
56.735 10.775155
56.740 10.233475
56.745 10.093241
56.750 10.006146
56.755 10.731263
56.760 11.669155
56.765 11.944279
56.770 12.265317
56.775 12.551959
56.780 12.499104
56.785 12.382347
56.790 12.11834
56.795 11.606459
56.800 11.198764
56.805 10.785597
56.810 10.717616
56.815 10.534782
56.820 10.2279
56.825 10.355267
56.830 10.838012
56.835 10.758522
56.840 10.101753
56.845 9.979555
56.850 9.783315
56.855 9.73821
56.860 9.192068
56.865 9.273381
56.870 9.538303
56.875 9.894858
56.880 10.618602
56.885 11.333017
56.890 12.1688
56.895 12.493229
56.900 12.539614
56.905 12.4001
56.910 11.942446
56.915 11.821124
56.920 11.35032
56.925 10.804477
56.930 10.565845
56.935 10.560926
56.940 11.066036
56.945 11.170157
56.950 10.624366
56.955 10.779419
56.960 10.754425
56.965 11.100453
56.970 11.031006
56.975 11.18017
56.980 10.993767
56.985 11.086299
56.990 10.883613
56.995 10.527747
57.000 10.14653
57.005 9.848665
57.010 9.943446
57.015 10.423936
57.020 10.355331
57.025 10.270504
57.030 10.159446
57.035 10.172965
57.040 10.17024
57.045 10.008789
57.050 10.639477
57.055 11.349309
57.060 11.521989
57.065 11.16345
57.070 10.996111
57.075 10.746963
57.080 10.567942
57.085 9.520391
57.090 8.712719
57.095 8.949176
57.100 9.44149
57.105 9.417497
57.110 9.674577
57.115 9.719302
57.120 10.242402
57.125 10.339296
57.130 10.492971
57.135 10.626643
57.140 10.618283
57.145 10.164685
57.150 10.12258
57.155 9.995107
57.160 10.036803
57.165 10.007982
57.170 10.142242
57.175 10.250796
57.180 10.594007
57.185 10.852808
57.190 10.967892
57.195 10.99253
57.200 10.526752
57.205 10.625221
57.210 10.783423
57.215 10.741912
57.220 10.077948
57.225 10.436245
57.230 10.388708
57.235 10.439267
57.240 9.744772
57.245 9.63221
57.250 9.766069
57.255 9.761056
57.260 9.328347
57.265 9.113714
57.270 9.301462
57.275 9.67356
57.280 10.290739
57.285 10.374452
57.290 10.600227
57.295 10.629655
57.300 10.814016
57.305 10.776026
57.310 10.728719
57.315 10.428454
57.320 10.337045
57.325 10.365136
57.330 10.48123
57.335 10.255216
57.340 10.298264
57.345 10.510556
57.350 10.618208
57.355 10.839795
57.360 10.597851
57.365 10.656235
57.370 10.840318
57.375 11.277472
57.380 11.846044
57.385 11.709933
57.390 11.42024
57.395 11.462649
57.400 11.661569
57.405 11.756519
57.410 11.147891
57.415 11.007623
57.420 11.079093
57.425 11.288958
57.430 11.371681
57.435 11.232066
57.440 11.213841
57.445 11.103059
57.450 10.745243
57.455 10.180223
57.460 9.501302
57.465 9.510206
57.470 9.572726
57.475 9.70509
57.480 9.700325
57.485 9.770296
57.490 10.102648
57.495 10.999093
57.500 11.063127
57.505 10.654942
57.510 10.693659
57.515 10.999071
57.520 11.263643
57.525 11.25813
57.530 10.900414
57.535 11.056538
57.540 11.3354
57.545 11.002925
57.550 10.456734
57.555 10.319787
57.560 10.550019
57.565 10.898946
57.570 10.674077
57.575 10.607095
57.580 10.883224
57.585 10.830044
57.590 11.183539
57.595 11.249405
57.600 10.887611
57.605 10.782481
57.610 10.873613
57.615 10.849173
57.620 10.51565
57.625 9.743405
57.630 9.67135
57.635 9.684989
57.640 9.831447
57.645 9.404558
57.650 9.795171
57.655 10.230456
57.660 10.588723
57.665 10.245398
57.670 10.282211
57.675 10.252751
57.680 10.564402
57.685 10.184324
57.690 10.428134
57.695 10.595385
57.700 10.521625
57.705 10.52585
57.710 10.564565
57.715 10.367669
57.720 10.674164
57.725 10.156754
57.730 10.057769
57.735 9.939272
57.740 9.794375
57.745 9.777662
57.750 9.664458
57.755 9.399171
57.760 9.368896
57.765 9.196583
57.770 9.581486
57.775 9.857818
57.780 9.721352
57.785 10.216403
57.790 10.476881
57.795 10.771609
57.800 11.287962
57.805 10.848871
57.810 10.853041
57.815 10.512136
57.820 10.280312
57.825 10.250601
57.830 10.205832
57.835 10.214887
57.840 10.709302
57.845 10.763752
57.850 10.741055
57.855 10.369571
57.860 10.557055
57.865 10.578889
57.870 10.291595
57.875 10.279953
57.880 10.593018
57.885 10.646275
57.890 10.704758
57.895 10.478553
57.900 10.34736
57.905 10.270345
57.910 9.85886
57.915 9.536405
57.920 9.779932
57.925 10.248395
57.930 10.643846
57.935 10.779054
57.940 10.936464
57.945 10.9604
57.950 11.391392
57.955 11.182734
57.960 11.037534
57.965 10.735236
57.970 10.251384
57.975 10.109019
57.980 9.737129
57.985 9.469291
57.990 9.573778
57.995 9.55644
58.000 9.974392
58.005 10.505082
58.010 10.899241
58.015 11.426775
58.020 11.653173
58.025 11.774822
58.030 11.618915
58.035 11.294806
58.040 11.012541
58.045 11.002841
58.050 10.787314
58.055 10.533332
58.060 10.630195
58.065 10.962083
58.070 11.002504
58.075 11.518813
58.080 12.12849
58.085 12.100391
58.090 11.999798
58.095 11.533575
58.100 11.093505
58.105 11.147213
58.110 10.316647
58.115 9.823955
58.120 10.075075
58.125 10.0812
58.130 9.935179
58.135 9.655219
58.140 9.374823
58.145 9.790625
58.150 9.721646
58.155 9.559922
58.160 9.736168
58.165 10.052916
58.170 10.375748
58.175 10.34201
58.180 10.72547
58.185 10.991613
58.190 10.932908
58.195 10.967101
58.200 11.078233
58.205 11.053264
58.210 11.531789
58.215 11.283218
58.220 10.790976
58.225 10.670401
58.230 10.90036
58.235 10.81092
58.240 10.955365
58.245 10.816195
58.250 10.727826
58.255 11.115124
58.260 11.147915
58.265 11.218848
58.270 11.252251
58.275 11.213407
58.280 11.114147
58.285 11.32267
58.290 11.531467
58.295 11.628483
58.300 11.649556
58.305 12.257111
58.310 12.299064
58.315 12.265484
58.320 11.947941
58.325 11.642715
58.330 11.954771
58.335 11.642649
58.340 11.31864
58.345 11.424932
58.350 11.49744
58.355 11.581048
58.360 11.50923
58.365 11.407579
58.370 11.386278
58.375 11.41715
58.380 11.415689
58.385 11.764601
58.390 11.759439
58.395 11.809967
58.400 11.509676
58.405 11.566699
58.410 11.513783
58.415 11.394366
58.420 11.042274
58.425 10.894807
58.430 11.438021
58.435 11.608603
58.440 11.593707
58.445 11.48033
58.450 11.062816
58.455 11.22575
58.460 11.336031
58.465 11.440573
58.470 11.644776
58.475 11.678148
58.480 12.149286
58.485 12.418297
58.490 12.639157
58.495 12.909004
58.500 12.386514
58.505 12.273624
58.510 11.933542
58.515 11.969749
58.520 12.603231
58.525 12.846078
58.530 12.420602
58.535 12.363943
58.540 12.039082
58.545 11.99055
58.550 11.81497
58.555 11.41686
