!@!!GADDS PLOTSO FILE: Chi integration type
!@!!Title/SampleName: map-eb
!@!!Comment: ?
!@!!User: Bruker Instrument Administrator
!@!!Site: University of Illinois Chicago
!@!!Frame: map-eb_01_000.gfrm
!@!!Wavelengths    1.54184   1.54056   1.54439
!@!!Frame angles: 2Theta: 63.000 Omega: 50.000 Phi: 0.000 Chi: 90.000
!@!!Integration range: 2Theta: 53.000 to 73.000  Gamma: -105.000 to -75.000
!@!!Integration method: bin normalized
!@!N
!@!SS
!@!M
!@!L 0.0 0.0 0.0 0.0
!@!XDegrees
!@!YCounts
53.000 6.135106
53.005 6.354766
53.010 6.337247
53.015 5.937517
53.020 5.749794
53.025 5.53162
53.030 5.521114
53.035 5.517268
53.040 5.380298
53.045 5.674517
53.050 5.620775
53.055 5.529499
53.060 5.74139
53.065 6.142518
53.070 6.395248
53.075 6.810469
53.080 7.142164
53.085 7.082345
53.090 7.277929
53.095 7.417574
53.100 6.870412
53.105 6.522697
53.110 6.581669
53.115 6.469662
53.120 6.711834
53.125 6.350259
53.130 6.243867
53.135 6.630723
53.140 6.679614
53.145 6.543738
53.150 6.790658
53.155 6.879165
53.160 7.288514
53.165 7.183112
53.170 7.049119
53.175 7.332814
53.180 7.057572
53.185 6.87405
53.190 6.957419
53.195 6.917758
53.200 6.822079
53.205 6.745474
53.210 6.426206
53.215 6.415599
53.220 6.273729
53.225 6.07802
53.230 5.863655
53.235 5.860967
53.240 6.12282
53.245 6.00841
53.250 5.615495
53.255 5.540863
53.260 5.61049
53.265 5.771372
53.270 5.732184
53.275 5.475619
53.280 5.795733
53.285 6.075898
53.290 6.191839
53.295 6.048326
53.300 6.124254
53.305 6.323158
53.310 6.466758
53.315 6.500986
53.320 6.665631
53.325 6.849115
53.330 6.857967
53.335 6.7876
53.340 6.497756
53.345 6.404669
53.350 6.410795
53.355 6.346519
53.360 6.582118
53.365 6.686327
53.370 6.92889
53.375 7.088014
53.380 6.851677
53.385 6.765392
53.390 6.800471
53.395 6.663287
53.400 6.749116
53.405 6.519222
53.410 6.213173
53.415 6.248889
53.420 6.178778
53.425 6.053641
53.430 5.819721
53.435 5.985341
53.440 6.079856
53.445 6.457973
53.450 6.561411
53.455 6.493463
53.460 6.31202
53.465 6.022711
53.470 5.7104
53.475 5.723548
53.480 5.761972
53.485 5.893316
53.490 6.083594
53.495 6.345675
53.500 6.690474
53.505 7.417506
53.510 7.927032
53.515 8.001755
53.520 8.36453
53.525 8.419139
53.530 8.223266
53.535 7.892178
53.540 7.286866
53.545 6.665749
53.550 6.246912
53.555 5.725116
53.560 5.815031
53.565 6.149276
53.570 6.155428
53.575 6.180869
53.580 6.62113
53.585 6.886614
53.590 6.889119
53.595 6.470953
53.600 6.78629
53.605 7.042839
53.610 6.846357
53.615 6.647058
53.620 6.702997
53.625 7.020914
53.630 7.101964
53.635 6.826246
53.640 7.024342
53.645 7.522102
53.650 7.710772
53.655 7.486215
53.660 7.699079
53.665 7.532307
53.670 7.219954
53.675 7.007096
53.680 6.697334
53.685 6.866309
53.690 7.024866
53.695 7.017686
53.700 7.4739
53.705 7.637417
53.710 7.414296
53.715 7.24841
53.720 7.225764
53.725 7.099572
53.730 6.64187
53.735 6.064725
53.740 5.87771
53.745 6.217583
53.750 5.931202
53.755 5.519356
53.760 5.585404
53.765 6.127012
53.770 6.536874
53.775 6.864014
53.780 7.007179
53.785 7.420305
53.790 7.94258
53.795 7.854105
53.800 7.791365
53.805 7.706599
53.810 7.744223
53.815 7.615956
53.820 7.518712
53.825 7.354778
53.830 7.400741
53.835 7.611261
53.840 7.671219
53.845 7.367986
53.850 7.403073
53.855 7.418563
53.860 7.262342
53.865 7.17768
53.870 7.066887
53.875 7.000187
53.880 6.83042
53.885 6.302914
53.890 6.38602
53.895 6.644177
53.900 6.566823
53.905 6.594835
53.910 6.710372
53.915 7.059662
53.920 7.186336
53.925 7.331431
53.930 7.235293
53.935 7.138756
53.940 7.112901
53.945 7.048172
53.950 7.305591
53.955 7.312345
53.960 6.991673
53.965 7.255965
53.970 7.260563
53.975 7.140334
53.980 7.343604
53.985 7.328685
53.990 7.657322
53.995 7.882658
54.000 7.744835
54.005 8.090344
54.010 8.159544
54.015 7.611479
54.020 7.584563
54.025 7.159055
54.030 6.982285
54.035 6.725984
54.040 6.210126
54.045 6.56457
54.050 6.816988
54.055 6.741375
54.060 6.792892
54.065 6.435507
54.070 6.457193
54.075 6.563892
54.080 6.26407
54.085 6.377465
54.090 6.287781
54.095 6.319927
54.100 6.915428
54.105 7.129967
54.110 6.951649
54.115 6.774872
54.120 6.636409
54.125 6.634777
54.130 6.391582
54.135 6.100976
54.140 6.1609
54.145 6.332685
54.150 6.650722
54.155 6.885894
54.160 7.108649
54.165 7.318973
54.170 7.537327
54.175 7.451639
54.180 7.393538
54.185 7.521096
54.190 7.557306
54.195 7.494804
54.200 7.568705
54.205 7.561979
54.210 7.945181
54.215 8.061345
54.220 7.874936
54.225 7.695474
54.230 7.333224
54.235 7.260408
54.240 7.197397
54.245 7.392135
54.250 7.255468
54.255 7.117442
54.260 7.0971
54.265 6.739733
54.270 6.949263
54.275 6.693644
54.280 6.182114
54.285 6.396911
54.290 6.894732
54.295 7.208712
54.300 7.397979
54.305 7.039346
54.310 7.092004
54.315 6.971983
54.320 6.847559
54.325 6.638412
54.330 6.683894
54.335 6.991868
54.340 7.188327
54.345 7.528824
54.350 7.632343
54.355 7.626372
54.360 7.767882
54.365 7.809248
54.370 7.847614
54.375 7.727376
54.380 7.708824
54.385 7.68155
54.390 7.751901
54.395 7.348338
54.400 7.120917
54.405 6.8517
54.410 6.708426
54.415 6.68825
54.420 6.586116
54.425 6.782853
54.430 7.249189
54.435 7.256622
54.440 6.979176
54.445 7.074358
54.450 7.365221
54.455 6.983815
54.460 6.644
54.465 6.681554
54.470 7.37641
54.475 8.067443
54.480 7.909808
54.485 7.646487
54.490 7.983523
54.495 7.989542
54.500 7.821022
54.505 7.418705
54.510 6.934015
54.515 6.825762
54.520 7.026786
54.525 7.120289
54.530 7.281462
54.535 7.34118
54.540 7.714108
54.545 8.112586
54.550 8.334055
54.555 7.903405
54.560 8.115309
54.565 8.189567
54.570 7.977733
54.575 7.433073
54.580 7.134715
54.585 7.248827
54.590 7.521202
54.595 7.221687
54.600 7.310938
54.605 7.602284
54.610 7.992908
54.615 7.707307
54.620 7.455779
54.625 7.060371
54.630 6.630487
54.635 6.331352
54.640 5.575444
54.645 5.564928
54.650 6.025827
54.655 6.336628
54.660 6.342324
54.665 6.713225
54.670 6.969451
54.675 7.476004
54.680 7.496803
54.685 7.236946
54.690 7.37902
54.695 7.91131
54.700 7.690919
54.705 7.593024
54.710 7.396327
54.715 7.376427
54.720 7.456456
54.725 7.129634
54.730 7.166975
54.735 7.322105
54.740 7.190437
54.745 7.090459
54.750 7.139235
54.755 7.074523
54.760 6.868145
54.765 6.707091
54.770 6.626675
54.775 6.762622
54.780 6.689376
54.785 6.683391
54.790 6.815965
54.795 7.15327
54.800 7.418353
54.805 7.313779
54.810 7.509274
54.815 7.786269
54.820 7.722038
54.825 7.823521
54.830 7.847248
54.835 7.787108
54.840 7.697361
54.845 7.415695
54.850 7.383016
54.855 7.25363
54.860 7.258268
54.865 7.332483
54.870 7.999159
54.875 7.981433
54.880 8.356428
54.885 8.675922
54.890 8.597039
54.895 8.515492
54.900 8.041765
54.905 7.496006
54.910 7.780982
54.915 8.234279
54.920 8.013079
54.925 7.926114
54.930 7.878515
54.935 8.344868
54.940 8.822639
54.945 8.259766
54.950 7.439811
54.955 7.285668
54.960 7.760468
54.965 7.714105
54.970 7.168706
54.975 6.832589
54.980 7.098624
54.985 7.542964
54.990 7.787141
54.995 7.301112
55.000 7.264964
55.005 7.351589
55.010 7.605652
55.015 7.469839
55.020 7.514869
55.025 7.775392
55.030 8.205575
55.035 8.47287
55.040 8.741848
55.045 9.129434
55.050 9.136409
55.055 8.77345
55.060 8.798326
55.065 8.541201
55.070 8.48678
55.075 8.241838
55.080 8.036669
55.085 8.033378
55.090 7.945134
55.095 7.732947
55.100 7.33224
55.105 7.005365
55.110 7.461701
55.115 7.432923
55.120 7.631246
55.125 7.768749
55.130 8.055413
55.135 8.413718
55.140 8.762413
55.145 8.244691
55.150 8.093422
55.155 8.241516
55.160 8.228631
55.165 8.102829
55.170 7.919442
55.175 7.72732
55.180 8.117785
55.185 8.196515
55.190 7.95062
55.195 8.08383
55.200 8.244291
55.205 8.00573
55.210 7.798554
55.215 7.119384
55.220 6.679931
55.225 7.415107
55.230 6.976486
55.235 7.099565
55.240 7.335954
55.245 7.607462
55.250 8.113632
55.255 7.967903
55.260 7.28333
55.265 7.870884
55.270 7.704233
55.275 7.619418
55.280 7.440187
55.285 7.185269
55.290 7.55895
55.295 7.709608
55.300 7.509202
55.305 7.923241
55.310 7.909973
55.315 7.898109
55.320 7.797246
55.325 8.064897
55.330 8.099053
55.335 8.039495
55.340 7.790504
55.345 7.647041
55.350 7.647671
55.355 7.960252
55.360 7.85221
55.365 7.462448
55.370 7.479339
55.375 7.50261
55.380 7.790331
55.385 7.813029
55.390 7.556341
55.395 7.839933
55.400 8.492692
55.405 8.874397
55.410 9.273741
55.415 9.531337
55.420 9.768321
55.425 9.729548
55.430 9.322494
55.435 9.246373
55.440 9.050522
55.445 8.622791
55.450 8.791395
55.455 9.154185
55.460 9.758994
55.465 9.688251
55.470 9.426244
55.475 9.308682
55.480 9.166786
55.485 8.624605
55.490 8.685377
55.495 8.556878
55.500 8.493299
55.505 8.291071
55.510 8.393955
55.515 8.758138
55.520 8.547492
55.525 8.242142
55.530 7.849445
55.535 8.177865
55.540 8.539412
55.545 8.749149
55.550 8.947284
55.555 8.815077
55.560 8.311194
55.565 8.311289
55.570 8.357011
55.575 8.242745
55.580 7.955205
55.585 7.603059
55.590 8.040573
55.595 8.533694
55.600 8.395222
55.605 8.344014
55.610 8.064888
55.615 8.138784
55.620 8.383978
55.625 8.634705
55.630 8.707006
55.635 8.572363
55.640 8.513445
55.645 8.441245
55.650 8.206777
55.655 8.037926
55.660 7.477962
55.665 7.852607
55.670 7.780998
55.675 7.713592
55.680 8.035943
55.685 8.298802
55.690 8.438455
55.695 8.702953
55.700 8.648265
55.705 8.88693
55.710 8.86385
55.715 8.810525
55.720 8.750907
55.725 8.781781
55.730 8.557603
55.735 8.135303
55.740 7.992279
55.745 8.420911
55.750 8.350891
55.755 8.204148
55.760 8.018723
55.765 8.262265
55.770 8.780111
55.775 8.945285
55.780 8.742731
55.785 8.587977
55.790 8.270151
55.795 8.117882
55.800 8.217879
55.805 7.54089
55.810 7.151423
55.815 7.191006
55.820 7.484074
55.825 7.76557
55.830 7.602293
55.835 7.403817
55.840 7.361817
55.845 7.60123
55.850 7.51914
55.855 7.356042
55.860 7.331241
55.865 7.499187
55.870 7.642071
55.875 7.850564
55.880 7.722269
55.885 7.693819
55.890 8.332466
55.895 8.512401
55.900 8.816216
55.905 9.069143
55.910 9.348006
55.915 9.645577
55.920 9.724307
55.925 9.662457
55.930 9.454445
55.935 9.149371
55.940 9.221679
55.945 9.176929
55.950 9.76235
55.955 9.840393
55.960 9.480992
55.965 9.328115
55.970 9.267228
55.975 8.917329
55.980 8.466619
55.985 8.225415
55.990 8.506938
55.995 9.100629
56.000 9.005403
56.005 9.004232
56.010 9.414741
56.015 9.36431
56.020 9.086049
56.025 8.683943
56.030 8.17094
56.035 8.43679
56.040 8.41267
56.045 8.706834
56.050 8.870596
56.055 8.918758
56.060 9.226392
56.065 9.499076
56.070 9.325068
56.075 9.486114
56.080 8.89123
56.085 8.837822
56.090 8.531851
56.095 8.249679
56.100 8.27533
56.105 8.51089
56.110 8.195018
56.115 8.724718
56.120 8.903112
56.125 9.35244
56.130 9.858793
56.135 9.95149
56.140 10.152113
56.145 10.317932
56.150 9.778516
56.155 9.994824
56.160 9.862608
56.165 9.711741
56.170 9.625813
56.175 9.411546
56.180 9.11768
56.185 8.841004
56.190 8.19626
56.195 7.867751
56.200 7.899503
56.205 7.740069
56.210 7.544292
56.215 7.691739
56.220 8.238607
56.225 8.52044
56.230 8.422709
56.235 8.317632
56.240 8.272284
56.245 8.376873
56.250 8.613992
56.255 8.358441
56.260 8.560413
56.265 8.962875
56.270 9.060481
56.275 9.434315
56.280 9.629388
56.285 9.701454
56.290 9.960835
56.295 9.257822
56.300 8.644697
56.305 8.495317
56.310 8.33145
56.315 8.708996
56.320 9.002619
56.325 8.845384
56.330 9.17315
56.335 9.405085
56.340 9.619531
56.345 9.726715
56.350 8.961735
56.355 8.422953
56.360 8.822031
56.365 8.876939
56.370 9.112868
56.375 8.914131
56.380 8.298117
56.385 8.749502
56.390 9.070442
56.395 8.975641
56.400 8.897887
56.405 9.166102
56.410 9.448669
56.415 9.814309
56.420 9.182646
56.425 9.012312
56.430 9.12477
56.435 9.160592
56.440 8.897139
56.445 9.343281
56.450 9.354818
56.455 9.440012
56.460 9.016869
56.465 8.960926
56.470 8.966179
56.475 8.780236
56.480 8.741727
56.485 9.346245
56.490 9.99683
56.495 10.709224
56.500 10.659809
56.505 10.671946
56.510 10.504199
56.515 10.066451
56.520 10.005601
56.525 9.656417
56.530 9.206739
56.535 9.085896
56.540 9.207768
56.545 9.251286
56.550 9.272097
56.555 8.932873
56.560 8.845074
56.565 8.750345
56.570 8.89462
56.575 8.973346
56.580 9.153303
56.585 9.081869
56.590 9.059045
56.595 9.312995
56.600 9.301412
56.605 8.879561
56.610 8.900777
56.615 8.808087
56.620 8.842121
56.625 8.895877
56.630 9.027534
56.635 9.03586
56.640 9.031283
56.645 9.298825
56.650 9.470355
56.655 8.896862
56.660 8.541915
56.665 8.589224
56.670 9.020652
56.675 9.132195
56.680 8.846931
56.685 9.225958
56.690 9.955873
56.695 10.38629
56.700 10.51927
56.705 10.207938
56.710 10.306257
56.715 10.079395
56.720 9.634315
56.725 9.645145
56.730 9.709167
56.735 9.739312
56.740 10.160583
56.745 10.078441
56.750 10.121624
56.755 10.583238
56.760 10.408088
56.765 10.008415
56.770 9.536743
56.775 9.268964
56.780 9.684157
56.785 9.956366
56.790 9.67046
56.795 9.541802
56.800 9.474266
56.805 9.475454
56.810 9.115956
56.815 8.872776
56.820 8.67405
56.825 8.754468
56.830 9.017876
56.835 9.11094
56.840 9.035604
56.845 8.847783
56.850 8.534524
56.855 8.682768
56.860 9.063751
56.865 9.110395
56.870 9.2297
56.875 9.706013
56.880 9.952919
56.885 10.313887
56.890 10.394073
56.895 10.596208
56.900 10.826122
56.905 11.252975
56.910 11.531798
56.915 12.005907
56.920 11.459627
56.925 11.172604
56.930 10.816602
56.935 10.535999
56.940 10.354211
56.945 10.274466
56.950 9.788652
56.955 10.017057
56.960 10.058496
56.965 9.510713
56.970 8.90013
56.975 8.811202
56.980 8.628805
56.985 8.892419
56.990 8.906633
56.995 8.78581
57.000 8.744118
57.005 8.627784
57.010 8.72683
57.015 9.553392
57.020 9.697194
57.025 9.686817
57.030 10.543479
57.035 11.346751
57.040 11.531994
57.045 11.101979
57.050 10.433385
57.055 11.058679
57.060 10.920581
57.065 10.383055
57.070 9.900505
57.075 9.825898
57.080 9.922647
57.085 10.02939
57.090 9.220054
57.095 9.802035
57.100 10.139966
57.105 10.734279
57.110 11.181046
57.115 11.130309
57.120 11.195574
57.125 11.437146
57.130 10.713172
57.135 10.160715
57.140 9.417894
57.145 8.932749
57.150 8.852649
57.155 8.535907
57.160 8.130946
57.165 8.252224
57.170 8.694947
57.175 9.128442
57.180 9.347169
57.185 9.931654
57.190 10.001843
57.195 10.293702
57.200 10.616737
57.205 10.769473
57.210 10.844725
57.215 10.982003
57.220 10.060513
57.225 9.854601
57.230 9.843344
57.235 9.258032
57.240 8.914999
57.245 8.818648
57.250 8.878293
57.255 9.112366
57.260 9.372038
57.265 9.649669
57.270 10.069901
57.275 10.609886
57.280 10.31147
57.285 10.38089
57.290 10.251514
57.295 9.977071
57.300 9.839383
57.305 9.837403
57.310 9.683261
57.315 9.984549
57.320 10.204
57.325 10.841134
57.330 11.084931
57.335 11.026924
57.340 10.512205
57.345 10.232724
57.350 10.000322
57.355 9.512554
57.360 8.990838
57.365 8.639091
57.370 8.707162
57.375 9.153706
57.380 9.548123
57.385 9.245135
57.390 9.264138
57.395 9.127954
57.400 9.13864
57.405 9.108989
57.410 8.871182
57.415 8.738227
57.420 9.317767
57.425 9.542635
57.430 9.530671
57.435 9.466671
57.440 9.748977
57.445 10.125734
57.450 10.344978
57.455 10.806846
57.460 11.064932
57.465 11.16078
57.470 11.121103
57.475 11.246196
57.480 11.012011
57.485 10.639208
57.490 10.19057
57.495 9.846726
57.500 10.199323
57.505 9.989833
57.510 9.833235
57.515 10.064176
57.520 10.056152
57.525 10.048012
57.530 10.645075
57.535 10.756818
57.540 11.229246
57.545 11.056372
57.550 11.218204
57.555 11.806624
57.560 12.103803
57.565 11.951023
57.570 11.539006
57.575 11.314326
57.580 11.475677
57.585 11.463594
57.590 11.28186
57.595 10.656674
57.600 10.705334
57.605 11.018023
57.610 11.222858
57.615 11.307791
57.620 11.113527
57.625 11.200823
57.630 11.740168
57.635 12.075043
57.640 12.076185
57.645 11.996729
57.650 12.238758
57.655 12.063539
57.660 11.126785
57.665 10.736475
57.670 10.408558
57.675 10.457744
57.680 9.849043
57.685 9.459883
57.690 9.937848
57.695 10.709838
57.700 10.90558
57.705 11.378974
57.710 11.840462
57.715 12.301297
57.720 12.667302
57.725 12.590276
57.730 12.583699
57.735 12.328857
57.740 11.742071
57.745 11.392043
57.750 11.245519
57.755 10.808599
57.760 10.5209
57.765 10.697706
57.770 10.844798
57.775 10.978247
57.780 11.145611
57.785 11.194069
57.790 11.14191
57.795 11.414212
57.800 11.020677
57.805 10.668234
57.810 10.50939
57.815 10.573916
57.820 10.547387
57.825 10.351077
57.830 10.532696
57.835 11.056206
57.840 11.266813
57.845 11.269238
57.850 11.378674
57.855 11.449426
57.860 11.523888
57.865 11.277178
57.870 11.277947
57.875 11.059548
57.880 10.843249
57.885 10.093045
57.890 9.907013
57.895 9.967462
57.900 10.22331
57.905 10.223136
57.910 10.87513
57.915 11.539245
57.920 11.699754
57.925 11.877707
57.930 11.880692
57.935 11.863077
57.940 11.78328
57.945 11.095557
57.950 10.591412
57.955 10.940569
57.960 11.219383
57.965 11.285295
57.970 10.810888
57.975 11.047158
57.980 11.216602
57.985 11.299154
57.990 11.693853
57.995 11.742361
58.000 11.739628
58.005 12.031949
58.010 11.685397
58.015 11.687672
58.020 11.75517
58.025 11.742139
58.030 12.238806
58.035 12.883261
58.040 13.288393
58.045 13.937703
58.050 14.659117
58.055 14.948227
58.060 14.486918
58.065 13.873806
58.070 13.423375
58.075 13.240871
58.080 12.947717
58.085 12.510059
58.090 12.139107
58.095 12.142614
58.100 12.143446
58.105 12.16178
58.110 12.121161
58.115 12.385839
58.120 12.461297
58.125 12.666793
58.130 12.863833
58.135 13.16214
58.140 13.245254
58.145 13.308321
58.150 13.582284
58.155 14.085515
58.160 13.842577
58.165 13.817942
58.170 13.805494
58.175 13.889562
58.180 13.88041
58.185 13.443275
58.190 12.765068
58.195 12.938094
58.200 12.830209
58.205 12.425964
58.210 12.24777
58.215 12.100611
58.220 11.954017
58.225 12.460335
58.230 12.367912
58.235 12.744958
58.240 12.836234
58.245 12.444518
58.250 11.957321
58.255 12.097336
58.260 11.990924
58.265 12.411033
58.270 12.117898
58.275 11.820266
58.280 12.34748
58.285 13.048181
58.290 13.132928
58.295 13.016284
58.300 12.945029
58.305 13.096626
58.310 13.282321
58.315 13.060214
58.320 12.867764
58.325 13.390063
58.330 13.523732
58.335 13.400839
58.340 13.680502
58.345 13.921397
58.350 14.507698
58.355 15.095028
58.360 14.957336
58.365 14.923304
58.370 14.963893
58.375 15.005098
58.380 15.165548
58.385 15.0061
58.390 14.619637
58.395 14.656211
58.400 14.951115
58.405 15.049092
58.410 15.103244
58.415 14.859214
58.420 15.582895
58.425 16.21307
58.430 16.267946
58.435 16.172857
58.440 16.329704
58.445 16.758352
58.450 17.427946
58.455 17.161503
58.460 16.871244
58.465 17.071907
58.470 17.169123
58.475 17.475996
58.480 17.448828
58.485 17.854364
58.490 18.200117
58.495 18.907614
58.500 19.115139
58.505 19.49449
58.510 19.679491
58.515 19.865053
58.520 19.787584
58.525 20.599998
58.530 20.588762
58.535 20.586123
58.540 21.42909
58.545 21.773647
58.550 22.130505
58.555 22.484711
58.560 22.038265
58.565 22.422764
58.570 22.642464
58.575 22.357914
58.580 23.539869
58.585 23.719893
58.590 24.055004
58.595 24.962444
58.600 25.134047
58.605 25.555618
58.610 25.952332
58.615 25.466021
58.620 25.350302
58.625 25.198709
58.630 25.218475
58.635 26.266094
58.640 26.761654
58.645 26.381903
58.650 25.974583
58.655 25.633953
58.660 25.362865
58.665 24.58835
58.670 23.38847
