!@!!GADDS PLOTSO FILE: Chi integration type
!@!!Title/SampleName: map-b2
!@!!Comment: ?
!@!!User: Bruker Instrument Administrator
!@!!Site: University of Illinois Chicago
!@!!Frame: map-b2_01_000.gfrm
!@!!Wavelengths    1.54184   1.54056   1.54439
!@!!Frame angles: 2Theta: 63.000 Omega: 50.000 Phi: 0.000 Chi: 90.000
!@!!Integration range: 2Theta: 53.000 to 73.000  Gamma: -105.000 to -75.000
!@!!Integration method: bin normalized
!@!N
!@!SS
!@!M
!@!L 0.0 0.0 0.0 0.0
!@!XDegrees
!@!YCounts
53.000 7.140403
53.005 6.900936
53.010 6.78855
53.015 6.875232
53.020 6.855849
53.025 6.738867
53.030 6.610688
53.035 6.609398
53.040 6.684717
53.045 6.826519
53.050 6.628204
53.055 6.57311
53.060 6.664766
53.065 6.134077
53.070 5.827922
53.075 6.030004
53.080 6.230664
53.085 6.373946
53.090 6.368993
53.095 6.207159
53.100 6.625048
53.105 7.327852
53.110 7.091347
53.115 7.418291
53.120 7.319097
53.125 7.408772
53.130 7.459552
53.135 7.299093
53.140 7.05994
53.145 6.698207
53.150 6.363539
53.155 6.504538
53.160 6.427825
53.165 6.14775
53.170 6.145213
53.175 6.529729
53.180 7.157116
53.185 7.312245
53.190 7.291112
53.195 7.239687
53.200 7.741887
53.205 7.853482
53.210 7.712329
53.215 7.505399
53.220 7.646964
53.225 7.679547
53.230 7.668986
53.235 7.467525
53.240 7.578406
53.245 7.571206
53.250 7.104694
53.255 7.119092
53.260 7.390409
53.265 7.405535
53.270 7.139426
53.275 6.841931
53.280 7.074425
53.285 7.302737
53.290 7.018049
53.295 6.96393
53.300 7.51807
53.305 7.689291
53.310 7.768169
53.315 7.365212
53.320 7.464718
53.325 7.516381
53.330 7.312796
53.335 7.133122
53.340 7.151057
53.345 7.162259
53.350 7.602469
53.355 7.7098
53.360 7.800405
53.365 7.695632
53.370 7.535732
53.375 7.288576
53.380 7.259336
53.385 7.242628
53.390 7.140955
53.395 6.96673
53.400 6.696238
53.405 6.784349
53.410 6.965424
53.415 6.658716
53.420 6.669281
53.425 7.174828
53.430 7.493989
53.435 7.676768
53.440 7.845021
53.445 7.813506
53.450 7.484393
53.455 6.905226
53.460 6.461652
53.465 6.175569
53.470 6.417211
53.475 6.538291
53.480 6.839601
53.485 7.301377
53.490 7.75747
53.495 8.324273
53.500 8.911267
53.505 8.795106
53.510 8.975813
53.515 9.184099
53.520 9.235621
53.525 8.535761
53.530 7.879435
53.535 7.418361
53.540 7.065383
53.545 6.612437
53.550 6.238713
53.555 5.924459
53.560 6.443118
53.565 6.992015
53.570 7.615234
53.575 7.974662
53.580 8.148586
53.585 8.836456
53.590 8.874684
53.595 8.400438
53.600 8.112529
53.605 7.766676
53.610 7.868816
53.615 7.625672
53.620 7.668632
53.625 8.143456
53.630 8.152856
53.635 8.304585
53.640 8.081591
53.645 7.783609
53.650 7.81501
53.655 7.985298
53.660 8.08458
53.665 7.909935
53.670 7.866506
53.675 7.815332
53.680 7.876127
53.685 7.654887
53.690 7.26225
53.695 7.517079
53.700 8.010956
53.705 7.989394
53.710 8.539129
53.715 8.771389
53.720 8.632941
53.725 8.171594
53.730 7.595384
53.735 7.350577
53.740 7.526092
53.745 7.422856
53.750 7.629623
53.755 8.117078
53.760 8.830667
53.765 8.99784
53.770 8.918118
53.775 8.561854
53.780 8.554986
53.785 8.292397
53.790 8.024297
53.795 7.671232
53.800 7.723999
53.805 7.815197
53.810 7.671591
53.815 7.96848
53.820 7.774279
53.825 7.866357
53.830 8.190301
53.835 8.301581
53.840 8.118509
53.845 8.335732
53.850 7.924836
53.855 7.991534
53.860 7.940259
53.865 7.352505
53.870 7.620694
53.875 7.822737
53.880 7.725729
53.885 8.112106
53.890 8.321218
53.895 8.32621
53.900 8.35516
53.905 8.123258
53.910 8.135037
53.915 8.173675
53.920 8.046577
53.925 8.193336
53.930 8.321697
53.935 8.433446
53.940 8.361668
53.945 8.460383
53.950 8.585287
53.955 8.679863
53.960 8.425585
53.965 8.334655
53.970 8.304664
53.975 8.044088
53.980 7.930273
53.985 7.932306
53.990 7.855644
53.995 8.272642
54.000 8.399959
54.005 8.741774
54.010 9.135595
54.015 9.098307
54.020 9.136601
54.025 9.068918
54.030 9.372603
54.035 8.717751
54.040 8.155116
54.045 7.989995
54.050 8.233084
54.055 8.649892
54.060 8.921084
54.065 9.108557
54.070 9.5586
54.075 9.839117
54.080 9.985437
54.085 10.12723
54.090 9.64086
54.095 9.211078
54.100 8.91367
54.105 9.139032
54.110 9.424213
54.115 9.320884
54.120 9.118404
54.125 9.358064
54.130 9.551488
54.135 9.728147
54.140 9.277164
54.145 8.697575
54.150 8.790681
54.155 8.626538
54.160 8.693208
54.165 8.647462
54.170 9.041838
54.175 9.322494
54.180 9.4936
54.185 9.166686
54.190 9.172215
54.195 9.102287
54.200 8.732062
54.205 8.755578
54.210 9.128152
54.215 8.894294
54.220 8.936236
54.225 8.656896
54.230 8.427645
54.235 8.307164
54.240 8.29294
54.245 8.484244
54.250 9.255878
54.255 9.547801
54.260 9.540262
54.265 9.778057
54.270 9.916405
54.275 9.554852
54.280 9.383914
54.285 8.721505
54.290 8.660572
54.295 9.040968
54.300 9.015962
54.305 8.808078
54.310 8.490024
54.315 7.979745
54.320 7.962837
54.325 7.871272
54.330 8.000864
54.335 7.793257
54.340 8.169539
54.345 8.652834
54.350 8.932664
54.355 8.924098
54.360 9.004382
54.365 8.657148
54.370 8.679385
54.375 8.275068
54.380 8.029168
54.385 8.422609
54.390 8.484961
54.395 8.44706
54.400 8.670122
54.405 9.015224
54.410 9.084593
54.415 8.950418
54.420 9.022961
54.425 9.255594
54.430 9.131844
54.435 9.111173
54.440 9.396867
54.445 9.808196
54.450 9.787021
54.455 9.309993
54.460 9.049417
54.465 8.782117
54.470 8.296483
54.475 7.841191
54.480 8.091683
54.485 8.106881
54.490 8.340847
54.495 8.58924
54.500 8.733377
54.505 9.348017
54.510 9.509867
54.515 8.9895
54.520 9.129306
54.525 9.187254
54.530 9.174045
54.535 9.397043
54.540 9.411619
54.545 9.256301
54.550 9.622663
54.555 9.342311
54.560 9.223181
54.565 9.079995
54.570 8.973568
54.575 9.139497
54.580 8.786046
54.585 8.805941
54.590 9.044021
54.595 9.31417
54.600 9.455439
54.605 8.796455
54.610 8.406013
54.615 8.466543
54.620 8.264347
54.625 8.478406
54.630 8.372708
54.635 8.308087
54.640 8.580029
54.645 9.129807
54.650 9.752028
54.655 9.897202
54.660 9.851392
54.665 9.866003
54.670 10.046146
54.675 10.235875
54.680 10.013408
54.685 9.567646
54.690 9.562505
54.695 9.580828
54.700 9.586273
54.705 9.280446
54.710 9.467207
54.715 9.459757
54.720 9.449829
54.725 9.614606
54.730 9.322016
54.735 9.500048
54.740 9.701445
54.745 9.352384
54.750 8.925847
54.755 8.70829
54.760 8.492367
54.765 8.631103
54.770 8.492443
54.775 8.525049
54.780 8.752107
54.785 9.078343
54.790 8.969589
54.795 8.812281
54.800 8.718562
54.805 8.368557
54.810 8.03337
54.815 8.165753
54.820 8.548346
54.825 8.683073
54.830 9.197018
54.835 10.052821
54.840 10.578929
54.845 10.498349
54.850 10.18477
54.855 9.947502
54.860 10.107162
54.865 9.614854
54.870 8.955887
54.875 9.191377
54.880 9.528925
54.885 9.83818
54.890 10.403362
54.895 10.454144
54.900 10.467137
54.905 10.281599
54.910 10.17553
54.915 10.1948
54.920 9.977998
54.925 9.61236
54.930 9.819712
54.935 9.868115
54.940 10.645897
54.945 10.808505
54.950 10.742362
54.955 11.219195
54.960 10.783153
54.965 10.432248
54.970 10.207412
54.975 9.65694
54.980 9.316072
54.985 8.987197
54.990 8.836696
54.995 9.311738
55.000 9.503977
55.005 9.835109
55.010 9.960513
55.015 10.37238
55.020 10.19385
55.025 10.105601
55.030 10.118405
55.035 9.89502
55.040 9.622582
55.045 9.414467
55.050 9.501627
55.055 9.767013
55.060 9.425329
55.065 9.739293
55.070 9.901455
55.075 10.148137
55.080 10.271623
55.085 9.74987
55.090 9.574686
55.095 9.353791
55.100 9.138447
55.105 8.794524
55.110 8.292025
55.115 8.53087
55.120 9.198556
55.125 9.653564
55.130 10.340839
55.135 10.368745
55.140 10.737224
55.145 10.824473
55.150 10.834714
55.155 10.715993
55.160 10.712544
55.165 10.186581
55.170 10.079434
55.175 9.83506
55.180 9.838169
55.185 9.732842
55.190 9.283658
55.195 9.083841
55.200 9.603224
55.205 9.907782
55.210 10.159894
55.215 9.763475
55.220 9.585202
55.225 9.579976
55.230 9.247964
55.235 9.282537
55.240 8.559831
55.245 8.687219
55.250 9.078898
55.255 9.685757
55.260 9.90258
55.265 9.845488
55.270 10.118914
55.275 10.313474
55.280 10.093056
55.285 9.876133
55.290 9.64153
55.295 9.927978
55.300 9.816133
55.305 10.118562
55.310 10.301287
55.315 10.57616
55.320 11.052957
55.325 11.439347
55.330 11.513214
55.335 11.473591
55.340 11.156724
55.345 11.321322
55.350 10.79971
55.355 10.21126
55.360 9.825992
55.365 9.684359
55.370 9.641496
55.375 9.65401
55.380 9.447134
55.385 9.473784
55.390 9.247017
55.395 9.592562
55.400 9.344246
55.405 9.397562
55.410 9.732355
55.415 9.6226
55.420 9.630404
55.425 10.245913
55.430 10.119694
55.435 10.412523
55.440 10.638364
55.445 10.334058
55.450 10.889332
55.455 10.740113
55.460 10.237481
55.465 10.483976
55.470 10.374815
55.475 10.33651
55.480 10.221944
55.485 10.331624
55.490 11.190946
55.495 11.298927
55.500 11.086515
55.505 11.003573
55.510 11.084519
55.515 11.136168
55.520 10.62562
55.525 9.98829
55.530 10.39055
55.535 10.476597
55.540 10.259231
55.545 10.217566
55.550 10.741013
55.555 10.971639
55.560 10.80913
55.565 10.328055
55.570 10.336217
55.575 10.282958
55.580 10.422951
55.585 9.957659
55.590 9.963609
55.595 10.215068
55.600 10.348601
55.605 10.497569
55.610 10.357963
55.615 10.096463
55.620 10.14314
55.625 10.260344
55.630 10.144387
55.635 9.983483
55.640 9.519508
55.645 9.675606
55.650 10.057616
55.655 10.42911
55.660 10.282353
55.665 10.392666
55.670 10.748189
55.675 11.26051
55.680 11.075674
55.685 10.58574
55.690 10.525044
55.695 10.221107
55.700 9.861205
55.705 10.044295
55.710 9.826525
55.715 10.29054
55.720 10.211438
55.725 10.100871
55.730 10.533599
55.735 9.971111
55.740 9.923852
55.745 10.177965
55.750 10.077862
55.755 10.059228
55.760 9.679031
55.765 9.464299
55.770 9.676425
55.775 9.707578
55.780 9.925168
55.785 9.753728
55.790 9.776409
55.795 10.005569
55.800 10.298759
55.805 10.766587
55.810 10.747719
55.815 10.575445
55.820 10.577892
55.825 10.561728
55.830 10.619467
55.835 11.065155
55.840 11.064607
55.845 11.145569
55.850 10.75736
55.855 11.057922
55.860 11.212885
55.865 11.067679
55.870 10.676272
55.875 10.707685
55.880 10.493672
55.885 10.785548
55.890 10.407386
55.895 10.139123
55.900 10.326233
55.905 10.12693
55.910 9.940741
55.915 9.789515
55.920 9.67803
55.925 9.995416
55.930 10.308604
55.935 10.081427
55.940 10.033678
55.945 10.040357
55.950 9.947281
55.955 9.643716
55.960 9.569737
55.965 9.522955
55.970 9.955146
55.975 10.066753
55.980 9.802217
55.985 9.845706
55.990 10.046312
55.995 10.007353
56.000 9.887481
56.005 9.168885
56.010 9.393853
56.015 9.574519
56.020 9.781408
56.025 10.033271
56.030 9.707412
56.035 9.520889
56.040 10.168034
56.045 10.455144
56.050 10.679825
56.055 10.945287
56.060 11.396749
56.065 12.383999
56.070 12.884555
56.075 12.35049
56.080 12.290121
56.085 12.434748
56.090 12.199894
56.095 11.525414
56.100 10.762223
56.105 10.427338
56.110 10.853554
56.115 10.848247
56.120 11.09329
56.125 11.209116
56.130 11.275714
56.135 11.616412
56.140 11.803449
56.145 11.511563
56.150 11.134293
56.155 10.971204
56.160 11.111343
56.165 11.132243
56.170 11.235536
56.175 11.220112
56.180 11.107436
56.185 10.972967
56.190 10.995025
56.195 10.634812
56.200 10.654424
56.205 10.432307
56.210 10.298343
56.215 9.677361
56.220 9.739788
56.225 9.804218
56.230 10.547743
56.235 11.150912
56.240 11.446708
56.245 11.978613
56.250 12.862991
56.255 12.596416
56.260 12.530503
56.265 12.593714
56.270 12.278066
56.275 12.064636
56.280 11.697281
56.285 11.233884
56.290 11.29482
56.295 11.344407
56.300 11.259534
56.305 10.916179
56.310 11.479447
56.315 11.76964
56.320 11.714005
56.325 11.606355
56.330 11.566982
56.335 11.511587
56.340 11.442643
56.345 11.176309
56.350 11.406099
56.355 11.452641
56.360 11.203619
56.365 10.549977
56.370 10.15716
56.375 9.952135
56.380 9.625684
56.385 9.287042
56.390 9.234729
56.395 9.720551
56.400 10.607099
56.405 11.331386
56.410 11.480896
56.415 11.672155
56.420 11.891459
56.425 12.231617
56.430 12.189971
56.435 11.969685
56.440 11.397012
56.445 11.467758
56.450 11.271179
56.455 11.279279
56.460 11.247806
56.465 11.111451
56.470 11.012145
56.475 11.142229
56.480 10.317003
56.485 10.090603
56.490 10.740927
56.495 10.562371
56.500 10.530675
56.505 10.140155
56.510 10.078279
56.515 10.708241
56.520 10.907577
56.525 10.263419
56.530 10.624091
56.535 11.159166
56.540 11.931448
56.545 12.374003
56.550 12.10021
56.555 11.969481
56.560 12.391255
56.565 12.083766
56.570 11.679058
56.575 11.360817
56.580 11.356966
56.585 11.806978
56.590 11.728754
56.595 11.081215
56.600 10.853338
56.605 10.602675
56.610 10.737778
56.615 10.657935
56.620 10.46259
56.625 9.990887
56.630 9.804966
56.635 9.449389
56.640 9.371195
56.645 9.029922
56.650 9.061387
56.655 9.30197
56.660 10.008133
56.665 10.787601
56.670 11.773625
56.675 11.785324
56.680 12.008302
56.685 11.910792
56.690 12.17977
56.695 12.470099
56.700 11.986244
56.705 11.462101
56.710 11.63935
56.715 11.66162
56.720 11.799483
56.725 11.198375
56.730 10.879598
56.735 10.748991
56.740 11.366481
56.745 11.560888
56.750 11.568542
56.755 11.652174
56.760 11.773254
56.765 11.886851
56.770 12.284389
56.775 12.03707
56.780 11.439424
56.785 11.317141
56.790 11.328668
56.795 11.909199
56.800 11.987934
56.805 11.329333
56.810 11.224003
56.815 11.596437
56.820 12.062428
56.825 11.926299
56.830 11.655125
56.835 11.972009
56.840 12.310341
56.845 12.392603
56.850 12.295539
56.855 12.417476
56.860 12.777423
56.865 13.026358
56.870 13.076282
56.875 13.416961
56.880 13.457705
56.885 13.400362
56.890 12.803933
56.895 12.702746
56.900 12.130336
56.905 11.671747
56.910 11.553959
56.915 11.386058
56.920 11.369811
56.925 11.256948
56.930 11.025723
56.935 11.378605
56.940 11.757429
56.945 11.959189
56.950 12.039915
56.955 12.182224
56.960 12.756063
56.965 12.912016
56.970 13.253048
56.975 13.264922
56.980 13.048318
56.985 13.103067
56.990 13.081088
56.995 13.10278
57.000 13.317312
57.005 13.050236
57.010 12.717777
57.015 12.678838
57.020 12.869794
57.025 12.825346
57.030 12.616351
57.035 12.328719
57.040 12.863004
57.045 13.46317
57.050 13.975677
57.055 14.149455
57.060 14.172474
57.065 13.965763
57.070 13.84325
57.075 13.703829
57.080 13.477665
57.085 12.990315
57.090 13.00484
57.095 13.014696
57.100 13.183102
57.105 13.411652
57.110 13.456501
57.115 13.290174
57.120 13.126786
57.125 12.754758
57.130 12.671151
57.135 12.01048
57.140 11.965169
57.145 11.931049
57.150 12.111978
57.155 12.32733
57.160 12.271556
57.165 12.429278
57.170 12.959138
57.175 12.920937
57.180 12.575474
57.185 12.642474
57.190 12.385233
57.195 12.398272
57.200 12.495379
57.205 12.911665
57.210 13.128729
57.215 12.822311
57.220 12.702974
57.225 13.096958
57.230 13.145231
57.235 13.110553
57.240 12.803692
57.245 13.076851
57.250 13.626587
57.255 13.686675
57.260 13.654278
57.265 13.936093
57.270 13.699435
57.275 13.399356
57.280 13.037749
57.285 13.381679
57.290 13.376654
57.295 13.210692
57.300 13.68909
57.305 13.708654
57.310 13.626302
57.315 13.347679
57.320 12.913621
57.325 12.749043
57.330 12.819385
57.335 12.555113
57.340 12.933355
57.345 13.153367
57.350 13.338924
57.355 13.723919
57.360 13.995011
57.365 13.938876
57.370 13.632649
57.375 13.490213
57.380 13.651233
57.385 13.291531
57.390 12.975923
57.395 13.436959
57.400 13.544946
57.405 13.528662
57.410 13.356475
57.415 12.88685
57.420 12.895598
57.425 13.114903
57.430 12.08555
57.435 11.720122
57.440 11.690403
57.445 11.752814
57.450 12.272156
57.455 12.485462
57.460 12.325064
57.465 13.061323
57.470 13.689031
57.475 13.887955
57.480 14.071774
57.485 14.089353
57.490 14.708306
57.495 14.59117
57.500 13.862102
57.505 13.407182
57.510 13.40252
57.515 13.334574
57.520 12.873267
57.525 12.765865
57.530 13.322114
57.535 13.89762
57.540 14.188528
57.545 14.284376
57.550 14.5284
57.555 14.616199
57.560 14.119577
57.565 13.918028
57.570 13.82133
57.575 14.147574
57.580 14.481431
57.585 14.66195
57.590 15.249252
57.595 15.467191
57.600 15.355202
57.605 15.252077
57.610 14.782934
57.615 14.635176
57.620 14.474649
57.625 14.286859
57.630 14.099885
57.635 13.999271
57.640 14.001727
57.645 14.004125
57.650 13.905817
57.655 14.073335
57.660 13.860713
57.665 13.802743
57.670 13.251101
57.675 12.840946
57.680 12.580897
57.685 12.317227
57.690 12.857029
57.695 12.864937
57.700 13.255471
57.705 13.777734
57.710 14.146388
57.715 14.170984
57.720 14.047174
57.725 13.180531
57.730 12.971394
57.735 13.366637
57.740 14.055396
57.745 14.364279
57.750 14.451214
57.755 14.290792
57.760 14.127542
57.765 14.020579
57.770 13.474777
57.775 13.144616
57.780 13.2033
57.785 13.489167
57.790 13.74289
57.795 13.956277
57.800 13.980973
57.805 14.181605
57.810 13.915172
57.815 13.412994
57.820 13.193366
57.825 13.072639
57.830 13.478065
57.835 13.380728
57.840 13.225066
57.845 13.035693
57.850 13.252021
57.855 13.411887
57.860 13.41764
57.865 13.461518
57.870 14.093208
57.875 14.027155
57.880 14.122789
57.885 13.954648
57.890 14.076346
57.895 13.569664
57.900 13.210675
57.905 13.332524
57.910 13.423862
57.915 13.478361
57.920 13.736891
57.925 13.864116
57.930 14.445291
57.935 14.567436
57.940 14.451941
57.945 14.226992
57.950 14.062765
57.955 14.130029
57.960 14.311275
57.965 14.560258
57.970 14.557343
57.975 14.521038
57.980 14.713613
57.985 14.69884
57.990 14.664188
57.995 14.532338
58.000 14.200576
58.005 14.46617
58.010 14.606693
58.015 14.782024
58.020 15.353811
58.025 15.473784
58.030 15.526514
58.035 15.739636
58.040 16.078711
58.045 15.900426
58.050 16.13549
58.055 16.043356
58.060 16.40209
58.065 16.735979
58.070 16.474939
58.075 15.685414
58.080 15.175272
58.085 14.431933
58.090 14.029099
58.095 13.483938
58.100 13.188592
58.105 13.776729
58.110 14.386915
58.115 14.886343
58.120 15.89169
58.125 15.955455
58.130 16.06333
58.135 15.913919
58.140 15.869637
58.145 16.036259
58.150 15.780901
58.155 15.27315
58.160 15.446429
58.165 15.572355
58.170 15.441713
58.175 14.945203
58.180 14.564651
58.185 14.651962
58.190 14.483719
58.195 14.100464
58.200 14.163153
58.205 14.376551
58.210 14.721064
58.215 14.825813
58.220 15.30402
58.225 15.695087
58.230 16.307133
58.235 16.335627
58.240 16.661983
58.245 16.566011
58.250 16.891174
58.255 17.19319
58.260 17.502947
58.265 17.678087
58.270 17.841415
58.275 17.902744
58.280 18.632132
58.285 18.238749
58.290 17.327463
58.295 17.047609
58.300 16.902504
58.305 17.238832
58.310 17.037464
58.315 17.007566
58.320 17.659405
58.325 18.676186
58.330 18.888493
58.335 18.79191
58.340 18.559526
58.345 18.816095
58.350 18.790474
58.355 19.272894
58.360 19.116226
58.365 18.918179
58.370 19.450752
58.375 19.376944
58.380 18.938421
58.385 18.490742
58.390 18.037687
58.395 17.90843
58.400 18.592113
58.405 19.076412
58.410 19.708036
58.415 20.034571
58.420 21.262239
58.425 21.704443
58.430 21.741976
58.435 21.386457
58.440 20.828329
58.445 20.653688
58.450 20.44169
58.455 19.295942
58.460 19.831715
58.465 20.711861
58.470 21.258125
58.475 21.541452
58.480 21.639936
58.485 22.233232
58.490 22.85051
58.495 22.386471
58.500 21.801844
58.505 21.645128
58.510 22.275833
58.515 22.36022
58.520 22.390791
58.525 23.225328
58.530 23.690605
58.535 24.467066
58.540 24.48978
58.545 23.98382
58.550 23.982105
58.555 24.064976
58.560 23.698881
58.565 23.6364
58.570 23.996807
58.575 24.311573
