!@!!GADDS PLOTSO FILE: Chi integration type
!@!!Title/SampleName: map-169
!@!!Comment: ?
!@!!User: Bruker Instrument Administrator
!@!!Site: University of Illinois Chicago
!@!!Frame: map-169_01_000.gfrm
!@!!Wavelengths    1.54184   1.54056   1.54439
!@!!Frame angles: 2Theta: 63.000 Omega: 50.000 Phi: 0.000 Chi: 90.000
!@!!Integration range: 2Theta: 53.000 to 73.000  Gamma: -105.000 to -75.000
!@!!Integration method: bin normalized
!@!N
!@!SS
!@!M
!@!L 0.0 0.0 0.0 0.0
!@!XDegrees
!@!YCounts
53.000 3.569538
53.005 3.71083
53.010 3.799779
53.015 3.932597
53.020 4.23043
53.025 4.21467
53.030 4.388962
53.035 4.355132
53.040 4.311487
53.045 4.341314
53.050 4.283122
53.055 4.39003
53.060 3.988536
53.065 3.815276
53.070 3.634294
53.075 3.752011
53.080 3.73753
53.085 3.53913
53.090 3.632421
53.095 4.093829
53.100 3.867301
53.105 3.878173
53.110 3.873581
53.115 3.790802
53.120 3.784209
53.125 3.413818
53.130 3.259743
53.135 3.595953
53.140 3.603615
53.145 3.823564
53.150 3.974747
53.155 4.160522
53.160 4.247805
53.165 4.366205
53.170 4.021478
53.175 3.670622
53.180 3.177128
53.185 3.196974
53.190 3.221122
53.195 3.223325
53.200 3.165223
53.205 3.39646
53.210 3.561751
53.215 3.776226
53.220 3.867141
53.225 3.462639
53.230 3.354776
53.235 3.276629
53.240 3.273554
53.245 3.140021
53.250 2.918415
53.255 2.964124
53.260 3.597519
53.265 3.763354
53.270 3.828329
53.275 3.760428
53.280 4.136425
53.285 4.314671
53.290 4.291584
53.295 4.06129
53.300 4.18217
53.305 4.225055
53.310 4.229583
53.315 3.96627
53.320 3.737639
53.325 3.423735
53.330 3.597604
53.335 3.776595
53.340 3.697221
53.345 3.710187
53.350 3.816914
53.355 4.23945
53.360 4.483528
53.365 4.114371
53.370 4.044882
53.375 4.191202
53.380 4.088593
53.385 3.952771
53.390 3.903019
53.395 3.72387
53.400 3.734503
53.405 3.55373
53.410 3.553043
53.415 3.542375
53.420 3.643401
53.425 3.163415
53.430 2.89661
53.435 2.996556
53.440 2.818011
53.445 2.578308
53.450 2.725565
53.455 2.518595
53.460 2.924912
53.465 2.916989
53.470 3.045702
53.475 3.376182
53.480 3.38842
53.485 3.404289
53.490 3.411696
53.495 3.329673
53.500 3.147686
53.505 3.016547
53.510 3.22143
53.515 3.459955
53.520 3.278458
53.525 3.549984
53.530 4.011411
53.535 4.481201
53.540 4.538963
53.545 4.443401
53.550 4.413958
53.555 4.427435
53.560 4.271147
53.565 3.961914
53.570 3.938126
53.575 3.751028
53.580 3.621074
53.585 3.884453
53.590 4.565768
53.595 4.60586
53.600 4.665791
53.605 4.230065
53.610 4.002092
53.615 3.908806
53.620 3.229845
53.625 2.754968
53.630 2.708344
53.635 2.711038
53.640 3.190975
53.645 3.457847
53.650 3.568797
53.655 3.768687
53.660 3.815211
53.665 3.638731
53.670 3.54838
53.675 3.544737
53.680 3.83676
53.685 3.918932
53.690 4.086226
53.695 4.259591
53.700 4.399184
53.705 4.724783
53.710 4.700828
53.715 4.370849
53.720 4.281359
53.725 3.971204
53.730 3.743196
53.735 3.629358
53.740 3.311837
53.745 3.321795
53.750 3.407569
53.755 3.353664
53.760 3.675816
53.765 3.814586
53.770 3.990778
53.775 4.153354
53.780 4.283353
53.785 4.494442
53.790 4.513794
53.795 4.315738
53.800 4.266607
53.805 4.120487
53.810 3.747679
53.815 3.337489
53.820 2.987669
53.825 3.218872
53.830 3.334392
53.835 3.470897
53.840 3.623909
53.845 3.663128
53.850 3.898681
53.855 3.664631
53.860 3.567724
53.865 3.546117
53.870 3.268058
53.875 3.464951
53.880 3.508038
53.885 3.662591
53.890 3.924471
53.895 3.74986
53.900 3.931674
53.905 3.932692
53.910 3.656126
53.915 3.816519
53.920 3.772207
53.925 3.669215
53.930 3.805642
53.935 3.774159
53.940 3.92644
53.945 3.857463
53.950 3.733823
53.955 3.647878
53.960 3.759155
53.965 3.417916
53.970 3.299474
53.975 3.33025
53.980 3.409947
53.985 3.49527
53.990 3.51302
53.995 3.39647
54.000 3.559577
54.005 3.452921
54.010 3.460901
54.015 3.452777
54.020 3.654307
54.025 3.888937
54.030 4.016833
54.035 4.080577
54.040 4.115047
54.045 4.039401
54.050 3.920383
54.055 3.803339
54.060 3.576023
54.065 3.447631
54.070 3.644022
54.075 3.709009
54.080 3.661659
54.085 3.795302
54.090 4.109315
54.095 4.163717
54.100 3.998387
54.105 3.753698
54.110 3.895506
54.115 4.184251
54.120 3.964879
54.125 3.627442
54.130 3.529433
54.135 3.560669
54.140 3.462294
54.145 3.498432
54.150 3.263813
54.155 3.259855
54.160 3.118102
54.165 3.126168
54.170 3.011853
54.175 2.765327
54.180 2.52039
54.185 2.596373
54.190 2.87636
54.195 3.158438
54.200 3.495035
54.205 3.605613
54.210 3.683339
54.215 3.628078
54.220 3.533475
54.225 3.34293
54.230 3.44994
54.235 3.232863
54.240 3.337641
54.245 3.320224
54.250 3.485759
54.255 3.626833
54.260 3.463538
54.265 3.078079
54.270 3.24122
54.275 3.623321
54.280 3.686449
54.285 3.518463
54.290 3.398051
54.295 3.560604
54.300 3.732663
54.305 3.295396
54.310 3.045052
54.315 3.039492
54.320 3.273953
54.325 3.313019
54.330 3.317628
54.335 3.492249
54.340 3.77263
54.345 3.792358
54.350 3.618805
54.355 3.501969
54.360 3.609288
54.365 3.53815
54.370 3.703243
54.375 3.592516
54.380 3.543099
54.385 3.424289
54.390 3.405226
54.395 3.526791
54.400 3.36505
54.405 2.951244
54.410 3.069718
54.415 3.190869
54.420 3.438338
54.425 3.484228
54.430 3.138547
54.435 3.175138
54.440 3.443648
54.445 3.420166
54.450 3.544847
54.455 3.136296
54.460 2.985676
54.465 3.309235
54.470 3.246101
54.475 2.876019
54.480 2.927287
54.485 2.91773
54.490 3.271868
54.495 3.6741
54.500 3.826737
54.505 4.093344
54.510 4.205018
54.515 4.144556
54.520 4.319933
54.525 4.367424
54.530 4.308937
54.535 4.267524
54.540 4.368591
54.545 4.385531
54.550 4.133117
54.555 3.954276
54.560 4.053362
54.565 3.702198
54.570 3.666995
54.575 3.845489
54.580 4.383052
54.585 4.843931
54.590 4.899106
54.595 4.867946
54.600 4.792785
54.605 4.641393
54.610 4.502838
54.615 4.127934
54.620 4.051763
54.625 3.797554
54.630 3.90089
54.635 4.076949
54.640 4.131523
54.645 4.100358
54.650 4.06521
54.655 4.060802
54.660 4.094721
54.665 3.876963
54.670 3.710001
54.675 3.709461
54.680 3.944858
54.685 3.773336
54.690 3.475572
54.695 3.507138
54.700 3.536403
54.705 3.535357
54.710 3.448107
54.715 3.166384
54.720 3.329512
54.725 3.536268
54.730 3.727273
54.735 3.804545
54.740 3.78411
54.745 3.722631
54.750 3.662959
54.755 3.67405
54.760 3.671678
54.765 3.787728
54.770 3.889686
54.775 3.818029
54.780 3.604146
54.785 3.540005
54.790 3.55404
54.795 3.374148
54.800 3.362679
54.805 3.326037
54.810 3.52578
54.815 3.778997
54.820 3.880981
54.825 3.816404
54.830 3.806594
54.835 3.724802
54.840 3.597642
54.845 3.583631
54.850 3.519681
54.855 3.684963
54.860 3.685146
54.865 3.723354
54.870 3.715708
54.875 3.688601
54.880 3.71884
54.885 3.682685
54.890 3.635123
54.895 3.772065
54.900 3.600386
54.905 3.868556
54.910 4.06388
54.915 4.072039
54.920 4.159897
54.925 4.203559
54.930 4.405224
54.935 4.509121
54.940 4.440025
54.945 4.490398
54.950 4.667865
54.955 4.91703
54.960 4.707067
54.965 4.585797
54.970 4.482242
54.975 4.365491
54.980 4.206691
54.985 3.935124
54.990 3.503339
54.995 3.426635
55.000 3.3494
55.005 3.396596
55.010 3.433524
55.015 3.735572
55.020 3.843732
55.025 4.176569
55.030 4.264513
55.035 4.403128
55.040 4.582108
55.045 4.634473
55.050 4.498313
55.055 4.43557
55.060 4.414378
55.065 4.308372
55.070 4.211093
55.075 4.064011
55.080 3.816355
55.085 3.706753
55.090 3.761741
55.095 3.726735
55.100 3.805935
55.105 3.959352
55.110 3.982771
55.115 3.914423
55.120 4.15195
55.125 4.016923
55.130 3.712955
55.135 3.554703
55.140 3.288358
55.145 3.077636
55.150 3.086369
55.155 3.019722
55.160 3.044068
55.165 3.13638
55.170 3.039762
55.175 2.935166
55.180 3.246536
55.185 3.203849
55.190 3.017795
55.195 3.149709
55.200 3.13119
55.205 3.16848
55.210 3.081941
55.215 3.076107
55.220 3.125594
55.225 3.320451
55.230 3.387978
55.235 3.638208
55.240 3.982398
55.245 4.149809
55.250 4.352946
55.255 4.336174
55.260 4.553106
55.265 4.823059
55.270 4.920627
55.275 4.735517
55.280 4.757632
55.285 4.692305
55.290 4.76093
55.295 4.674892
55.300 4.398664
55.305 4.437569
55.310 4.425488
55.315 4.309034
55.320 4.508958
55.325 4.167917
55.330 3.811867
55.335 3.784373
55.340 3.660779
55.345 3.600947
55.350 3.865993
55.355 4.012989
55.360 4.162137
55.365 4.289169
55.370 4.199151
55.375 4.355921
55.380 4.510589
55.385 4.128474
55.390 3.855714
55.395 4.173157
55.400 4.35502
55.405 4.459354
55.410 4.372401
55.415 4.491816
55.420 4.478362
55.425 4.69132
55.430 4.535789
55.435 4.376557
55.440 4.520073
55.445 4.601866
55.450 4.364637
55.455 4.431643
55.460 4.21227
55.465 4.189447
55.470 4.180664
55.475 3.862163
55.480 3.596377
55.485 3.732636
55.490 3.367187
55.495 3.399815
55.500 3.47191
55.505 3.39174
55.510 3.699804
55.515 3.905153
55.520 3.797886
55.525 3.893305
55.530 3.819442
55.535 3.705475
55.540 3.516586
55.545 3.466602
55.550 3.6279
55.555 3.50198
55.560 3.555968
55.565 3.752727
55.570 3.997553
55.575 4.157187
55.580 3.797482
55.585 3.729528
55.590 3.868042
55.595 3.575538
55.600 2.988672
55.605 2.876875
55.610 2.837403
55.615 3.039048
55.620 3.136362
55.625 3.221736
55.630 3.571171
55.635 3.888292
55.640 3.878144
55.645 3.727473
55.650 3.647067
55.655 3.816783
55.660 3.852286
55.665 3.604908
55.670 3.541187
55.675 3.581504
55.680 3.805045
55.685 3.59955
55.690 3.556195
55.695 3.488336
55.700 3.49779
55.705 3.641994
55.710 3.657366
55.715 3.5672
55.720 3.816835
55.725 3.808791
55.730 3.834136
55.735 3.869177
55.740 3.630162
55.745 3.798821
55.750 3.915991
55.755 3.421402
55.760 3.45429
55.765 3.620003
55.770 3.733866
55.775 3.80801
55.780 3.646577
55.785 3.790951
55.790 3.936266
55.795 3.707045
55.800 3.464228
55.805 3.32561
55.810 3.446524
55.815 3.49189
55.820 3.561589
55.825 3.585618
55.830 4.105138
55.835 4.375176
55.840 4.419285
55.845 4.363666
55.850 4.299385
55.855 4.162208
55.860 4.119869
55.865 3.58596
55.870 3.357419
55.875 3.402784
55.880 3.514192
55.885 3.660685
55.890 3.648159
55.895 3.620015
55.900 3.650683
55.905 3.606523
55.910 3.893154
55.915 3.646889
55.920 3.611655
55.925 3.780699
55.930 3.954752
55.935 4.357637
55.940 4.751814
55.945 4.993848
55.950 5.053595
55.955 4.97562
55.960 4.773026
55.965 4.667428
55.970 4.246333
55.975 3.707432
55.980 3.36989
55.985 3.203825
55.990 3.028944
55.995 3.19231
56.000 3.210166
56.005 3.118743
56.010 2.857748
56.015 2.776822
56.020 2.920808
56.025 2.934546
56.030 2.709121
56.035 2.927721
56.040 3.07752
56.045 3.182997
56.050 3.192278
56.055 3.337789
56.060 3.714923
56.065 4.113892
56.070 3.995558
56.075 4.101406
56.080 4.268866
56.085 4.350663
56.090 4.194621
56.095 3.978162
56.100 3.600233
56.105 3.892143
56.110 4.261249
56.115 4.429237
56.120 4.495042
56.125 4.663084
56.130 4.633405
56.135 4.884619
56.140 4.511451
56.145 4.153052
56.150 3.967028
56.155 3.859336
56.160 3.731412
56.165 3.523687
56.170 3.229653
56.175 3.523449
56.180 3.585027
56.185 3.592307
56.190 3.809814
56.195 4.116047
56.200 4.406643
56.205 4.710437
56.210 4.464373
56.215 4.68888
56.220 4.548104
56.225 4.333755
56.230 4.332082
56.235 4.148021
56.240 4.045728
56.245 4.24503
56.250 4.398108
56.255 4.453073
56.260 4.23637
56.265 4.373667
56.270 4.547204
56.275 4.422432
56.280 4.055081
56.285 3.5112
56.290 3.640429
56.295 3.957121
56.300 3.687034
56.305 3.878134
56.310 4.003426
56.315 4.029283
56.320 4.140098
56.325 4.076223
56.330 4.086372
56.335 4.298589
56.340 4.559387
56.345 4.583792
56.350 4.921896
56.355 5.11927
56.360 4.972465
56.365 4.869002
56.370 4.573429
56.375 4.107639
56.380 4.294539
56.385 4.687783
56.390 4.688497
56.395 4.482663
56.400 4.387419
56.405 4.359377
56.410 4.355567
56.415 3.993846
56.420 3.341686
56.425 3.385966
56.430 3.647038
56.435 3.415035
56.440 3.427608
56.445 3.392351
56.450 3.500457
56.455 3.443421
56.460 3.266267
56.465 3.340285
56.470 3.408031
56.475 3.55439
56.480 3.643552
56.485 3.815587
56.490 4.213541
56.495 4.536386
56.500 4.724701
56.505 5.056568
56.510 4.997069
56.515 5.187949
56.520 5.300721
56.525 5.092596
56.530 4.84651
56.535 4.795203
56.540 4.690361
56.545 4.981364
56.550 4.785501
56.555 4.612968
56.560 4.597231
56.565 4.596605
56.570 4.762509
56.575 4.671498
56.580 4.286737
56.585 4.275962
56.590 4.40285
56.595 4.515605
56.600 4.462561
56.605 4.251319
56.610 4.133599
56.615 4.220019
56.620 4.204413
56.625 4.188125
56.630 4.022049
56.635 4.053968
56.640 4.04775
56.645 4.243373
56.650 4.077791
56.655 4.058094
56.660 4.256546
56.665 4.518447
56.670 4.644278
56.675 5.091875
56.680 5.183561
56.685 5.422059
56.690 5.25553
56.695 4.938214
56.700 4.481478
56.705 4.042203
56.710 3.711933
56.715 3.7779
56.720 4.174168
56.725 4.419116
56.730 4.515796
56.735 4.85636
56.740 5.223104
56.745 5.329026
56.750 5.457427
56.755 5.370983
56.760 5.382723
56.765 5.387499
56.770 5.178233
56.775 5.047897
56.780 4.927732
56.785 4.72061
56.790 4.389269
56.795 4.5731
56.800 4.734353
56.805 4.707848
56.810 4.583997
56.815 4.501811
56.820 4.368363
56.825 4.676365
56.830 4.423606
56.835 4.278441
56.840 4.413763
56.845 4.495714
56.850 4.69296
56.855 4.931594
56.860 4.85341
56.865 4.982702
56.870 4.999817
56.875 4.845664
56.880 4.810304
56.885 4.593618
56.890 4.50009
56.895 4.411086
56.900 4.463901
56.905 4.551373
56.910 4.459595
56.915 4.360192
56.920 4.364858
56.925 4.228359
56.930 4.351112
56.935 3.895156
56.940 3.917384
56.945 4.068408
56.950 4.269165
56.955 4.626576
56.960 4.64923
56.965 4.575523
56.970 4.906614
56.975 4.835367
56.980 4.795755
56.985 4.6826
56.990 4.401583
56.995 4.489519
57.000 4.633833
57.005 4.615243
57.010 4.770123
57.015 5.109441
57.020 5.309835
57.025 5.578001
57.030 5.42684
57.035 5.268291
57.040 5.018943
57.045 4.80049
57.050 4.849294
57.055 4.487432
57.060 4.302679
57.065 4.304416
57.070 4.2459
57.075 4.434309
57.080 4.451715
57.085 4.262472
57.090 4.343925
57.095 4.304879
57.100 4.198503
57.105 4.080985
57.110 4.346502
57.115 4.625719
57.120 4.605166
57.125 4.503405
57.130 4.499543
57.135 4.518838
57.140 4.511812
57.145 4.024891
57.150 3.717577
57.155 3.76
57.160 3.998772
57.165 4.096357
57.170 4.232623
57.175 4.576246
57.180 4.977663
57.185 5.074608
57.190 5.0462
57.195 4.949037
57.200 4.768541
57.205 4.727224
57.210 4.421631
57.215 3.941179
57.220 3.690812
57.225 3.82822
57.230 3.90501
57.235 4.077015
57.240 4.150785
57.245 4.418376
57.250 4.709673
57.255 4.897674
57.260 4.749008
57.265 4.716263
57.270 4.645588
57.275 4.541362
57.280 4.730857
57.285 4.809387
57.290 4.72131
57.295 4.624261
57.300 4.553368
57.305 4.278275
57.310 4.041657
57.315 3.928573
57.320 3.832463
57.325 3.940514
57.330 4.201729
57.335 4.854421
57.340 5.162501
57.345 5.369307
57.350 5.083507
57.355 5.019332
57.360 4.848357
57.365 4.769705
57.370 4.747243
57.375 4.860737
57.380 4.89376
57.385 4.911777
57.390 4.813544
57.395 4.851027
57.400 4.793132
57.405 4.320105
57.410 4.008144
57.415 3.888001
57.420 4.150795
57.425 4.464557
57.430 4.149618
57.435 4.096313
57.440 4.415222
57.445 4.639653
57.450 4.640825
57.455 4.628998
57.460 4.558818
57.465 5.016194
57.470 5.040411
57.475 4.89819
57.480 4.777388
57.485 4.925932
57.490 4.763341
57.495 4.831397
57.500 4.732364
57.505 4.739793
57.510 4.860663
57.515 5.059403
57.520 5.025882
57.525 5.139295
57.530 5.097003
57.535 5.066049
57.540 4.658304
57.545 4.433757
57.550 4.372219
57.555 4.415087
57.560 4.400511
57.565 4.425806
57.570 4.377296
57.575 4.665375
57.580 4.98218
57.585 5.153155
57.590 4.901526
57.595 5.030956
57.600 5.022915
57.605 4.856839
57.610 5.132583
57.615 5.203185
57.620 5.319025
57.625 5.527373
57.630 5.294615
57.635 5.282749
57.640 5.482271
57.645 5.205476
57.650 4.939536
57.655 4.727991
57.660 4.50163
57.665 4.294114
57.670 4.253499
57.675 4.177182
57.680 4.025494
57.685 4.044911
57.690 4.305695
57.695 4.287817
57.700 4.177257
57.705 3.980792
57.710 3.856974
57.715 4.09023
57.720 3.883102
57.725 3.827849
57.730 3.755428
57.735 3.938281
57.740 4.332784
57.745 4.466612
57.750 4.534595
57.755 4.346612
57.760 4.480392
57.765 4.673393
57.770 4.785232
57.775 4.673237
57.780 4.509919
57.785 4.447643
57.790 4.573145
57.795 4.626681
57.800 4.918187
57.805 4.595233
57.810 4.558239
57.815 4.655581
57.820 4.798108
57.825 4.661006
57.830 4.320931
57.835 4.304847
57.840 4.569671
57.845 4.641301
57.850 5.166236
57.855 5.179893
57.860 5.235826
57.865 5.112721
57.870 5.014505
57.875 4.789683
57.880 4.771326
57.885 4.464617
57.890 4.503821
57.895 4.573534
57.900 4.777146
57.905 4.779228
57.910 5.045249
57.915 5.003919
57.920 4.82368
57.925 4.841478
57.930 4.942949
57.935 5.182853
57.940 5.271579
57.945 5.026437
57.950 4.870155
57.955 4.94863
57.960 4.893568
57.965 5.023015
57.970 5.176239
57.975 4.923482
57.980 4.927949
57.985 4.724539
57.990 4.702097
57.995 4.924663
58.000 4.843748
58.005 4.493328
58.010 4.611545
58.015 4.937845
58.020 5.274256
58.025 5.298589
58.030 4.929281
58.035 4.789981
58.040 4.875878
58.045 4.718297
58.050 4.658886
58.055 4.686246
58.060 4.612742
58.065 4.771836
58.070 4.917752
58.075 5.09622
58.080 5.074053
58.085 4.880942
58.090 4.935521
58.095 5.252115
58.100 5.525328
58.105 5.343107
58.110 5.0457
58.115 5.236772
58.120 5.337911
58.125 5.178281
58.130 4.818463
58.135 4.600123
58.140 4.851995
58.145 4.926525
58.150 4.674687
58.155 4.582802
58.160 4.766892
58.165 4.665173
58.170 4.611741
58.175 4.365751
58.180 4.476807
58.185 4.734493
58.190 4.507453
58.195 4.324873
58.200 4.530276
58.205 4.728225
58.210 4.766083
58.215 4.920207
58.220 5.027558
58.225 5.132609
58.230 5.374022
58.235 5.420568
58.240 5.452873
58.245 5.774416
58.250 5.674703
58.255 5.690795
58.260 5.840933
58.265 5.745039
58.270 5.722669
58.275 5.766907
58.280 5.550052
58.285 5.200339
58.290 4.957187
58.295 5.030952
58.300 4.954031
58.305 4.650869
58.310 4.694459
58.315 4.925223
58.320 5.153586
58.325 5.292717
58.330 5.283867
58.335 5.201775
58.340 5.240192
58.345 4.962161
58.350 5.096624
58.355 5.339721
58.360 5.249889
58.365 5.040071
58.370 4.876632
58.375 4.944943
58.380 4.925478
58.385 4.880475
58.390 4.77325
58.395 4.750623
58.400 4.892232
58.405 5.101189
58.410 5.019467
58.415 5.388028
58.420 5.209986
58.425 5.161574
58.430 5.022501
58.435 4.727176
58.440 4.475433
58.445 4.444551
58.450 4.110786
58.455 4.14781
58.460 4.093729
58.465 4.172184
58.470 4.567616
58.475 4.645737
58.480 4.461889
58.485 4.328812
58.490 4.316611
58.495 4.349896
58.500 4.648685
58.505 4.749311
58.510 4.964065
58.515 5.09996
58.520 5.023165
58.525 4.880971
58.530 5.1359
58.535 4.916491
58.540 4.641734
58.545 4.598936
58.550 4.375854
58.555 4.472901
58.560 4.390936
58.565 4.328511
58.570 4.30342
58.575 4.233799
58.580 4.089168
58.585 4.330482
58.590 4.524972
58.595 4.854683
58.600 5.099606
58.605 4.935769
58.610 4.855758
58.615 4.8277
58.620 4.970922
58.625 4.789309
58.630 4.34471
58.635 4.111081
58.640 4.569895
58.645 4.698559
58.650 4.923211
58.655 4.897819
58.660 5.224437
58.665 5.333376
58.670 5.004499
58.675 4.664695
58.680 4.783403
58.685 4.710715
58.690 4.687767
58.695 4.615504
58.700 4.457241
58.705 4.493896
58.710 4.584051
58.715 4.970553
58.720 5.014197
58.725 4.898917
58.730 4.72753
58.735 4.794413
58.740 5.052465
58.745 5.156741
58.750 4.661599
58.755 4.757051
58.760 4.689273
58.765 4.619143
