!@!!GADDS PLOTSO FILE: Chi integration type
!@!!Title/SampleName: map-132
!@!!Comment: ?
!@!!User: Bruker Instrument Administrator
!@!!Site: University of Illinois Chicago
!@!!Frame: map-132_01_000.gfrm
!@!!Wavelengths    1.54184   1.54056   1.54439
!@!!Frame angles: 2Theta: 63.000 Omega: 50.000 Phi: 0.000 Chi: 90.000
!@!!Integration range: 2Theta: 53.000 to 73.000  Gamma: -105.000 to -75.000
!@!!Integration method: bin normalized
!@!N
!@!SS
!@!M
!@!L 0.0 0.0 0.0 0.0
!@!XDegrees
!@!YCounts
53.000 4.495592
53.005 4.184499
53.010 4.047
53.015 3.982454
53.020 4.081361
53.025 4.176816
53.030 4.668734
53.035 4.905735
53.040 5.032839
53.045 4.9686
53.050 4.977548
53.055 4.901684
53.060 4.885998
53.065 4.460512
53.070 4.222188
53.075 4.217577
53.080 4.112031
53.085 4.073789
53.090 3.838202
53.095 3.830026
53.100 3.673543
53.105 3.418621
53.110 3.433782
53.115 3.644068
53.120 3.798494
53.125 4.007906
53.130 4.307362
53.135 4.980444
53.140 4.934192
53.145 4.790419
53.150 4.887684
53.155 4.855048
53.160 4.704527
53.165 4.370509
53.170 4.303051
53.175 4.403154
53.180 4.513358
53.185 4.497469
53.190 4.763475
53.195 4.863086
53.200 4.881507
53.205 5.088504
53.210 5.368452
53.215 5.301464
53.220 4.973026
53.225 4.651627
53.230 4.747874
53.235 4.532946
53.240 4.301744
53.245 4.246707
53.250 4.763737
53.255 5.01887
53.260 4.793013
53.265 4.682343
53.270 4.94272
53.275 5.188509
53.280 5.32815
53.285 4.898899
53.290 4.694117
53.295 5.216931
53.300 5.532985
53.305 5.169408
53.310 4.801352
53.315 4.654471
53.320 4.910352
53.325 4.843431
53.330 4.39677
53.335 4.476842
53.340 4.524855
53.345 4.472705
53.350 4.550127
53.355 4.668478
53.360 4.844363
53.365 4.709232
53.370 4.915866
53.375 5.20824
53.380 5.434735
53.385 5.449543
53.390 5.225281
53.395 5.378938
53.400 5.375003
53.405 5.277927
53.410 5.396918
53.415 5.242882
53.420 5.110131
53.425 5.266727
53.430 5.261792
53.435 5.641647
53.440 5.505152
53.445 5.442431
53.450 5.393423
53.455 5.416934
53.460 5.201465
53.465 5.208512
53.470 5.135483
53.475 5.304356
53.480 5.395799
53.485 5.537434
53.490 5.714249
53.495 5.702231
53.500 5.383396
53.505 5.448124
53.510 5.118792
53.515 4.884692
53.520 4.589685
53.525 4.473345
53.530 4.497314
53.535 4.510228
53.540 4.445407
53.545 4.583721
53.550 5.036066
53.555 5.143195
53.560 5.279482
53.565 5.463825
53.570 5.798479
53.575 5.628144
53.580 5.434472
53.585 5.145949
53.590 5.187815
53.595 5.032002
53.600 4.575358
53.605 4.415044
53.610 4.486887
53.615 4.364444
53.620 4.26303
53.625 4.13436
53.630 4.349368
53.635 4.800823
53.640 4.895808
53.645 5.081055
53.650 5.138161
53.655 5.46058
53.660 5.395011
53.665 5.256921
53.670 5.055149
53.675 5.11869
53.680 5.249009
53.685 5.493584
53.690 5.635139
53.695 5.967728
53.700 6.015174
53.705 6.218881
53.710 6.049505
53.715 5.905035
53.720 6.256234
53.725 6.108568
53.730 6.136426
53.735 6.140446
53.740 6.030921
53.745 6.322094
53.750 6.090868
53.755 5.640076
53.760 5.93268
53.765 5.959985
53.770 5.858261
53.775 5.883684
53.780 5.92008
53.785 6.257421
53.790 6.118823
53.795 5.921774
53.800 5.536448
53.805 5.228869
53.810 4.990935
53.815 4.708779
53.820 4.387691
53.825 4.268575
53.830 3.920633
53.835 4.285352
53.840 4.518947
53.845 4.629699
53.850 4.838847
53.855 5.104932
53.860 5.305036
53.865 5.670481
53.870 5.659219
53.875 5.272185
53.880 5.273973
53.885 5.205468
53.890 5.201425
53.895 5.143965
53.900 4.633388
53.905 4.623422
53.910 4.663972
53.915 4.535935
53.920 4.543961
53.925 4.628414
53.930 5.070204
53.935 4.954835
53.940 5.172074
53.945 5.275611
53.950 5.393254
53.955 5.328329
53.960 5.466853
53.965 5.262336
53.970 5.627943
53.975 5.468413
53.980 5.42293
53.985 5.429481
53.990 5.431004
53.995 5.482656
54.000 5.727718
54.005 5.544527
54.010 5.860704
54.015 5.94783
54.020 5.811432
54.025 5.631899
54.030 5.445702
54.035 5.571323
54.040 5.576125
54.045 5.773997
54.050 5.833375
54.055 5.894959
54.060 5.902789
54.065 5.433334
54.070 5.322677
54.075 5.192589
54.080 4.819744
54.085 4.718925
54.090 4.870268
54.095 4.886636
54.100 4.969759
54.105 5.076155
54.110 5.097425
54.115 5.382171
54.120 5.582369
54.125 5.549235
54.130 5.794985
54.135 5.707601
54.140 5.398944
54.145 5.090449
54.150 4.843106
54.155 4.635137
54.160 4.15994
54.165 4.54149
54.170 4.647175
54.175 4.826239
54.180 5.11632
54.185 5.536963
54.190 5.671996
54.195 5.480164
54.200 5.204329
54.205 5.302382
54.210 5.135396
54.215 4.858329
54.220 4.40516
54.225 4.392511
54.230 4.807214
54.235 5.097704
54.240 5.311151
54.245 5.678525
54.250 5.789844
54.255 6.023851
54.260 6.057346
54.265 5.576843
54.270 5.454748
54.275 5.194008
54.280 4.841849
54.285 4.795333
54.290 4.671248
54.295 4.762157
54.300 4.652851
54.305 4.135531
54.310 4.372805
54.315 4.393196
54.320 4.543758
54.325 4.586109
54.330 4.783998
54.335 5.220965
54.340 5.640974
54.345 5.589885
54.350 6.102291
54.355 6.031205
54.360 6.281464
54.365 6.114406
54.370 6.294393
54.375 6.424651
54.380 6.305408
54.385 5.674478
54.390 5.817275
54.395 5.927808
54.400 5.954199
54.405 5.71666
54.410 5.500289
54.415 5.942609
54.420 6.207045
54.425 5.878614
54.430 5.528749
54.435 5.520438
54.440 5.658731
54.445 5.538607
54.450 5.368938
54.455 5.77861
54.460 6.107013
54.465 6.7507
54.470 7.222898
54.475 7.506937
54.480 7.973875
54.485 7.767915
54.490 7.543604
54.495 7.532265
54.500 7.162154
54.505 6.904164
54.510 6.661305
54.515 6.413161
54.520 6.372093
54.525 6.603076
54.530 6.322982
54.535 6.058289
54.540 5.985265
54.545 5.872684
54.550 5.997423
54.555 5.62599
54.560 5.697036
54.565 6.120714
54.570 6.169846
54.575 5.945936
54.580 5.899518
54.585 6.017778
54.590 6.195377
54.595 6.004344
54.600 5.612598
54.605 5.63592
54.610 5.527865
54.615 5.305439
54.620 5.20365
54.625 4.905779
54.630 4.691356
54.635 4.63562
54.640 4.66325
54.645 4.992413
54.650 4.922626
54.655 5.0931
54.660 5.059703
54.665 5.12151
54.670 5.21975
54.675 5.34628
54.680 5.476858
54.685 5.334383
54.690 5.541525
54.695 5.791229
54.700 5.93908
54.705 6.180824
54.710 6.533296
54.715 6.693782
54.720 7.298898
54.725 7.268877
54.730 7.291684
54.735 7.377214
54.740 7.069049
54.745 6.83665
54.750 6.608873
54.755 6.394448
54.760 6.431284
54.765 6.218209
54.770 6.058506
54.775 6.196815
54.780 6.196206
54.785 6.032342
54.790 5.853128
54.795 5.739168
54.800 5.826868
54.805 5.74737
54.810 5.817451
54.815 5.775529
54.820 6.014886
54.825 6.35205
54.830 6.576581
54.835 6.61926
54.840 6.747237
54.845 6.271149
54.850 6.628209
54.855 6.561053
54.860 6.56142
54.865 6.548203
54.870 6.739608
54.875 6.45294
54.880 6.64678
54.885 6.302629
54.890 6.320944
54.895 6.17725
54.900 6.119614
54.905 6.090763
54.910 6.370309
54.915 6.004744
54.920 6.0214
54.925 6.134547
54.930 6.072157
54.935 5.924798
54.940 5.906429
54.945 5.837858
54.950 6.235583
54.955 6.094604
54.960 5.89199
54.965 6.133604
54.970 6.276026
54.975 6.217247
54.980 6.150959
54.985 5.977029
54.990 6.15249
54.995 6.067468
55.000 5.829284
55.005 6.022731
55.010 6.333264
55.015 6.109907
55.020 6.041633
55.025 5.656813
55.030 5.864114
55.035 6.033191
55.040 5.734375
55.045 5.5224
55.050 5.775866
55.055 5.794641
55.060 5.741987
55.065 5.691519
55.070 5.451666
55.075 5.426356
55.080 5.641479
55.085 5.908833
55.090 5.780897
55.095 5.988746
55.100 6.183945
55.105 6.387493
55.110 6.238202
55.115 5.786369
55.120 5.694883
55.125 5.949647
55.130 6.07302
55.135 6.357453
55.140 6.254029
55.145 6.482557
55.150 6.728066
55.155 6.905608
55.160 7.027268
55.165 6.768136
55.170 6.552744
55.175 6.788262
55.180 6.992753
55.185 7.096149
55.190 6.922771
55.195 6.578959
55.200 6.35553
55.205 6.523081
55.210 6.588522
55.215 6.751259
55.220 7.086949
55.225 7.406463
55.230 7.613647
55.235 8.311329
55.240 8.134481
55.245 7.911107
55.250 7.761808
55.255 7.095582
55.260 6.8548
55.265 6.604638
55.270 6.033609
55.275 6.137769
55.280 6.159351
55.285 6.062718
55.290 6.499148
55.295 6.681271
55.300 6.840117
55.305 6.615759
55.310 6.73263
55.315 6.792457
55.320 6.740766
55.325 6.640346
55.330 6.6016
55.335 6.570789
55.340 6.540339
55.345 6.335704
55.350 6.005391
55.355 6.041256
55.360 6.282891
55.365 6.094345
55.370 6.200014
55.375 6.192131
55.380 6.424307
55.385 6.670693
55.390 6.381084
55.395 6.555314
55.400 6.463247
55.405 6.506354
55.410 6.517504
55.415 6.342334
55.420 6.38643
55.425 6.254709
55.430 5.536304
55.435 5.476298
55.440 5.40921
55.445 5.454439
55.450 5.376003
55.455 5.379033
55.460 5.611837
55.465 6.116752
55.470 6.133882
55.475 6.176149
55.480 5.928893
55.485 6.024561
55.490 6.529661
55.495 6.841918
55.500 7.19394
55.505 7.421974
55.510 7.728951
55.515 8.08726
55.520 8.064489
55.525 7.356069
55.530 6.796395
55.535 6.440461
55.540 6.460604
55.545 6.283238
55.550 6.20464
55.555 6.486472
55.560 7.229685
55.565 7.529139
55.570 7.60376
55.575 7.622536
55.580 7.879763
55.585 7.627232
55.590 7.038972
55.595 6.707787
55.600 6.778322
55.605 7.207476
55.610 7.330063
55.615 6.935078
55.620 7.285176
55.625 7.502475
55.630 7.269638
55.635 6.96508
55.640 6.4731
55.645 6.703954
55.650 7.108556
55.655 6.790982
55.660 6.714326
55.665 7.049424
55.670 7.345098
55.675 6.914116
55.680 6.41996
55.685 6.322025
55.690 6.24327
55.695 6.460821
55.700 6.405877
55.705 6.346105
55.710 6.749603
55.715 6.796004
55.720 6.934398
55.725 7.082369
55.730 7.136332
55.735 7.144168
55.740 7.011401
55.745 7.289579
55.750 7.415914
55.755 7.202562
55.760 6.974751
55.765 6.745202
55.770 6.812676
55.775 6.771693
55.780 6.397687
55.785 6.362387
55.790 6.34455
55.795 6.375281
55.800 6.43045
55.805 6.359768
55.810 6.538513
55.815 6.548937
55.820 6.455868
55.825 6.942104
55.830 7.135213
55.835 7.416026
55.840 7.522347
55.845 7.612942
55.850 7.546888
55.855 8.048429
55.860 8.151764
55.865 8.235708
55.870 7.994061
55.875 7.728624
55.880 7.287673
55.885 7.298638
55.890 7.165438
55.895 6.838438
55.900 6.860565
55.905 6.728821
55.910 7.16589
55.915 7.482026
55.920 7.403051
55.925 7.108654
55.930 7.136492
55.935 7.206048
55.940 7.452795
55.945 7.477773
55.950 7.418888
55.955 7.525516
55.960 7.797217
55.965 8.232855
55.970 8.148526
55.975 7.998826
55.980 7.793985
55.985 7.709191
55.990 7.474179
55.995 7.466686
56.000 7.115352
56.005 6.992646
56.010 6.715451
56.015 6.758234
56.020 6.941019
56.025 6.694814
56.030 6.334799
56.035 6.329063
56.040 6.33408
56.045 6.397551
56.050 6.076622
56.055 6.302407
56.060 6.521628
56.065 6.601298
56.070 6.785765
56.075 6.666486
56.080 7.016644
56.085 7.178648
56.090 6.968281
56.095 7.061255
56.100 6.659149
56.105 6.210383
56.110 6.554886
56.115 6.539469
56.120 6.570632
56.125 6.391148
56.130 6.299364
56.135 6.873755
56.140 7.165651
56.145 7.118093
56.150 7.156978
56.155 7.32721
56.160 7.794272
56.165 8.119409
56.170 7.921891
56.175 7.543531
56.180 7.560992
56.185 7.761701
56.190 8.293597
56.195 8.246627
56.200 8.112844
56.205 8.085452
56.210 8.506317
56.215 8.557808
56.220 8.349095
56.225 7.95449
56.230 8.076404
56.235 8.400199
56.240 8.464951
56.245 8.836024
56.250 8.991861
56.255 9.029243
56.260 8.740355
56.265 8.120473
56.270 8.12517
56.275 8.275146
56.280 7.47963
56.285 7.141045
56.290 7.127795
56.295 7.38294
56.300 7.551235
56.305 7.363573
56.310 7.326112
56.315 7.513475
56.320 7.385941
56.325 7.328845
56.330 7.03327
56.335 6.791644
56.340 6.688913
56.345 6.830208
56.350 6.820627
56.355 6.882783
56.360 7.078985
56.365 7.468123
56.370 7.494501
56.375 7.792192
56.380 7.600107
56.385 8.068104
56.390 7.963882
56.395 7.605103
56.400 7.580677
56.405 7.492892
56.410 7.288617
56.415 7.390325
56.420 7.491651
56.425 7.582716
56.430 8.072628
56.435 8.319976
56.440 8.38098
56.445 8.138309
56.450 7.936152
56.455 7.649533
56.460 7.929052
56.465 7.861028
56.470 7.896126
56.475 7.834186
56.480 8.324871
56.485 9.026461
56.490 9.255246
56.495 9.102365
56.500 8.71506
56.505 8.839256
56.510 8.778076
56.515 8.256349
56.520 7.937112
56.525 7.743334
56.530 7.55723
56.535 7.607907
56.540 7.218379
56.545 7.270631
56.550 7.444284
56.555 7.450625
56.560 7.544092
56.565 7.7864
56.570 7.842872
56.575 8.160791
56.580 8.28084
56.585 8.107811
56.590 8.368903
56.595 8.851976
56.600 8.866918
56.605 8.895872
56.610 8.733099
56.615 8.848872
56.620 8.618539
56.625 8.084962
56.630 7.355111
56.635 7.382246
56.640 7.275263
56.645 7.396514
56.650 7.428562
56.655 7.356463
56.660 7.6216
56.665 7.587886
56.670 7.35921
56.675 7.467879
56.680 7.347782
56.685 7.659913
56.690 7.971685
56.695 7.965724
56.700 7.888776
56.705 8.292923
56.710 8.593263
56.715 8.475044
56.720 8.333122
56.725 8.328929
56.730 8.651376
56.735 9.463455
56.740 9.209431
56.745 9.200843
56.750 9.298506
56.755 9.115746
56.760 8.83763
56.765 8.2129
56.770 7.779442
56.775 7.659429
56.780 7.57217
56.785 7.813435
56.790 8.162658
56.795 8.353783
56.800 8.866232
56.805 9.050244
56.810 8.728855
56.815 8.273886
56.820 7.805574
56.825 7.518516
56.830 7.2706
56.835 7.523017
56.840 7.799942
56.845 8.125308
56.850 8.565768
56.855 8.471157
56.860 8.436472
56.865 8.465784
56.870 8.263722
56.875 7.94547
56.880 8.460165
56.885 8.958511
56.890 8.91971
56.895 8.992704
56.900 8.649184
56.905 8.60818
56.910 8.53039
56.915 7.9126
56.920 7.353706
56.925 7.5455
56.930 7.832787
56.935 8.359513
56.940 8.423995
56.945 8.747031
56.950 8.656811
56.955 8.72715
56.960 8.652649
56.965 8.301031
56.970 7.484968
56.975 7.103809
56.980 6.85393
56.985 6.846295
56.990 7.055805
56.995 7.131953
57.000 7.312984
57.005 7.875806
57.010 8.042672
57.015 8.291717
57.020 8.485905
57.025 8.782675
57.030 8.854963
57.035 9.05034
57.040 8.787129
57.045 8.965695
57.050 9.236282
57.055 9.091967
57.060 8.75334
57.065 8.376124
57.070 7.995645
57.075 8.236564
57.080 8.064396
57.085 7.626419
57.090 7.62292
57.095 7.789671
57.100 8.41268
57.105 8.377165
57.110 8.176435
57.115 8.278994
57.120 8.529801
57.125 8.391088
57.130 8.290263
57.135 8.166691
57.140 8.491458
57.145 8.431491
57.150 8.159102
57.155 8.261376
57.160 8.452474
57.165 8.407115
57.170 8.414303
57.175 8.647763
57.180 8.790092
57.185 9.162946
57.190 9.126336
57.195 8.578956
57.200 8.408224
57.205 8.127059
57.210 7.654562
57.215 7.50932
57.220 7.229514
57.225 7.246765
57.230 7.902742
57.235 7.885131
57.240 7.830224
57.245 7.966069
57.250 8.228518
57.255 8.249725
57.260 7.98013
57.265 7.823191
57.270 7.965266
57.275 7.950178
57.280 7.899536
57.285 7.887633
57.290 8.140624
57.295 8.409293
57.300 8.306002
57.305 8.545924
57.310 8.710458
57.315 9.189569
57.320 8.887211
57.325 8.721085
57.330 8.792783
57.335 8.856609
57.340 8.53203
57.345 8.473785
57.350 8.346142
57.355 8.235045
57.360 8.62085
57.365 8.522714
57.370 8.445475
57.375 8.600611
57.380 8.708564
57.385 8.727418
57.390 8.899339
57.395 8.688555
57.400 8.455591
57.405 8.5517
57.410 8.400245
57.415 8.454841
57.420 8.225663
57.425 8.263324
57.430 8.20354
57.435 8.356439
57.440 7.924519
57.445 7.933543
57.450 8.037662
57.455 8.49065
57.460 8.372064
57.465 8.254488
57.470 8.423932
57.475 8.808688
57.480 8.802036
57.485 8.711733
57.490 8.826587
57.495 9.007176
57.500 9.495865
57.505 9.339211
57.510 9.499342
57.515 9.894879
57.520 9.825895
57.525 9.389065
57.530 9.111207
57.535 9.006536
57.540 9.145991
57.545 9.053647
57.550 8.953547
57.555 9.138608
57.560 9.301188
57.565 9.626364
57.570 9.583385
57.575 9.706317
57.580 9.636774
57.585 9.83932
57.590 9.860653
57.595 9.953828
57.600 9.706051
57.605 9.718228
57.610 9.6444
57.615 9.458263
57.620 8.712598
57.625 8.458291
57.630 8.338543
57.635 8.326972
57.640 8.5961
57.645 9.036464
57.650 9.535622
57.655 9.911001
57.660 10.063437
57.665 9.834506
57.670 9.718694
57.675 9.558289
57.680 9.58195
57.685 9.550385
57.690 9.660151
57.695 9.693504
57.700 10.015594
57.705 10.217283
57.710 10.115849
57.715 9.822664
57.720 9.62171
57.725 9.437251
57.730 9.319426
57.735 9.510714
57.740 9.141332
57.745 9.421042
57.750 9.333034
57.755 9.43675
57.760 9.677795
57.765 9.820343
57.770 10.002072
57.775 10.04427
57.780 9.827852
57.785 9.906675
57.790 9.783297
57.795 9.52623
57.800 9.31408
57.805 9.333925
57.810 9.499886
57.815 9.548428
57.820 9.621644
57.825 10.147758
57.830 10.083239
57.835 9.372461
57.840 9.545112
57.845 9.496445
57.850 9.438701
57.855 9.314122
57.860 9.104378
57.865 9.187412
57.870 9.941783
57.875 9.500238
57.880 9.668762
57.885 9.649132
57.890 9.930278
57.895 9.590848
57.900 9.763881
57.905 9.347556
57.910 9.276189
57.915 8.867934
57.920 8.624785
57.925 8.514322
57.930 9.110425
57.935 9.633827
57.940 9.856853
57.945 9.922944
57.950 10.582216
57.955 10.470798
57.960 10.08287
57.965 9.766685
57.970 9.570133
57.975 10.207006
57.980 10.450239
57.985 10.604419
57.990 10.663288
57.995 10.873783
58.000 11.154764
58.005 11.050997
58.010 10.595311
58.015 10.259403
58.020 10.108616
58.025 10.424184
58.030 10.192009
58.035 9.957171
58.040 10.032736
58.045 10.266224
58.050 10.385272
58.055 10.129558
58.060 10.448471
58.065 10.657585
58.070 10.592207
58.075 10.498156
58.080 10.519119
58.085 10.175767
58.090 10.257638
58.095 10.038654
58.100 9.958445
58.105 9.978602
58.110 10.147224
58.115 10.016273
58.120 10.500717
58.125 10.854856
58.130 10.872307
58.135 10.719339
58.140 10.591982
58.145 10.434317
58.150 10.481099
58.155 10.027117
58.160 9.496778
58.165 9.43081
58.170 9.822987
58.175 10.190761
58.180 10.009715
58.185 9.771293
58.190 9.911531
58.195 10.328719
58.200 10.466331
58.205 9.908657
58.210 9.676575
58.215 9.915864
58.220 10.371244
58.225 10.620297
58.230 10.679445
58.235 10.630998
58.240 10.498773
58.245 10.487247
58.250 10.263024
58.255 10.261732
58.260 10.174741
58.265 9.922682
58.270 10.435954
58.275 10.577907
58.280 10.626316
58.285 10.781375
58.290 10.571634
58.295 10.274235
58.300 10.254329
58.305 9.976314
58.310 10.238191
58.315 9.844178
58.320 9.830335
58.325 10.224751
58.330 10.50793
58.335 10.985933
58.340 11.349899
58.345 11.801181
58.350 12.272547
58.355 12.647292
58.360 12.917336
58.365 12.76839
58.370 12.442341
58.375 12.745723
58.380 12.899246
58.385 13.121972
58.390 12.62881
58.395 12.860275
58.400 13.583982
58.405 13.740839
58.410 13.899751
58.415 13.456546
58.420 13.470141
58.425 14.30395
58.430 14.082541
58.435 13.609218
58.440 13.499871
58.445 13.253726
58.450 13.887897
58.455 14.01932
58.460 13.905376
58.465 14.049148
58.470 13.764427
58.475 13.71082
58.480 13.674399
58.485 14.095045
58.490 14.469872
58.495 14.784207
58.500 15.118353
58.505 15.907002
58.510 16.467728
58.515 16.946362
58.520 16.908457
58.525 17.053301
58.530 17.006418
58.535 17.032516
58.540 17.462196
58.545 17.391665
58.550 16.929756
58.555 16.639553
58.560 16.977888
58.565 17.393976
58.570 18.108276
58.575 17.470919
58.580 17.366306
58.585 18.201309
58.590 19.463568
58.595 19.697735
58.600 19.791351
58.605 20.1231
58.610 20.944345
58.615 20.862709
58.620 20.151495
58.625 19.451633
58.630 19.490618
58.635 19.30864
58.640 19.114893
58.645 19.095163
58.650 19.33511
58.655 19.877625
58.660 19.94022
58.665 19.830153
58.670 20.233776
58.675 20.748938
58.680 21.206179
58.685 21.116215
58.690 21.064848
58.695 21.935062
58.700 21.952311
58.705 21.955431
58.710 21.923656
58.715 21.524994
58.720 22.073227
58.725 22.059416
