!@!!GADDS PLOTSO FILE: Chi integration type
!@!!Title/SampleName: map-136
!@!!Comment: ?
!@!!User: Bruker Instrument Administrator
!@!!Site: University of Illinois Chicago
!@!!Frame: map-136_01_000.gfrm
!@!!Wavelengths    1.54184   1.54056   1.54439
!@!!Frame angles: 2Theta: 63.000 Omega: 50.000 Phi: 0.000 Chi: 90.000
!@!!Integration range: 2Theta: 53.000 to 73.000  Gamma: -105.000 to -75.000
!@!!Integration method: bin normalized
!@!N
!@!SS
!@!M
!@!L 0.0 0.0 0.0 0.0
!@!XDegrees
!@!YCounts
53.000 4.311603
53.005 3.926557
53.010 3.801449
53.015 3.670766
53.020 3.795752
53.025 4.002598
53.030 4.501794
53.035 4.711995
53.040 4.929762
53.045 5.190917
53.050 5.243722
53.055 5.074645
53.060 4.846138
53.065 4.319018
53.070 4.310061
53.075 4.066786
53.080 3.792367
53.085 3.909022
53.090 3.879918
53.095 4.094202
53.100 4.480839
53.105 4.715739
53.110 4.828567
53.115 4.600531
53.120 4.499333
53.125 4.722987
53.130 4.628938
53.135 4.508081
53.140 4.075037
53.145 4.01549
53.150 4.350482
53.155 4.228559
53.160 3.874472
53.165 3.639094
53.170 3.635787
53.175 3.961962
53.180 4.252558
53.185 4.392725
53.190 4.458068
53.195 4.68097
53.200 4.924881
53.205 5.018025
53.210 4.557561
53.215 4.158373
53.220 4.00386
53.225 4.104303
53.230 3.858953
53.235 3.485884
53.240 3.447221
53.245 3.873452
53.250 4.218241
53.255 4.36616
53.260 4.308311
53.265 4.651866
53.270 4.918596
53.275 5.007254
53.280 4.583882
53.285 4.347924
53.290 4.09502
53.295 3.883347
53.300 3.475741
53.305 3.484627
53.310 3.713468
53.315 3.886621
53.320 4.274653
53.325 4.351689
53.330 4.428199
53.335 4.661902
53.340 4.455619
53.345 4.413548
53.350 4.512424
53.355 4.285885
53.360 4.801829
53.365 4.759885
53.370 4.804296
53.375 4.650952
53.380 4.550473
53.385 4.531868
53.390 4.690914
53.395 4.375817
53.400 4.570634
53.405 4.467768
53.410 4.43582
53.415 4.16506
53.420 4.016844
53.425 4.034891
53.430 4.024946
53.435 4.004411
53.440 4.342978
53.445 4.706591
53.450 4.974839
53.455 4.94471
53.460 4.549629
53.465 4.582982
53.470 4.39887
53.475 4.242529
53.480 4.156578
53.485 4.202338
53.490 4.194346
53.495 4.294246
53.500 4.658076
53.505 4.86058
53.510 4.894129
53.515 4.639793
53.520 4.222219
53.525 4.60982
53.530 4.492471
53.535 4.265872
53.540 3.918443
53.545 3.764763
53.550 4.032675
53.555 4.044785
53.560 3.771654
53.565 3.810148
53.570 3.805065
53.575 3.94538
53.580 3.891408
53.585 3.778206
53.590 3.887015
53.595 4.092463
53.600 3.955051
53.605 3.780212
53.610 3.91173
53.615 4.138126
53.620 4.175416
53.625 4.112446
53.630 4.046377
53.635 4.229688
53.640 4.199241
53.645 4.137052
53.650 4.039732
53.655 4.017829
53.660 3.896806
53.665 3.83083
53.670 3.65912
53.675 3.565542
53.680 3.397933
53.685 3.80321
53.690 4.037748
53.695 4.237107
53.700 4.420961
53.705 4.691993
53.710 5.043219
53.715 4.981414
53.720 4.658113
53.725 4.699555
53.730 4.700531
53.735 4.993706
53.740 4.857124
53.745 4.745971
53.750 4.926036
53.755 5.187104
53.760 4.797129
53.765 4.540803
53.770 4.219017
53.775 4.276035
53.780 4.339044
53.785 4.215847
53.790 4.066279
53.795 4.232243
53.800 4.225065
53.805 4.521834
53.810 4.404058
53.815 4.206985
53.820 4.136265
53.825 4.298864
53.830 4.320917
53.835 4.443144
53.840 4.539753
53.845 4.675836
53.850 4.76775
53.855 4.65615
53.860 4.935397
53.865 5.137162
53.870 4.948952
53.875 4.881974
53.880 5.131398
53.885 5.269617
53.890 5.265188
53.895 5.12825
53.900 4.918601
53.905 5.098448
53.910 4.933072
53.915 4.803251
53.920 4.850652
53.925 4.554768
53.930 4.456713
53.935 4.591796
53.940 4.980092
53.945 5.202655
53.950 4.998027
53.955 4.845071
53.960 5.171474
53.965 4.989758
53.970 4.535734
53.975 3.880723
53.980 3.569664
53.985 3.708399
53.990 3.704219
53.995 3.331187
54.000 3.396833
54.005 3.575902
54.010 3.983784
54.015 4.432618
54.020 4.714408
54.025 4.864098
54.030 5.121394
54.035 5.251917
54.040 5.461196
54.045 5.488665
54.050 5.408864
54.055 5.247456
54.060 5.290916
54.065 5.560832
54.070 5.559041
54.075 5.432754
54.080 5.264394
54.085 5.219543
54.090 5.471491
54.095 5.424148
54.100 5.264378
54.105 5.058881
54.110 4.905196
54.115 4.638072
54.120 4.791574
54.125 4.608347
54.130 4.54165
54.135 4.479396
54.140 4.615134
54.145 4.914166
54.150 4.977541
54.155 4.683541
54.160 4.637688
54.165 4.74264
54.170 4.794477
54.175 4.723409
54.180 4.603609
54.185 4.615514
54.190 4.445038
54.195 4.470784
54.200 4.225505
54.205 4.085418
54.210 3.911385
54.215 3.869819
54.220 3.922895
54.225 4.27915
54.230 4.406461
54.235 4.643864
54.240 4.542549
54.245 4.572688
54.250 4.592589
54.255 4.433921
54.260 4.161594
54.265 4.195652
54.270 4.126121
54.275 4.4315
54.280 4.414573
54.285 4.353969
54.290 4.446393
54.295 4.247528
54.300 4.035336
54.305 4.000486
54.310 3.865806
54.315 4.093662
54.320 4.101747
54.325 4.026625
54.330 4.150688
54.335 4.527187
54.340 5.01365
54.345 5.146887
54.350 4.929724
54.355 4.835038
54.360 5.051925
54.365 4.970745
54.370 4.933823
54.375 4.966173
54.380 4.988286
54.385 5.120184
54.390 5.112478
54.395 4.965225
54.400 5.176466
54.405 4.756094
54.410 4.611336
54.415 4.799471
54.420 4.795406
54.425 4.626342
54.430 4.626696
54.435 4.907779
54.440 4.978416
54.445 4.951079
54.450 4.675817
54.455 4.816109
54.460 5.129799
54.465 5.058421
54.470 4.61228
54.475 4.645417
54.480 4.660668
54.485 4.795564
54.490 4.965031
54.495 4.793952
54.500 4.892648
54.505 4.971527
54.510 4.517235
54.515 4.409262
54.520 4.225073
54.525 4.277265
54.530 4.45273
54.535 4.206899
54.540 4.120995
54.545 4.247778
54.550 4.067966
54.555 3.954088
54.560 3.665468
54.565 3.638817
54.570 3.934538
54.575 3.964664
54.580 4.044766
54.585 4.256572
54.590 4.326075
54.595 4.381162
54.600 4.224307
54.605 4.437579
54.610 4.699466
54.615 4.768188
54.620 5.132872
54.625 5.286433
54.630 5.19535
54.635 5.271907
54.640 5.249433
54.645 5.142448
54.650 4.902999
54.655 5.133272
54.660 5.414705
54.665 5.629717
54.670 5.376128
54.675 5.230701
54.680 5.52864
54.685 5.639129
54.690 5.063644
54.695 4.610911
54.700 4.529324
54.705 4.722616
54.710 4.407233
54.715 4.244564
54.720 4.040351
54.725 3.975307
54.730 4.034451
54.735 3.97553
54.740 4.006332
54.745 4.429134
54.750 4.712477
54.755 4.993993
54.760 5.58216
54.765 5.638494
54.770 5.893422
54.775 5.785545
54.780 5.484174
54.785 5.466682
54.790 5.184836
54.795 4.869135
54.800 5.088087
54.805 5.186682
54.810 5.409414
54.815 5.225245
54.820 4.963365
54.825 5.065096
54.830 5.05965
54.835 4.914007
54.840 4.799873
54.845 4.421247
54.850 4.396813
54.855 4.71967
54.860 4.889484
54.865 4.900316
54.870 4.999365
54.875 4.915203
54.880 5.153204
54.885 5.410504
54.890 5.609326
54.895 5.553999
54.900 5.597386
54.905 5.565623
54.910 5.745492
54.915 5.715707
54.920 5.49618
54.925 4.992608
54.930 5.066397
54.935 5.030574
54.940 4.789226
54.945 4.989517
54.950 5.223186
54.955 5.236446
54.960 5.425248
54.965 5.063634
54.970 4.723742
54.975 4.912687
54.980 4.877716
54.985 4.455566
54.990 4.400806
54.995 4.245156
55.000 4.486203
55.005 4.698022
55.010 4.289639
55.015 3.918285
55.020 3.975606
55.025 3.761299
55.030 3.772379
55.035 4.068762
55.040 4.141487
55.045 4.331696
55.050 4.536287
55.055 4.582778
55.060 4.568523
55.065 4.805335
55.070 4.446803
55.075 4.327854
55.080 4.41926
55.085 4.46461
55.090 4.487051
55.095 4.791299
55.100 4.554956
55.105 4.800153
55.110 5.048813
55.115 4.93806
55.120 4.89819
55.125 4.772969
55.130 4.784009
55.135 4.911183
55.140 4.8255
55.145 4.834921
55.150 4.667564
55.155 4.596402
55.160 4.748377
55.165 4.433217
55.170 4.237826
55.175 4.14276
55.180 4.344884
55.185 4.45683
55.190 4.443515
55.195 4.265696
55.200 4.649275
55.205 5.045323
55.210 4.888044
55.215 4.672687
55.220 4.890716
55.225 5.028969
55.230 5.359952
55.235 5.229048
55.240 5.163623
55.245 5.346169
55.250 5.306894
55.255 5.313112
55.260 5.157351
55.265 4.760202
55.270 4.299841
55.275 4.19472
55.280 4.41135
55.285 4.330946
55.290 4.487888
55.295 4.707313
55.300 5.164262
55.305 5.584636
55.310 5.754223
55.315 5.717577
55.320 6.072924
55.325 5.875549
55.330 5.599462
55.335 5.344476
55.340 4.935859
55.345 4.394837
55.350 4.07886
55.355 3.619592
55.360 3.831856
55.365 4.060275
55.370 4.048454
55.375 4.222826
55.380 4.602684
55.385 4.655599
55.390 4.926046
55.395 5.161177
55.400 5.089545
55.405 5.362639
55.410 5.757123
55.415 5.810492
55.420 5.923753
55.425 6.081048
55.430 6.073413
55.435 6.412871
55.440 6.176756
55.445 6.051218
55.450 6.24973
55.455 6.236191
55.460 5.839264
55.465 5.735588
55.470 5.622448
55.475 5.716968
55.480 5.839384
55.485 5.347147
55.490 5.413034
55.495 5.619197
55.500 5.513133
55.505 5.354509
55.510 5.05297
55.515 4.931285
55.520 5.271122
55.525 5.329898
55.530 5.029123
55.535 5.171298
55.540 5.635812
55.545 5.660124
55.550 5.744605
55.555 5.792611
55.560 5.801037
55.565 6.099003
55.570 5.662281
55.575 5.287274
55.580 5.543091
55.585 5.727437
55.590 5.539621
55.595 5.759139
55.600 5.80817
55.605 6.098482
55.610 6.133656
55.615 5.600176
55.620 5.277819
55.625 5.474254
55.630 5.354428
55.635 5.47063
55.640 5.214326
55.645 5.314946
55.650 5.974847
55.655 6.368437
55.660 6.508933
55.665 6.374069
55.670 6.283153
55.675 6.633051
55.680 6.533063
55.685 6.154893
55.690 5.918742
55.695 5.444529
55.700 5.878808
55.705 5.612438
55.710 5.267708
55.715 5.271805
55.720 5.42264
55.725 5.246429
55.730 5.209054
55.735 5.237891
55.740 5.360914
55.745 5.547265
55.750 5.328368
55.755 4.815241
55.760 4.827678
55.765 4.746458
55.770 4.409699
55.775 4.759476
55.780 4.476308
55.785 4.952597
55.790 5.176381
55.795 5.325946
55.800 5.032504
55.805 5.086264
55.810 4.80497
55.815 4.924747
55.820 4.868449
55.825 5.008437
55.830 4.983862
55.835 5.307406
55.840 5.569116
55.845 5.406837
55.850 5.184062
55.855 5.030042
55.860 5.113411
55.865 5.177905
55.870 4.822392
55.875 4.717225
55.880 4.699254
55.885 4.750533
55.890 4.824611
55.895 5.139789
55.900 4.977015
55.905 4.975038
55.910 5.295085
55.915 5.583179
55.920 5.791088
55.925 5.749371
55.930 5.64217
55.935 5.801719
55.940 5.811143
55.945 5.552075
55.950 5.654398
55.955 5.672512
55.960 5.632484
55.965 5.643105
55.970 5.626464
55.975 5.783471
55.980 5.760038
55.985 5.605335
55.990 5.308238
55.995 4.998872
56.000 5.099503
56.005 5.244406
56.010 4.997302
56.015 4.934617
56.020 5.160931
56.025 5.195979
56.030 5.417027
56.035 5.388411
56.040 5.478821
56.045 5.714965
56.050 5.89056
56.055 5.553085
56.060 5.544256
56.065 5.426992
56.070 5.306594
56.075 5.012307
56.080 4.834298
56.085 4.767359
56.090 5.249176
56.095 5.515122
56.100 5.516665
56.105 5.491225
56.110 5.802077
56.115 5.800562
56.120 5.698895
56.125 5.172216
56.130 4.823339
56.135 4.931559
56.140 5.067148
56.145 4.937857
56.150 4.873626
56.155 4.907474
56.160 5.090236
56.165 5.309201
56.170 5.2314
56.175 5.198389
56.180 5.299299
56.185 5.225924
56.190 4.973707
56.195 4.96261
56.200 4.97501
56.205 5.063764
56.210 5.005419
56.215 4.958307
56.220 5.274479
56.225 5.787126
56.230 5.689384
56.235 5.847944
56.240 5.925992
56.245 6.362941
56.250 6.53061
56.255 6.214785
56.260 6.000956
56.265 5.754248
56.270 5.538789
56.275 5.411771
56.280 4.820376
56.285 4.703048
56.290 4.849214
56.295 5.087484
56.300 5.549526
56.305 5.466337
56.310 5.591535
56.315 5.996088
56.320 5.780453
56.325 5.550538
56.330 5.551055
56.335 5.715603
56.340 5.875726
56.345 5.609197
56.350 5.4884
56.355 5.628654
56.360 5.729983
56.365 5.704994
56.370 5.180944
56.375 5.047566
56.380 5.017202
56.385 5.112686
56.390 5.534655
56.395 5.547791
56.400 5.418223
56.405 5.541994
56.410 5.63001
56.415 5.520833
56.420 5.465744
56.425 5.168588
56.430 5.173319
56.435 5.220854
56.440 5.412079
56.445 5.417292
56.450 5.451302
56.455 5.378884
56.460 5.448212
56.465 5.441005
56.470 5.606503
56.475 5.322281
56.480 5.390357
56.485 5.783108
56.490 6.332192
56.495 6.488857
56.500 6.707559
56.505 6.902936
56.510 6.866328
56.515 6.780288
56.520 6.853119
56.525 6.617709
56.530 6.460204
56.535 6.546487
56.540 6.538826
56.545 6.813025
56.550 6.825325
56.555 6.524796
56.560 7.102818
56.565 7.178869
56.570 6.757257
56.575 6.403473
56.580 6.337908
56.585 6.200991
56.590 5.717435
56.595 5.268003
56.600 5.278969
56.605 5.271246
56.610 5.596508
56.615 5.64478
56.620 5.670287
56.625 5.897915
56.630 5.738635
56.635 5.94275
56.640 5.940773
56.645 5.608369
56.650 5.776206
56.655 5.99962
56.660 5.931191
56.665 6.098251
56.670 6.098072
56.675 6.152873
56.680 6.629195
56.685 6.443439
56.690 6.33492
56.695 6.540884
56.700 6.639908
56.705 6.782185
56.710 6.762267
56.715 6.532537
56.720 6.56874
56.725 6.546377
56.730 6.323854
56.735 5.871819
56.740 5.655231
56.745 5.832583
56.750 5.713427
56.755 5.806175
56.760 5.727372
56.765 5.692133
56.770 5.618337
56.775 5.835084
56.780 5.693432
56.785 5.883796
56.790 5.906197
56.795 5.797312
56.800 5.855007
56.805 5.784071
56.810 5.694156
56.815 5.667227
56.820 5.388618
56.825 5.418518
56.830 5.641731
56.835 5.822301
56.840 5.617659
56.845 5.071143
56.850 4.84088
56.855 4.845562
56.860 4.769501
56.865 4.664396
56.870 4.993027
56.875 5.622411
56.880 5.991306
56.885 6.025431
56.890 6.035115
56.895 6.266238
56.900 6.419905
56.905 6.089876
56.910 5.873843
56.915 6.149654
56.920 6.34242
56.925 6.311631
56.930 6.428101
56.935 6.276964
56.940 5.955874
56.945 5.898259
56.950 5.837599
56.955 5.944403
56.960 5.605115
56.965 5.027297
56.970 4.970501
56.975 5.247761
56.980 5.182131
56.985 5.047393
56.990 5.537457
56.995 6.088974
57.000 6.26096
57.005 6.091893
57.010 6.030959
57.015 5.973368
57.020 6.133379
57.025 5.618456
57.030 5.223323
57.035 5.573472
57.040 6.047141
57.045 6.157922
57.050 6.34185
57.055 6.36471
57.060 6.262596
57.065 6.456324
57.070 6.104604
57.075 5.950918
57.080 5.800533
57.085 5.709671
57.090 5.652559
57.095 5.987275
57.100 6.008747
57.105 6.178442
57.110 5.876359
57.115 5.848196
57.120 5.8637
57.125 5.911901
57.130 5.967914
57.135 5.966225
57.140 5.866953
57.145 6.03987
57.150 5.801756
57.155 5.480011
57.160 5.448778
57.165 5.003186
57.170 5.228491
57.175 5.508156
57.180 5.788543
57.185 6.182268
57.190 6.355869
57.195 6.095613
57.200 6.089731
57.205 6.144886
57.210 6.308813
57.215 5.985487
57.220 5.697666
57.225 5.840725
57.230 5.989315
57.235 6.062434
57.240 5.983114
57.245 5.71206
57.250 5.897829
57.255 6.244433
57.260 6.215
57.265 6.432992
57.270 6.524437
57.275 6.235043
57.280 6.29281
57.285 6.177413
57.290 6.147179
57.295 5.876337
57.300 5.940175
57.305 5.838551
57.310 5.941891
57.315 6.432017
57.320 6.45413
57.325 6.552087
57.330 6.691031
57.335 6.493641
57.340 6.775588
57.345 6.894448
57.350 6.780156
57.355 6.662541
57.360 6.623502
57.365 6.442775
57.370 6.466006
57.375 5.924662
57.380 5.583895
57.385 5.469626
57.390 5.645628
57.395 5.672651
57.400 5.819042
57.405 5.720524
57.410 5.867167
57.415 6.167949
57.420 6.116261
57.425 5.513877
57.430 5.258857
57.435 5.151444
57.440 5.391708
57.445 5.743337
57.450 5.794572
57.455 5.645143
57.460 5.751403
57.465 6.133548
57.470 6.217458
57.475 5.96169
57.480 5.648705
57.485 5.530491
57.490 6.093217
57.495 6.083157
57.500 5.90024
57.505 5.799156
57.510 5.861859
57.515 5.890488
57.520 6.1395
57.525 5.936668
57.530 6.159229
57.535 6.317512
57.540 6.414085
57.545 6.545862
57.550 6.708961
57.555 6.463774
57.560 6.404282
57.565 6.431991
57.570 6.478874
57.575 6.470058
57.580 6.285835
57.585 6.134431
57.590 6.647729
57.595 6.843641
57.600 6.807868
57.605 6.903841
57.610 6.994646
57.615 6.925043
57.620 6.665492
57.625 6.433937
57.630 5.963852
57.635 5.507934
57.640 5.210593
57.645 5.078938
57.650 4.902726
57.655 4.893369
57.660 5.029881
57.665 5.466382
57.670 5.609529
57.675 5.941041
57.680 6.14744
57.685 6.399287
57.690 6.511108
57.695 6.192496
57.700 5.82668
57.705 5.787988
57.710 5.741232
57.715 5.580223
57.720 5.5405
57.725 5.654504
57.730 5.778469
57.735 6.321587
57.740 6.530419
57.745 6.375397
57.750 6.498771
57.755 6.608009
57.760 6.374054
57.765 6.242923
57.770 5.92519
57.775 5.701578
57.780 5.788061
57.785 5.595313
57.790 5.218914
57.795 5.204249
57.800 5.507422
57.805 6.079423
57.810 6.432286
57.815 6.509827
57.820 6.420554
57.825 6.516672
57.830 6.798697
57.835 6.924371
57.840 6.652921
57.845 6.403453
57.850 6.41514
57.855 6.541286
57.860 6.402869
57.865 6.43879
57.870 6.256037
57.875 5.900557
57.880 5.72902
57.885 5.408201
57.890 5.405464
57.895 5.51522
57.900 5.689716
57.905 5.975452
57.910 6.332839
57.915 6.538661
57.920 6.888962
57.925 7.320351
57.930 7.00443
57.935 6.544349
57.940 6.434618
57.945 6.280739
57.950 6.552189
57.955 6.618237
57.960 6.387873
57.965 6.544628
57.970 6.338706
57.975 6.087281
57.980 6.305228
57.985 6.040595
57.990 5.687718
57.995 5.861991
58.000 5.96365
58.005 5.95788
58.010 5.995015
58.015 5.764703
58.020 5.680503
58.025 6.01539
58.030 6.243776
58.035 6.440808
58.040 6.647157
58.045 6.666933
58.050 6.47986
58.055 6.680737
58.060 6.600189
58.065 6.445799
58.070 6.49617
58.075 6.675653
58.080 6.660267
58.085 6.737903
58.090 6.605517
58.095 6.569393
58.100 6.419116
58.105 6.124355
58.110 5.840073
58.115 5.758408
58.120 5.883149
58.125 6.21473
58.130 6.595517
58.135 6.681939
58.140 6.871467
58.145 7.012214
58.150 7.172199
58.155 7.305564
58.160 6.920227
58.165 6.357196
58.170 6.46581
58.175 6.256406
58.180 6.018611
58.185 5.806644
58.190 5.543869
58.195 5.52886
58.200 5.43849
58.205 5.32811
58.210 5.422331
58.215 5.65639
58.220 6.177999
58.225 6.214126
58.230 5.86126
58.235 6.302817
58.240 6.473028
58.245 6.560368
58.250 6.298018
58.255 5.89963
58.260 6.024701
58.265 5.97508
58.270 5.702891
58.275 5.923817
58.280 6.017403
58.285 6.001753
58.290 5.787089
58.295 5.958911
58.300 6.354822
58.305 6.568474
58.310 6.277561
58.315 5.928661
58.320 6.22024
58.325 6.619128
58.330 6.571164
58.335 6.559756
58.340 6.40445
58.345 6.434912
58.350 6.326011
58.355 6.105651
58.360 6.037922
58.365 6.208389
58.370 5.898663
58.375 5.823267
58.380 6.083078
58.385 6.382048
58.390 6.354684
58.395 6.272578
58.400 6.018582
58.405 6.176145
58.410 6.035444
58.415 5.726954
58.420 5.688616
58.425 5.837876
58.430 5.67546
58.435 5.927278
58.440 6.449571
58.445 6.636856
58.450 6.698928
58.455 6.725917
58.460 6.455147
58.465 6.591713
58.470 6.263329
58.475 5.818911
58.480 5.59243
58.485 5.708118
58.490 6.13207
58.495 6.156856
58.500 6.133989
58.505 5.934093
58.510 5.876003
58.515 5.857108
58.520 5.713862
58.525 5.772815
58.530 6.032378
58.535 6.32118
58.540 6.478557
58.545 6.705443
58.550 6.996115
58.555 7.316579
58.560 7.263
58.565 7.166965
58.570 7.321537
58.575 7.473776
58.580 7.546353
58.585 7.634012
58.590 7.370308
58.595 7.403442
58.600 7.435577
58.605 7.269604
58.610 7.765374
58.615 7.87576
58.620 7.907164
58.625 8.316367
58.630 8.460323
58.635 8.340186
58.640 8.486448
58.645 8.118598
58.650 8.180931
58.655 8.375073
58.660 8.307741
58.665 8.358347
58.670 8.702578
58.675 8.835414
58.680 9.131878
58.685 8.799397
58.690 8.513844
58.695 8.420589
58.700 8.231118
58.705 8.137405
58.710 8.123263
58.715 7.784369
58.720 8.006676
58.725 8.046466
58.730 7.905687
58.735 8.30078
58.740 8.740863
58.745 8.977608
58.750 8.971806
58.755 8.930201
58.760 9.350446
