!@!!GADDS PLOTSO FILE: Chi integration type
!@!!Title/SampleName: map-10c
!@!!Comment: ?
!@!!User: Bruker Instrument Administrator
!@!!Site: University of Illinois Chicago
!@!!Frame: map-10c_01_000.gfrm
!@!!Wavelengths    1.54184   1.54056   1.54439
!@!!Frame angles: 2Theta: 63.000 Omega: 50.000 Phi: 0.000 Chi: 90.000
!@!!Integration range: 2Theta: 53.000 to 73.000  Gamma: -105.000 to -75.000
!@!!Integration method: bin normalized
!@!N
!@!SS
!@!M
!@!L 0.0 0.0 0.0 0.0
!@!XDegrees
!@!YCounts
53.000 8.913447
53.005 9.234572
53.010 9.012889
53.015 8.33894
53.020 8.090731
53.025 7.947901
53.030 7.97712
53.035 7.967244
53.040 7.703903
53.045 7.534307
53.050 7.527296
53.055 7.980857
53.060 8.356358
53.065 8.90399
53.070 9.094449
53.075 9.745981
53.080 9.877751
53.085 10.013789
53.090 10.143488
53.095 9.856154
53.100 9.673287
53.105 9.403347
53.110 9.174587
53.115 9.218119
53.120 9.033774
53.125 9.660168
53.130 9.692468
53.135 9.284144
53.140 8.690254
53.145 8.522145
53.150 8.938394
53.155 8.472646
53.160 7.913935
53.165 8.164115
53.170 8.658795
53.175 8.946688
53.180 9.07641
53.185 9.352584
53.190 9.85263
53.195 10.421517
53.200 10.444756
53.205 10.667538
53.210 10.795378
53.215 10.860786
53.220 10.53608
53.225 10.050802
53.230 9.764388
53.235 9.643101
53.240 9.411065
53.245 9.012824
53.250 8.732727
53.255 8.832614
53.260 9.403579
53.265 9.203793
53.270 9.117479
53.275 9.128239
53.280 9.166274
53.285 9.453753
53.290 9.73554
53.295 9.438421
53.300 9.880143
53.305 9.993484
53.310 10.002
53.315 10.344428
53.320 10.353433
53.325 10.114227
53.330 9.557403
53.335 9.412633
53.340 9.326861
53.345 9.291636
53.350 9.798431
53.355 9.486362
53.360 9.547586
53.365 9.798303
53.370 9.536102
53.375 9.77634
53.380 9.549699
53.385 8.974789
53.390 9.161817
53.395 9.140818
53.400 9.07665
53.405 8.85864
53.410 8.582617
53.415 8.782952
53.420 9.17742
53.425 9.037996
53.430 8.924952
53.435 9.002316
53.440 9.552309
53.445 10.031396
53.450 9.921704
53.455 9.548957
53.460 9.984773
53.465 10.186504
53.470 10.747255
53.475 10.739065
53.480 9.962787
53.485 9.296057
53.490 9.102874
53.495 8.591897
53.500 8.289042
53.505 7.625242
53.510 7.642793
53.515 8.254146
53.520 9.191478
53.525 9.269774
53.530 9.688711
53.535 9.730492
53.540 9.806204
53.545 9.658312
53.550 9.48639
53.555 9.585312
53.560 9.247113
53.565 9.635619
53.570 10.148379
53.575 9.84767
53.580 9.633284
53.585 9.45657
53.590 9.259524
53.595 9.848635
53.600 9.556269
53.605 9.306604
53.610 9.65819
53.615 9.885545
53.620 10.322103
53.625 10.293149
53.630 9.730618
53.635 9.721414
53.640 9.597754
53.645 9.547812
53.650 9.353228
53.655 8.876144
53.660 8.731257
53.665 8.741436
53.670 9.173128
53.675 9.490904
53.680 9.569133
53.685 9.485433
53.690 9.593363
53.695 9.861957
53.700 9.965692
53.705 9.459366
53.710 9.349169
53.715 9.535097
53.720 9.533524
53.725 9.488754
53.730 9.662811
53.735 9.768144
53.740 10.034063
53.745 10.151517
53.750 10.175779
53.755 10.44414
53.760 10.325705
53.765 9.893368
53.770 9.893019
53.775 10.455193
53.780 10.282752
53.785 10.637968
53.790 10.508236
53.795 10.635951
53.800 10.860165
53.805 10.912036
53.810 11.04153
53.815 10.971184
53.820 10.696977
53.825 10.581534
53.830 10.62332
53.835 10.533726
53.840 10.155348
53.845 9.594969
53.850 9.348874
53.855 9.310306
53.860 9.857382
53.865 10.272976
53.870 10.432811
53.875 10.575995
53.880 11.011315
53.885 11.190978
53.890 11.099879
53.895 10.527206
53.900 10.364904
53.905 10.088264
53.910 10.365854
53.915 10.256316
53.920 10.370516
53.925 10.354888
53.930 10.685376
53.935 10.581686
53.940 10.509706
53.945 10.341081
53.950 10.393562
53.955 10.511146
53.960 10.36318
53.965 10.362206
53.970 10.764421
53.975 10.888967
53.980 11.075636
53.985 11.108974
53.990 11.094647
53.995 11.440286
54.000 11.424613
54.005 11.292684
54.010 11.315336
54.015 11.565118
54.020 11.940681
54.025 11.894321
54.030 11.299079
54.035 10.68469
54.040 10.485765
54.045 10.397134
54.050 10.096167
54.055 10.023119
54.060 10.38842
54.065 11.057418
54.070 11.781019
54.075 12.026233
54.080 11.800896
54.085 11.712474
54.090 11.716576
54.095 11.863064
54.100 11.517125
54.105 11.221019
54.110 10.941731
54.115 10.906748
54.120 10.781178
54.125 10.347007
54.130 10.288051
54.135 10.451548
54.140 11.092161
54.145 11.339354
54.150 11.71996
54.155 12.228609
54.160 12.48099
54.165 12.408106
54.170 12.193871
54.175 11.768022
54.180 12.008801
54.185 11.483008
54.190 11.427604
54.195 11.504366
54.200 11.416622
54.205 11.235164
54.210 11.011753
54.215 11.17682
54.220 11.367553
54.225 11.365705
54.230 10.994142
54.235 10.929572
54.240 11.464804
54.245 11.19329
54.250 10.821456
54.255 10.840451
54.260 11.055484
54.265 11.102447
54.270 11.155203
54.275 11.073126
54.280 11.376777
54.285 11.706701
54.290 11.329159
54.295 11.122135
54.300 11.00878
54.305 10.884391
54.310 10.772921
54.315 10.616812
54.320 10.632614
54.325 10.425393
54.330 10.335991
54.335 10.56506
54.340 10.320745
54.345 10.12346
54.350 9.986721
54.355 9.516628
54.360 9.734052
54.365 9.601051
54.370 9.198382
54.375 9.186898
54.380 9.499737
54.385 9.561438
54.390 9.970571
54.395 10.226689
54.400 10.587793
54.405 11.284734
54.410 11.79646
54.415 11.575853
54.420 11.394788
54.425 11.119243
54.430 11.085688
54.435 11.184793
54.440 11.068174
54.445 11.271468
54.450 11.621137
54.455 12.184056
54.460 12.269036
54.465 11.864542
54.470 11.756197
54.475 11.166065
54.480 10.698751
54.485 10.510117
54.490 10.201653
54.495 10.732414
54.500 11.086602
54.505 11.373508
54.510 11.78628
54.515 12.422698
54.520 12.709286
54.525 12.596605
54.530 12.479219
54.535 11.850845
54.540 11.352218
54.545 11.439232
54.550 11.587262
54.555 11.293006
54.560 11.036055
54.565 10.922743
54.570 11.405151
54.575 11.475554
54.580 11.29254
54.585 11.093754
54.590 11.480482
54.595 11.722705
54.600 11.805733
54.605 11.869811
54.610 12.036961
54.615 11.915702
54.620 11.55011
54.625 11.372416
54.630 11.548774
54.635 11.126534
54.640 10.827131
54.645 10.22675
54.650 10.320086
54.655 10.384012
54.660 10.265696
54.665 10.327378
54.670 10.932778
54.675 11.502589
54.680 11.51649
54.685 11.785325
54.690 11.964854
54.695 11.793185
54.700 11.878243
54.705 11.725
54.710 12.138103
54.715 12.036722
54.720 12.054086
54.725 12.213887
54.730 12.372271
54.735 11.948781
54.740 11.405746
54.745 10.549844
54.750 10.689892
54.755 9.994816
54.760 9.824691
54.765 10.027263
54.770 10.026192
54.775 10.367856
54.780 10.753296
54.785 11.048875
54.790 11.576365
54.795 11.98168
54.800 12.140213
54.805 12.619209
54.810 12.817649
54.815 13.107086
54.820 12.684555
54.825 12.703597
54.830 12.292541
54.835 12.201056
54.840 12.108422
54.845 12.154055
54.850 11.708591
54.855 11.708196
54.860 11.100966
54.865 10.94282
54.870 10.463223
54.875 10.145837
54.880 9.924685
54.885 10.360242
54.890 10.379793
54.895 10.518084
54.900 11.124354
54.905 11.623309
54.910 11.766007
54.915 12.052226
54.920 12.277115
54.925 12.466331
54.930 12.266765
54.935 11.965163
54.940 11.956011
54.945 12.19679
54.950 12.216692
54.955 11.662289
54.960 11.965182
54.965 12.299024
54.970 12.563782
54.975 12.747994
54.980 12.484068
54.985 12.430934
54.990 12.26908
54.995 11.697434
55.000 11.134124
55.005 10.672586
55.010 11.001479
55.015 10.975411
55.020 10.804535
55.025 11.027005
55.030 11.518102
55.035 12.247412
55.040 12.549323
55.045 12.510314
55.050 13.154992
55.055 13.92754
55.060 14.126214
55.065 13.968981
55.070 13.550142
55.075 13.632866
55.080 13.671312
55.085 13.053023
55.090 12.829868
55.095 12.952112
55.100 13.121309
55.105 13.18725
55.110 12.827852
55.115 12.587529
55.120 12.682799
55.125 12.160602
55.130 12.54937
55.135 12.594241
55.140 12.804456
55.145 12.747369
55.150 12.814896
55.155 13.047351
55.160 13.124939
55.165 12.709075
55.170 12.409875
55.175 12.33211
55.180 12.525
55.185 12.926233
55.190 12.589305
55.195 12.471575
55.200 12.278528
55.205 12.528386
55.210 12.582138
55.215 12.209989
55.220 12.019742
55.225 12.026012
55.230 11.876464
55.235 11.786674
55.240 11.635579
55.245 11.928187
55.250 11.854687
55.255 11.677734
55.260 11.808635
55.265 11.960348
55.270 12.310357
55.275 12.060003
55.280 12.081195
55.285 12.029082
55.290 11.623308
55.295 11.736609
55.300 11.87018
55.305 11.845189
55.310 11.943428
55.315 12.060328
55.320 12.239691
55.325 13.013745
55.330 12.856185
55.335 12.824961
55.340 13.009474
55.345 12.541873
55.350 12.514791
55.355 12.550702
55.360 12.315477
55.365 11.986691
55.370 11.537972
55.375 11.139481
55.380 11.117179
55.385 11.184655
55.390 11.194734
55.395 11.495399
55.400 11.857101
55.405 12.209249
55.410 12.486075
55.415 12.261643
55.420 11.77912
55.425 11.605171
55.430 11.614372
55.435 11.641404
55.440 11.58647
55.445 11.32616
55.450 11.495066
55.455 11.649718
55.460 11.551135
55.465 11.717268
55.470 12.107634
55.475 12.441534
55.480 12.403252
55.485 12.428867
55.490 12.390483
55.495 12.315103
55.500 12.282401
55.505 12.005458
55.510 12.297494
55.515 12.430882
55.520 12.040364
55.525 12.47981
55.530 12.111762
55.535 12.243615
55.540 12.621714
55.545 12.121227
55.550 12.185882
55.555 12.554034
55.560 12.31745
55.565 12.115129
55.570 11.989865
55.575 11.772988
55.580 11.911868
55.585 12.014232
55.590 12.102942
55.595 12.511281
55.600 12.786613
55.605 12.461951
55.610 12.24186
55.615 12.34586
55.620 12.505557
55.625 12.310575
55.630 12.388713
55.635 12.484653
55.640 12.376216
55.645 12.13615
55.650 11.94344
55.655 12.361605
55.660 12.725305
55.665 12.896478
55.670 13.281683
55.675 13.603039
55.680 14.188124
55.685 14.642052
55.690 14.104578
55.695 14.043102
55.700 13.769333
55.705 13.302054
55.710 13.376756
55.715 12.887305
55.720 12.799972
55.725 13.082973
55.730 12.60481
55.735 12.563039
55.740 12.181366
55.745 11.437161
55.750 11.383852
55.755 11.235883
55.760 11.478741
55.765 11.630327
55.770 11.268261
55.775 12.248021
55.780 12.596317
55.785 12.562743
55.790 12.274016
55.795 12.036758
55.800 11.8028
55.805 11.967968
55.810 11.497518
55.815 11.977342
55.820 12.529969
55.825 12.681013
55.830 12.673805
55.835 13.572577
55.840 13.60904
55.845 13.777997
55.850 13.439469
55.855 12.967893
55.860 13.007983
55.865 13.180732
55.870 12.517388
55.875 13.17767
55.880 13.108456
55.885 13.105218
55.890 12.983891
55.895 13.157862
55.900 13.05476
55.905 12.418885
55.910 12.334486
55.915 12.299583
55.920 12.154155
55.925 12.469427
55.930 12.551149
55.935 13.049574
55.940 13.726383
55.945 13.806557
55.950 13.829006
55.955 14.033683
55.960 13.758835
55.965 13.549318
55.970 13.411792
55.975 12.962183
55.980 13.287287
55.985 13.786794
55.990 14.059743
55.995 13.914293
56.000 14.093198
56.005 14.010695
56.010 13.812174
56.015 13.037052
56.020 12.585114
56.025 12.689198
56.030 12.39543
56.035 12.011808
56.040 12.499846
56.045 12.812758
56.050 13.160732
56.055 12.916177
56.060 13.00778
56.065 13.561679
56.070 13.257183
56.075 13.041068
56.080 13.106882
56.085 13.254734
56.090 12.897712
56.095 12.751013
56.100 12.591466
56.105 12.8341
56.110 12.4655
56.115 12.434197
56.120 12.479582
56.125 12.591106
56.130 12.447807
56.135 12.659029
56.140 12.579011
56.145 12.602828
56.150 12.635996
56.155 12.591795
56.160 12.944431
56.165 12.941891
56.170 12.814437
56.175 12.86226
56.180 13.57161
56.185 13.433544
56.190 13.525368
56.195 13.132831
56.200 13.145137
56.205 13.452063
56.210 13.292361
56.215 13.490324
56.220 14.083091
56.225 14.083525
56.230 14.911637
56.235 14.873278
56.240 14.520072
56.245 14.924045
56.250 14.472416
56.255 14.449262
56.260 14.538568
56.265 14.434607
56.270 14.303788
56.275 14.063921
56.280 13.457374
56.285 12.972264
56.290 12.79602
56.295 12.732554
56.300 12.850629
56.305 13.135607
56.310 13.038811
56.315 13.292737
56.320 13.471505
56.325 13.720494
56.330 13.547564
56.335 13.376617
56.340 13.530447
56.345 13.637876
56.350 13.919445
56.355 13.760089
56.360 13.02873
56.365 12.917963
56.370 12.832954
56.375 12.524238
56.380 12.563943
56.385 12.168378
56.390 12.135388
56.395 12.386959
56.400 12.195179
56.405 12.313138
56.410 12.621258
56.415 12.571234
56.420 13.017627
56.425 13.35774
56.430 13.59651
56.435 13.782423
56.440 14.098907
56.445 14.222334
56.450 14.124055
56.455 13.671952
56.460 13.326769
56.465 13.013448
56.470 12.820072
56.475 11.919978
56.480 11.749062
56.485 12.077293
56.490 12.464617
56.495 13.252901
56.500 13.572572
56.505 14.155632
56.510 14.737144
56.515 15.015212
56.520 14.797104
56.525 14.181349
56.530 13.871656
56.535 13.925696
56.540 13.74269
56.545 13.654846
56.550 13.790102
56.555 14.242225
56.560 15.501052
56.565 15.668648
56.570 15.495405
56.575 15.964063
56.580 16.528347
56.585 16.712948
56.590 16.657492
56.595 15.806538
56.600 15.689523
56.605 15.888472
56.610 15.720236
56.615 14.865722
56.620 14.12252
56.625 14.242547
56.630 13.991554
56.635 14.180124
56.640 13.465237
56.645 13.29883
56.650 13.506602
56.655 14.009656
56.660 13.970347
56.665 14.085592
56.670 14.022173
56.675 14.420403
56.680 13.980201
56.685 14.136734
56.690 14.047071
56.695 14.370812
56.700 14.500603
56.705 14.465553
56.710 14.353747
56.715 14.544503
56.720 14.175829
56.725 14.220958
56.730 13.636142
56.735 13.291992
56.740 13.833519
56.745 14.250979
56.750 14.64658
56.755 14.61674
56.760 14.12819
56.765 14.118139
56.770 14.254518
56.775 13.642709
56.780 14.126049
56.785 13.794109
56.790 13.871886
56.795 14.199543
56.800 14.200511
56.805 14.14747
56.810 14.062709
56.815 13.716241
56.820 14.032095
56.825 14.206541
56.830 14.378585
56.835 14.709289
56.840 15.173307
56.845 15.118638
56.850 14.832318
56.855 14.819057
56.860 14.773924
56.865 15.091309
56.870 15.24611
56.875 15.213347
56.880 15.319047
56.885 14.966135
56.890 14.736265
56.895 13.901795
56.900 13.424911
56.905 13.211169
56.910 12.798694
56.915 12.808284
56.920 12.875737
56.925 13.007563
56.930 13.614373
56.935 13.316924
56.940 13.36697
56.945 13.385654
56.950 13.571952
56.955 13.974515
56.960 14.137792
56.965 13.860192
56.970 13.914172
56.975 14.145856
56.980 14.168025
56.985 13.877913
56.990 13.723005
56.995 13.291707
57.000 13.088857
57.005 13.107846
57.010 12.862824
57.015 13.089891
57.020 13.397003
57.025 13.541834
57.030 13.865382
57.035 13.990193
57.040 14.251698
57.045 14.349856
57.050 14.527238
57.055 14.363354
57.060 14.893286
57.065 15.18104
57.070 15.395123
57.075 15.258484
57.080 15.02449
57.085 14.967044
57.090 15.025745
57.095 14.895674
57.100 14.781668
57.105 14.580564
57.110 14.684916
57.115 14.454627
57.120 13.912813
57.125 14.016322
57.130 13.834221
57.135 14.310247
57.140 14.589995
57.145 15.151037
57.150 15.558428
57.155 15.653863
57.160 15.169263
57.165 14.706201
57.170 14.122434
57.175 13.498645
57.180 13.039587
57.185 13.010011
57.190 13.387889
57.195 13.670887
57.200 14.027111
57.205 14.456054
57.210 14.582651
57.215 14.664299
57.220 14.418803
57.225 13.952851
57.230 13.706695
57.235 13.979572
57.240 14.402504
57.245 14.485524
57.250 14.184461
57.255 14.156937
57.260 14.828447
57.265 15.169931
57.270 14.580199
57.275 13.926006
57.280 14.638021
57.285 14.941689
57.290 14.89292
57.295 14.665395
57.300 14.421892
57.305 14.330173
57.310 14.219926
57.315 13.383322
57.320 13.010821
57.325 12.788437
57.330 12.71134
57.335 12.599153
57.340 12.272623
57.345 12.567791
57.350 12.696794
57.355 13.268579
57.360 13.932167
57.365 13.723071
57.370 13.864341
57.375 14.109476
57.380 13.925629
57.385 13.684834
57.390 13.588293
57.395 14.01011
57.400 14.264965
57.405 14.992352
57.410 14.870058
57.415 14.993651
57.420 14.898002
57.425 14.733052
57.430 14.387755
57.435 14.02918
57.440 13.943653
57.445 14.280526
57.450 13.925095
57.455 14.253583
57.460 13.817737
57.465 13.868345
57.470 13.938241
57.475 13.567023
57.480 13.279371
57.485 13.538253
57.490 13.346744
57.495 13.819858
57.500 14.237189
57.505 14.674892
57.510 14.815113
57.515 14.930132
57.520 15.166291
57.525 15.38327
57.530 15.28722
57.535 14.704459
57.540 14.806772
57.545 14.919076
57.550 15.158579
57.555 15.848052
57.560 15.839457
57.565 15.762292
57.570 15.91732
57.575 15.436387
57.580 16.035423
57.585 16.071394
57.590 15.292966
57.595 15.554759
57.600 15.775333
57.605 15.536113
57.610 15.327847
57.615 14.19772
57.620 14.14431
57.625 14.592455
57.630 13.764038
57.635 13.318518
57.640 13.754613
57.645 13.564804
57.650 13.605961
57.655 13.772674
57.660 13.953668
57.665 14.317941
57.670 14.548279
57.675 14.233316
57.680 15.120699
57.685 15.282403
57.690 15.516603
57.695 15.47248
57.700 15.838877
57.705 15.947455
57.710 15.897121
57.715 15.586601
57.720 15.122216
57.725 14.71666
57.730 14.405219
57.735 14.157511
57.740 14.069174
57.745 14.101961
57.750 14.2057
57.755 14.86189
57.760 15.28228
57.765 15.553435
57.770 15.497468
57.775 15.449421
57.780 15.660504
57.785 15.463651
57.790 15.255303
57.795 15.445745
57.800 15.517702
57.805 15.568563
57.810 15.639742
57.815 15.525017
57.820 15.790557
57.825 15.771095
57.830 15.393076
57.835 14.590967
57.840 14.529603
57.845 14.593806
57.850 13.91638
57.855 13.458422
57.860 13.568453
57.865 13.965816
57.870 14.828274
57.875 15.049337
57.880 15.215629
57.885 15.85683
57.890 15.813604
57.895 15.482862
57.900 15.781468
57.905 15.952888
57.910 15.454069
57.915 15.530684
57.920 15.771299
57.925 16.378651
57.930 17.064341
57.935 16.71839
57.940 16.597303
57.945 16.559328
57.950 16.331335
57.955 16.004917
57.960 15.352721
57.965 15.057239
57.970 14.978177
57.975 14.913692
57.980 15.057771
57.985 15.542448
57.990 15.745213
57.995 15.419232
58.000 14.941455
58.005 14.782187
58.010 15.21476
58.015 15.492433
58.020 15.302854
58.025 15.748416
58.030 15.911071
58.035 16.254519
58.040 16.430084
58.045 16.176023
58.050 15.974566
58.055 15.811035
58.060 15.421706
58.065 16.072849
58.070 16.062605
58.075 16.224356
58.080 15.839952
58.085 16.017427
58.090 16.303135
58.095 16.091082
58.100 15.211737
58.105 14.830173
58.110 14.679714
58.115 14.873081
58.120 14.765825
58.125 14.296366
58.130 14.568129
58.135 14.726786
58.140 14.569841
58.145 14.282009
58.150 13.888625
58.155 13.705827
58.160 13.85107
58.165 14.137156
58.170 14.379071
58.175 15.318848
58.180 15.377528
58.185 15.522399
58.190 15.469598
58.195 15.011018
58.200 15.137642
58.205 15.068885
58.210 14.943601
58.215 15.280777
58.220 15.461634
58.225 15.308836
58.230 15.633638
58.235 15.675638
58.240 16.048161
58.245 16.311708
58.250 16.369587
58.255 16.519367
58.260 16.783113
58.265 16.92329
58.270 16.76996
58.275 16.26544
58.280 15.955491
58.285 16.36062
58.290 15.968595
58.295 16.117649
58.300 15.78317
58.305 15.980177
58.310 16.044037
58.315 14.989742
58.320 14.783151
58.325 14.928087
58.330 14.65869
58.335 15.309037
58.340 15.286633
58.345 15.485335
58.350 16.554564
58.355 17.485342
58.360 17.943054
58.365 17.804995
58.370 18.122328
58.375 17.797228
58.380 17.732107
58.385 16.966557
58.390 16.093813
58.395 16.434557
58.400 16.903708
58.405 15.791297
58.410 15.436489
58.415 15.236801
58.420 15.643796
58.425 15.815413
58.430 15.295233
58.435 15.233106
58.440 15.510792
58.445 15.403146
58.450 15.642612
58.455 15.11651
58.460 14.803779
58.465 15.215724
58.470 15.388566
58.475 16.01095
58.480 16.5522
