!@!!GADDS PLOTSO FILE: Chi integration type
!@!!Title/SampleName: map-d4
!@!!Comment: ?
!@!!User: Bruker Instrument Administrator
!@!!Site: University of Illinois Chicago
!@!!Frame: map-d4_01_000.gfrm
!@!!Wavelengths    1.54184   1.54056   1.54439
!@!!Frame angles: 2Theta: 63.000 Omega: 50.000 Phi: 0.000 Chi: 90.000
!@!!Integration range: 2Theta: 53.000 to 73.000  Gamma: -105.000 to -75.000
!@!!Integration method: bin normalized
!@!N
!@!SS
!@!M
!@!L 0.0 0.0 0.0 0.0
!@!XDegrees
!@!YCounts
53.000 7.456741
53.005 7.412664
53.010 7.630003
53.015 7.702267
53.020 7.729001
53.025 8.157198
53.030 8.202601
53.035 7.983276
53.040 7.946741
53.045 8.224529
53.050 8.164952
53.055 7.704247
53.060 7.445105
53.065 7.310027
53.070 7.03021
53.075 6.880379
53.080 6.463462
53.085 6.265528
53.090 6.252958
53.095 6.386986
53.100 6.876681
53.105 7.001434
53.110 7.047873
53.115 6.797339
53.120 6.841467
53.125 6.615718
53.130 6.377904
53.135 6.318575
53.140 7.154712
53.145 7.253741
53.150 7.762673
53.155 8.366156
53.160 8.399656
53.165 8.292283
53.170 8.188143
53.175 7.752808
53.180 7.455421
53.185 7.301055
53.190 7.064482
53.195 7.28218
53.200 7.529061
53.205 7.520307
53.210 7.284521
53.215 7.178465
53.220 7.173096
53.225 7.516298
53.230 7.550196
53.235 7.612038
53.240 7.786954
53.245 8.275391
53.250 8.744159
53.255 8.463607
53.260 8.178617
53.265 8.241694
53.270 8.015199
53.275 8.060968
53.280 7.86522
53.285 7.539834
53.290 7.214627
53.295 7.022293
53.300 7.061167
53.305 7.301745
53.310 7.03372
53.315 7.209829
53.320 7.395459
53.325 7.590584
53.330 7.930153
53.335 8.085975
53.340 8.122448
53.345 7.997398
53.350 8.049306
53.355 8.570515
53.360 9.03419
53.365 8.723549
53.370 8.586105
53.375 8.578554
53.380 8.29173
53.385 8.427413
53.390 7.99332
53.395 7.718895
53.400 7.735803
53.405 7.617028
53.410 7.781257
53.415 8.341985
53.420 7.86095
53.425 7.808344
53.430 7.736394
53.435 8.02776
53.440 8.176667
53.445 7.899868
53.450 7.713601
53.455 7.910417
53.460 8.104752
53.465 7.903422
53.470 7.576272
53.475 7.49363
53.480 7.746987
53.485 7.912443
53.490 8.16653
53.495 8.104813
53.500 8.36982
53.505 8.466172
53.510 8.648967
53.515 8.793934
53.520 8.616875
53.525 8.482825
53.530 8.486511
53.535 8.880538
53.540 8.993563
53.545 8.803322
53.550 9.057365
53.555 9.107292
53.560 9.687313
53.565 9.777336
53.570 9.772127
53.575 9.914259
53.580 10.04309
53.585 9.56047
53.590 9.200294
53.595 8.700295
53.600 8.464509
53.605 8.157148
53.610 8.000825
53.615 7.553453
53.620 7.576119
53.625 8.545825
53.630 8.96308
53.635 9.469305
53.640 9.993831
53.645 10.265532
53.650 10.622674
53.655 10.381476
53.660 9.518251
53.665 9.184256
53.670 8.766135
53.675 8.205537
53.680 7.902002
53.685 7.807353
53.690 7.891467
53.695 7.90624
53.700 8.042378
53.705 8.01765
53.710 7.997932
53.715 8.226552
53.720 8.11093
53.725 8.170033
53.730 8.15934
53.735 8.148848
53.740 8.192387
53.745 8.194503
53.750 8.202469
53.755 8.283262
53.760 8.158553
53.765 8.263361
53.770 8.703215
53.775 9.056164
53.780 9.380409
53.785 9.672285
53.790 9.816012
53.795 10.112279
53.800 10.193343
53.805 10.114236
53.810 10.23912
53.815 10.220199
53.820 10.320038
53.825 10.238522
53.830 10.025282
53.835 9.499818
53.840 9.069905
53.845 9.000854
53.850 8.926851
53.855 8.677302
53.860 8.714271
53.865 8.693803
53.870 9.019973
53.875 9.210225
53.880 8.870394
53.885 8.560249
53.890 8.449605
53.895 8.237307
53.900 8.003853
53.905 8.027073
53.910 7.826606
53.915 7.938536
53.920 8.409964
53.925 8.484749
53.930 8.817992
53.935 8.8415
53.940 8.711082
53.945 9.274146
53.950 9.377833
53.955 9.262333
53.960 9.424932
53.965 9.381095
53.970 9.435291
53.975 9.158313
53.980 8.74717
53.985 9.032016
53.990 8.599871
53.995 8.436139
54.000 8.615005
54.005 8.488919
54.010 9.30311
54.015 9.2612
54.020 9.249726
54.025 9.880552
54.030 10.609555
54.035 11.350712
54.040 11.343213
54.045 10.804736
54.050 10.454819
54.055 10.171934
54.060 9.804599
54.065 8.930386
54.070 8.412723
54.075 8.668637
54.080 9.051407
54.085 9.047209
54.090 9.296066
54.095 9.50375
54.100 9.592069
54.105 9.243171
54.110 8.856746
54.115 8.719979
54.120 8.891836
54.125 8.830254
54.130 8.496405
54.135 9.297962
54.140 9.87813
54.145 10.27734
54.150 10.352231
54.155 10.317985
54.160 9.898713
54.165 10.085014
54.170 9.590751
54.175 9.705441
54.180 9.638872
54.185 9.846187
54.190 10.141682
54.195 10.465537
54.200 10.509604
54.205 10.348236
54.210 9.676274
54.215 9.667357
54.220 9.515152
54.225 9.524471
54.230 9.476768
54.235 9.355302
54.240 9.563524
54.245 9.259789
54.250 9.656634
54.255 9.558483
54.260 9.758158
54.265 9.754456
54.270 9.762794
54.275 10.021257
54.280 10.490114
54.285 10.361026
54.290 10.30091
54.295 9.879519
54.300 9.923479
54.305 10.093883
54.310 9.631789
54.315 9.629931
54.320 9.71975
54.325 10.151027
54.330 10.470281
54.335 10.331534
54.340 10.239871
54.345 10.816992
54.350 10.499123
54.355 10.21013
54.360 9.583076
54.365 9.346951
54.370 9.085259
54.375 9.157556
54.380 8.637007
54.385 8.417157
54.390 8.704685
54.395 9.164915
54.400 9.143614
54.405 9.316993
54.410 9.148122
54.415 9.490963
54.420 9.853587
54.425 9.654277
54.430 9.2786
54.435 9.182248
54.440 9.361421
54.445 9.510985
54.450 9.19855
54.455 9.333103
54.460 9.694822
54.465 10.286455
54.470 10.527935
54.475 10.627006
54.480 10.550179
54.485 10.390822
54.490 9.558048
54.495 9.281684
54.500 9.179508
54.505 9.201144
54.510 9.215117
54.515 9.027767
54.520 9.20507
54.525 9.868477
54.530 9.92974
54.535 9.875946
54.540 9.850837
54.545 9.865534
54.550 10.178404
54.555 10.101974
54.560 9.886309
54.565 9.598903
54.570 9.129869
54.575 9.378996
54.580 9.364783
54.585 9.498201
54.590 9.259613
54.595 9.016887
54.600 9.564351
54.605 9.580644
54.610 9.170575
54.615 9.333477
54.620 9.264009
54.625 9.548556
54.630 9.999525
54.635 9.834401
54.640 9.564253
54.645 9.855714
54.650 9.699063
54.655 9.563327
54.660 9.63553
54.665 9.312935
54.670 9.353095
54.675 9.877818
54.680 9.433838
54.685 9.252235
54.690 9.013641
54.695 8.716754
54.700 8.737246
54.705 8.876792
54.710 8.582076
54.715 8.996697
54.720 9.284568
54.725 9.425832
54.730 9.331994
54.735 9.290099
54.740 9.413659
54.745 9.28201
54.750 9.122872
54.755 9.272851
54.760 9.840174
54.765 10.143128
54.770 9.974278
54.775 10.073256
54.780 10.452316
54.785 10.457007
54.790 10.077599
54.795 9.770477
54.800 9.41529
54.805 9.173531
54.810 9.31216
54.815 9.247128
54.820 9.407244
54.825 9.704395
54.830 9.866503
54.835 10.138436
54.840 10.401406
54.845 10.398787
54.850 10.166203
54.855 9.877433
54.860 9.623339
54.865 9.360831
54.870 9.382298
54.875 9.497995
54.880 9.675339
54.885 9.930655
54.890 10.281656
54.895 10.421019
54.900 10.787913
54.905 10.807192
54.910 9.988893
54.915 9.747525
54.920 10.13767
54.925 10.197317
54.930 10.215933
54.935 10.528466
54.940 11.149118
54.945 11.474303
54.950 11.542574
54.955 11.17377
54.960 11.356754
54.965 11.43715
54.970 10.896514
54.975 10.985755
54.980 10.934054
54.985 11.067823
54.990 11.231215
54.995 10.732526
55.000 10.498043
55.005 10.468363
55.010 10.301462
55.015 10.258514
55.020 9.960454
55.025 9.739098
55.030 10.064178
55.035 10.055476
55.040 9.890438
55.045 9.719839
55.050 9.774916
55.055 10.012748
55.060 10.793118
55.065 11.096373
55.070 11.349089
55.075 11.958693
55.080 12.452904
55.085 12.862038
55.090 12.669608
55.095 12.050967
55.100 11.992433
55.105 12.035336
55.110 11.834238
55.115 11.247184
55.120 10.961729
55.125 10.737531
55.130 10.765439
55.135 10.922406
55.140 10.859798
55.145 10.955297
55.150 10.982111
55.155 11.123559
55.160 11.649529
55.165 11.491243
55.170 11.019674
55.175 10.891262
55.180 10.941227
55.185 10.936008
55.190 10.32687
55.195 9.631629
55.200 9.490826
55.205 9.351655
55.210 9.116458
55.215 9.054942
55.220 9.150157
55.225 9.074244
55.230 9.200921
55.235 9.245221
55.240 9.32194
55.245 9.006386
55.250 8.76462
55.255 8.34881
55.260 8.599854
55.265 9.209085
55.270 9.101641
55.275 9.26071
55.280 9.84391
55.285 10.004266
55.290 10.013072
55.295 10.135317
55.300 9.57073
55.305 9.585392
55.310 9.550678
55.315 9.023069
55.320 9.113671
55.325 9.619871
55.330 9.561943
55.335 9.957032
55.340 9.887514
55.345 9.794913
55.350 10.15168
55.355 10.398642
55.360 10.112599
55.365 10.079234
55.370 10.078108
55.375 10.570491
55.380 10.712173
55.385 10.899809
55.390 11.18646
55.395 11.606288
55.400 12.121542
55.405 11.84137
55.410 11.501643
55.415 10.957147
55.420 10.374806
55.425 10.100988
55.430 9.377312
55.435 8.945246
55.440 9.596061
55.445 10.02456
55.450 10.354517
55.455 10.616008
55.460 10.489999
55.465 10.576722
55.470 10.653257
55.475 10.495932
55.480 10.376186
55.485 10.537575
55.490 10.547977
55.495 10.372005
55.500 10.784377
55.505 10.555767
55.510 10.390708
55.515 11.049002
55.520 11.412545
55.525 11.255304
55.530 11.427032
55.535 11.382734
55.540 11.62715
55.545 11.781668
55.550 11.492414
55.555 11.509297
55.560 11.834157
55.565 11.689061
55.570 11.237815
55.575 10.922319
55.580 10.742208
55.585 10.250157
55.590 10.090517
55.595 9.967864
55.600 10.025489
55.605 10.093876
55.610 10.208036
55.615 9.874027
55.620 9.876754
55.625 9.689887
55.630 10.285327
55.635 10.555335
55.640 10.813295
55.645 10.255186
55.650 10.166456
55.655 10.295277
55.660 9.969439
55.665 9.961226
55.670 9.450523
55.675 9.189848
55.680 9.54961
55.685 10.406028
55.690 10.884424
55.695 11.03245
55.700 10.952971
55.705 11.710094
55.710 12.175318
55.715 12.19909
55.720 11.637041
55.725 11.149117
55.730 11.151703
55.735 10.84255
55.740 10.15626
55.745 10.262241
55.750 10.809715
55.755 10.91304
55.760 11.049734
55.765 11.184128
55.770 11.282916
55.775 11.625507
55.780 11.284576
55.785 11.182009
55.790 11.158466
55.795 11.039681
55.800 11.02969
55.805 10.811454
55.810 10.574354
55.815 10.79682
55.820 10.844274
55.825 10.810008
55.830 10.421231
55.835 10.580401
55.840 10.846622
55.845 11.184196
55.850 11.036689
55.855 10.925399
55.860 11.506596
55.865 11.960471
55.870 11.528006
55.875 11.651178
55.880 11.335713
55.885 11.755671
55.890 11.658476
55.895 11.250855
55.900 10.92243
55.905 11.060807
55.910 11.404254
55.915 11.360785
55.920 11.42775
55.925 11.297462
55.930 11.953465
55.935 12.018423
55.940 12.021502
55.945 12.234356
55.950 12.514972
55.955 12.197501
55.960 12.397586
55.965 11.870636
55.970 12.010909
55.975 12.192312
55.980 11.828054
55.985 11.841093
55.990 11.537164
55.995 11.298968
56.000 11.566253
56.005 11.518032
56.010 10.918004
56.015 10.551702
56.020 10.374099
56.025 10.180676
56.030 9.967114
56.035 9.859104
56.040 9.885991
56.045 9.831718
56.050 10.206723
56.055 10.438853
56.060 10.539389
56.065 10.898427
56.070 10.830684
56.075 11.102069
56.080 11.934662
56.085 11.883843
56.090 12.128718
56.095 12.273116
56.100 12.365637
56.105 12.596301
56.110 12.355721
56.115 11.699136
56.120 11.691257
56.125 11.774846
56.130 11.517263
56.135 11.383433
56.140 11.56017
56.145 11.866135
56.150 11.867689
56.155 11.867621
56.160 12.137718
56.165 12.249454
56.170 12.337658
56.175 12.19316
56.180 12.117504
56.185 11.914357
56.190 11.808132
56.195 11.562548
56.200 11.505033
56.205 11.416157
56.210 11.296862
56.215 11.06154
56.220 11.072256
56.225 11.232824
56.230 11.352204
56.235 11.898226
56.240 11.968801
56.245 11.944259
56.250 12.506515
56.255 12.757722
56.260 12.556137
56.265 12.782459
56.270 12.673807
56.275 13.082946
56.280 13.224238
56.285 12.825979
56.290 12.396114
56.295 12.582754
56.300 12.039541
56.305 11.949608
56.310 11.656736
56.315 11.40717
56.320 11.489299
56.325 11.187871
56.330 11.205124
56.335 11.435081
56.340 11.00857
56.345 10.628569
56.350 10.619587
56.355 10.2635
56.360 10.157408
56.365 9.86119
56.370 9.539944
56.375 9.037577
56.380 8.999796
56.385 9.319974
56.390 9.948884
56.395 10.098606
56.400 10.489203
56.405 10.365452
56.410 10.707071
56.415 10.692984
56.420 10.715925
56.425 10.865603
56.430 11.16685
56.435 10.921899
56.440 11.029582
56.445 11.14924
56.450 11.140397
56.455 10.767034
56.460 10.835723
56.465 10.550389
56.470 11.023789
56.475 11.643789
56.480 11.645809
56.485 11.989316
56.490 11.871992
56.495 11.779211
56.500 11.845205
56.505 11.420628
56.510 11.182735
56.515 11.053652
56.520 11.176202
56.525 11.591468
56.530 11.675035
56.535 11.565466
56.540 11.555821
56.545 11.617531
56.550 11.749713
56.555 11.898877
56.560 11.912283
56.565 11.387711
56.570 11.19295
56.575 11.5578
56.580 11.784301
56.585 11.691445
56.590 11.410067
56.595 11.423677
56.600 11.514387
56.605 11.659857
56.610 11.24622
56.615 10.850946
56.620 10.41862
56.625 10.02781
56.630 10.326937
56.635 10.581414
56.640 10.638789
56.645 11.060447
56.650 11.490206
56.655 11.902989
56.660 12.160848
56.665 12.30883
56.670 12.759211
56.675 13.029397
56.680 12.548573
56.685 12.467352
56.690 12.796493
56.695 12.949494
56.700 12.704781
56.705 12.26385
56.710 12.186782
56.715 12.370167
56.720 12.437448
56.725 12.301699
56.730 11.989379
56.735 11.597458
56.740 11.846649
56.745 11.857608
56.750 12.122575
56.755 12.032014
56.760 12.080379
56.765 12.493808
56.770 12.969919
56.775 13.026167
56.780 12.971168
56.785 12.923784
56.790 12.975239
56.795 13.000615
56.800 13.012516
56.805 12.744346
56.810 12.334265
56.815 11.817122
56.820 11.756576
56.825 11.779626
56.830 11.655328
56.835 11.62377
56.840 11.269579
56.845 11.179848
56.850 11.673637
56.855 11.889034
56.860 11.975567
56.865 11.58393
56.870 11.152774
56.875 11.06102
56.880 11.427399
56.885 11.51432
56.890 11.205062
56.895 11.015088
56.900 11.740734
56.905 12.434278
56.910 12.777913
56.915 12.650348
56.920 12.127516
56.925 12.225031
56.930 12.072231
56.935 11.738153
56.940 11.368924
56.945 11.481021
56.950 11.333911
56.955 11.695208
56.960 11.958006
56.965 12.379216
56.970 12.675403
56.975 12.953259
56.980 12.707217
56.985 12.925108
56.990 12.358149
56.995 11.790998
57.000 11.528454
57.005 11.82144
57.010 12.214869
57.015 12.403874
57.020 12.272101
57.025 12.58153
57.030 12.474561
57.035 11.814383
57.040 10.51832
57.045 10.115325
57.050 10.175184
57.055 10.20274
57.060 10.548352
57.065 11.302708
57.070 12.167589
57.075 12.393955
57.080 12.68934
57.085 12.733105
57.090 12.99349
57.095 13.217447
57.100 13.070924
57.105 13.10789
57.110 13.326118
57.115 13.026718
57.120 12.949878
57.125 13.019895
57.130 12.627272
57.135 12.539514
57.140 12.144479
57.145 12.270431
57.150 12.849194
57.155 12.638152
57.160 12.090741
57.165 12.415397
57.170 12.600006
57.175 12.923246
57.180 12.389109
57.185 12.155118
57.190 12.517607
57.195 12.691379
57.200 12.288593
57.205 11.7025
57.210 11.858117
57.215 12.00835
57.220 11.949883
57.225 11.970801
57.230 12.023827
57.235 12.182415
57.240 12.575745
57.245 13.017124
57.250 13.041262
57.255 12.96564
57.260 12.837229
57.265 12.90903
57.270 12.74342
57.275 12.824801
57.280 11.755186
57.285 11.857055
57.290 11.847612
57.295 11.840692
57.300 11.785997
57.305 12.004479
57.310 11.733492
57.315 12.300049
57.320 12.677067
57.325 12.688411
57.330 13.149706
57.335 13.400654
57.340 13.246173
57.345 13.288375
57.350 13.256057
57.355 13.030093
57.360 12.929152
57.365 13.026527
57.370 13.201005
57.375 13.410892
57.380 13.967415
57.385 14.451949
57.390 14.864131
57.395 15.267274
57.400 15.192803
57.405 15.183775
57.410 15.192982
57.415 15.241074
57.420 14.867655
57.425 13.977988
57.430 13.345256
57.435 12.934086
57.440 13.14902
57.445 12.980609
57.450 12.474959
57.455 12.44693
57.460 12.795741
57.465 13.074703
57.470 12.998824
57.475 12.957992
57.480 12.942905
57.485 13.010756
57.490 13.282723
57.495 13.318954
57.500 13.130112
57.505 13.191588
57.510 12.897968
57.515 12.861963
57.520 12.725715
57.525 12.498491
57.530 12.578937
57.535 12.090222
57.540 11.639328
57.545 12.065389
57.550 12.261527
57.555 12.475227
57.560 12.310545
57.565 12.207952
57.570 12.503494
57.575 12.751171
57.580 12.564939
57.585 12.526194
57.590 12.873466
57.595 13.323582
57.600 13.492625
57.605 13.685972
57.610 13.072638
57.615 12.609847
57.620 12.649696
57.625 12.568488
57.630 12.048197
57.635 12.097803
57.640 12.583343
57.645 13.015189
57.650 13.486638
57.655 13.786
57.660 13.65909
57.665 13.858166
57.670 13.868982
57.675 13.546824
57.680 13.318569
57.685 12.892653
57.690 13.129306
57.695 13.983773
57.700 14.528288
57.705 14.534564
57.710 14.691203
57.715 15.220881
57.720 15.167688
57.725 14.45683
57.730 13.769587
57.735 13.547462
57.740 13.954081
57.745 14.125899
57.750 14.324625
57.755 14.298375
57.760 14.282487
57.765 14.332514
57.770 13.898705
57.775 13.788634
57.780 13.317847
57.785 12.926162
57.790 13.112276
57.795 13.485792
57.800 13.464365
57.805 13.505161
57.810 13.242478
57.815 13.444508
57.820 13.31358
57.825 12.787934
57.830 12.200172
57.835 12.472852
57.840 12.583222
57.845 12.707681
57.850 12.970798
57.855 12.96355
57.860 12.981617
57.865 13.034552
57.870 13.264768
57.875 13.54778
57.880 13.144265
57.885 12.804168
57.890 13.102426
57.895 13.577237
57.900 13.434257
57.905 13.096556
57.910 13.000314
57.915 13.475764
57.920 13.85375
57.925 13.637829
57.930 13.140038
57.935 13.443305
57.940 13.086581
57.945 13.435316
57.950 13.995367
57.955 14.065749
57.960 14.552181
57.965 14.672455
57.970 14.469481
57.975 14.792756
57.980 14.604375
57.985 13.361073
57.990 13.207186
57.995 13.009734
58.000 13.07283
58.005 12.434947
58.010 11.849086
58.015 11.676085
58.020 11.98865
58.025 12.116287
58.030 12.504951
58.035 12.857667
58.040 13.849037
58.045 14.571269
58.050 14.807169
58.055 14.781554
58.060 14.532449
58.065 14.264135
58.070 13.982925
58.075 13.61905
58.080 13.16715
58.085 13.007753
58.090 13.037394
58.095 12.792176
58.100 12.59128
58.105 12.479964
58.110 12.697675
58.115 12.965083
58.120 13.128243
58.125 13.06518
58.130 13.268476
58.135 13.348097
58.140 13.707256
58.145 14.016303
58.150 13.86894
58.155 14.127938
58.160 14.217988
58.165 14.00077
58.170 14.396504
58.175 14.263606
58.180 13.42526
58.185 13.444535
58.190 13.016317
58.195 13.148517
58.200 13.056999
58.205 12.562786
58.210 12.39301
58.215 12.683686
58.220 12.801849
58.225 12.86825
58.230 12.75915
58.235 12.921228
58.240 12.905331
58.245 12.576633
58.250 12.315112
58.255 12.179085
58.260 12.612714
58.265 13.221698
58.270 13.186094
58.275 13.200232
58.280 13.271065
58.285 13.774568
58.290 13.549436
58.295 12.69835
58.300 12.458551
58.305 13.158151
58.310 13.448392
58.315 13.661747
58.320 13.198108
58.325 13.427686
58.330 13.490999
58.335 13.317741
58.340 13.363175
58.345 13.181305
58.350 13.46982
58.355 13.895023
58.360 14.19153
58.365 14.846066
58.370 15.035313
58.375 14.761505
58.380 15.221752
58.385 15.246907
58.390 15.593971
58.395 15.502193
58.400 15.01988
58.405 14.752501
58.410 14.50956
58.415 14.103018
58.420 13.46968
58.425 13.010491
58.430 13.38084
58.435 14.092145
58.440 14.536603
58.445 14.658227
58.450 15.20533
58.455 15.833935
58.460 15.89389
58.465 15.464163
58.470 15.01856
58.475 14.623948
58.480 14.766307
58.485 14.312932
58.490 14.14538
58.495 14.541479
58.500 14.483019
58.505 14.527564
58.510 14.62807
58.515 14.686447
58.520 14.615992
58.525 14.69667
58.530 14.72664
58.535 14.857376
58.540 14.783396
58.545 14.771521
58.550 14.54828
