!@!!GADDS PLOTSO FILE: Chi integration type
!@!!Title/SampleName: map-180
!@!!Comment: ?
!@!!User: Bruker Instrument Administrator
!@!!Site: University of Illinois Chicago
!@!!Frame: map-180_01_000.gfrm
!@!!Wavelengths    1.54184   1.54056   1.54439
!@!!Frame angles: 2Theta: 63.000 Omega: 50.000 Phi: 0.000 Chi: 90.000
!@!!Integration range: 2Theta: 53.000 to 73.000  Gamma: -105.000 to -75.000
!@!!Integration method: bin normalized
!@!N
!@!SS
!@!M
!@!L 0.0 0.0 0.0 0.0
!@!XDegrees
!@!YCounts
53.000 8.130835
53.005 7.979679
53.010 7.759859
53.015 7.977275
53.020 7.908504
53.025 7.667366
53.030 7.365938
53.035 7.314123
53.040 7.310495
53.045 7.115517
53.050 7.041889
53.055 7.121113
53.060 7.50025
53.065 7.776167
53.070 7.802849
53.075 8.264962
53.080 7.930289
53.085 7.731629
53.090 8.068935
53.095 7.987758
53.100 8.064644
53.105 8.2518
53.110 8.220297
53.115 8.582672
53.120 8.430925
53.125 8.012048
53.130 7.853936
53.135 7.793723
53.140 7.27591
53.145 6.750696
53.150 6.638113
53.155 6.549546
53.160 6.277519
53.165 6.505189
53.170 6.211677
53.175 6.669622
53.180 6.536992
53.185 6.257409
53.190 6.705527
53.195 7.083788
53.200 7.315069
53.205 7.486612
53.210 7.446415
53.215 7.849466
53.220 7.722281
53.225 7.55206
53.230 7.783474
53.235 7.458301
53.240 7.492275
53.245 7.417163
53.250 7.936264
53.255 8.36779
53.260 8.207761
53.265 8.335025
53.270 8.095202
53.275 7.870103
53.280 7.772947
53.285 7.245124
53.290 7.333831
53.295 7.665048
53.300 7.830939
53.305 8.320127
53.310 8.757724
53.315 8.591643
53.320 8.657341
53.325 8.294922
53.330 7.928565
53.335 7.922785
53.340 7.420568
53.345 7.352034
53.350 7.692073
53.355 7.967779
53.360 7.825995
53.365 7.544721
53.370 7.703173
53.375 8.054873
53.380 7.989158
53.385 7.792674
53.390 7.892212
53.395 8.055743
53.400 8.230153
53.405 7.990717
53.410 7.671697
53.415 7.825315
53.420 7.961218
53.425 7.650665
53.430 7.386352
53.435 7.558994
53.440 7.610247
53.445 7.652178
53.450 7.486351
53.455 7.211321
53.460 7.462987
53.465 7.665845
53.470 7.453411
53.475 7.189342
53.480 6.999761
53.485 6.834448
53.490 6.815747
53.495 6.656769
53.500 6.735874
53.505 6.993133
53.510 7.105036
53.515 6.92434
53.520 7.137757
53.525 7.070073
53.530 6.887102
53.535 6.55875
53.540 6.722625
53.545 6.899532
53.550 7.13191
53.555 7.347407
53.560 8.001933
53.565 8.272565
53.570 8.112774
53.575 7.843089
53.580 7.895092
53.585 8.120832
53.590 8.003304
53.595 7.751812
53.600 7.754976
53.605 8.081565
53.610 8.482877
53.615 8.334645
53.620 8.264231
53.625 8.270907
53.630 8.36971
53.635 8.010429
53.640 7.796659
53.645 7.645811
53.650 7.886958
53.655 7.774948
53.660 7.475552
53.665 7.528316
53.670 8.218037
53.675 8.068792
53.680 8.069366
53.685 8.095137
53.690 8.279163
53.695 8.543083
53.700 8.470129
53.705 8.10409
53.710 8.258919
53.715 7.9102
53.720 7.962601
53.725 8.066937
53.730 8.136521
53.735 7.890515
53.740 7.886336
53.745 7.883898
53.750 8.234655
53.755 8.148153
53.760 7.498719
53.765 7.522589
53.770 8.22017
53.775 8.428271
53.780 8.373515
53.785 8.086669
53.790 8.41491
53.795 8.605263
53.800 8.175967
53.805 8.028113
53.810 8.140108
53.815 8.175292
53.820 8.421844
53.825 8.474454
53.830 8.634493
53.835 8.529709
53.840 8.356013
53.845 8.527814
53.850 8.692923
53.855 8.539577
53.860 8.522968
53.865 8.698551
53.870 9.113807
53.875 9.135201
53.880 8.74394
53.885 8.668975
53.890 8.634306
53.895 8.316777
53.900 8.116277
53.905 8.077674
53.910 8.073208
53.915 7.790684
53.920 7.463235
53.925 7.465345
53.930 8.157726
53.935 8.296707
53.940 8.126793
53.945 8.252455
53.950 8.492577
53.955 8.668992
53.960 8.343556
53.965 8.106398
53.970 8.143116
53.975 8.182003
53.980 8.518548
53.985 8.879212
53.990 8.969811
53.995 9.260724
54.000 8.77921
54.005 8.647151
54.010 8.553605
54.015 7.860286
54.020 7.480716
54.025 7.255055
54.030 7.214034
54.035 7.686796
54.040 7.799839
54.045 7.967505
54.050 8.431868
54.055 8.700165
54.060 8.737617
54.065 8.878394
54.070 8.333541
54.075 8.149588
54.080 8.186167
54.085 7.961078
54.090 7.748861
54.095 7.283477
54.100 6.804991
54.105 6.991322
54.110 6.959669
54.115 6.843223
54.120 6.635412
54.125 7.018324
54.130 7.685249
54.135 7.881793
54.140 7.922345
54.145 7.949241
54.150 8.187049
54.155 8.632565
54.160 8.430646
54.165 8.219196
54.170 8.052721
54.175 7.893999
54.180 7.89396
54.185 7.798462
54.190 7.48841
54.195 7.314512
54.200 7.940077
54.205 8.38325
54.210 8.245762
54.215 8.094543
54.220 8.033508
54.225 8.032365
54.230 8.220227
54.235 7.928856
54.240 7.821927
54.245 7.963907
54.250 8.304803
54.255 8.697832
54.260 8.84478
54.265 8.521722
54.270 8.145256
54.275 7.966047
54.280 7.569436
54.285 7.131153
54.290 6.718449
54.295 6.463643
54.300 6.626078
54.305 7.213476
54.310 7.091803
54.315 6.914575
54.320 6.998067
54.325 7.240895
54.330 7.344844
54.335 7.277709
54.340 7.352048
54.345 8.109324
54.350 8.314341
54.355 8.468857
54.360 8.212989
54.365 8.252814
54.370 7.981628
54.375 7.634772
54.380 7.307242
54.385 7.734035
54.390 7.830934
54.395 8.126684
54.400 8.28203
54.405 8.486231
54.410 8.925011
54.415 9.146074
54.420 8.945745
54.425 8.544756
54.430 8.167322
54.435 8.102962
54.440 7.919169
54.445 7.799849
54.450 7.636836
54.455 7.671548
54.460 8.021358
54.465 8.064545
54.470 8.407835
54.475 8.207588
54.480 7.849716
54.485 7.681674
54.490 7.922409
54.495 7.869408
54.500 7.689694
54.505 7.308494
54.510 7.374043
54.515 7.697374
54.520 7.794355
54.525 7.58687
54.530 7.863297
54.535 8.327297
54.540 8.407028
54.545 8.365885
54.550 8.158852
54.555 7.768299
54.560 7.525752
54.565 7.292265
54.570 7.552715
54.575 7.732218
54.580 7.848198
54.585 8.124716
54.590 8.661899
54.595 8.840604
54.600 8.45275
54.605 8.357546
54.610 8.115293
54.615 8.081967
54.620 7.983301
54.625 7.795094
54.630 7.550775
54.635 7.786161
54.640 7.513328
54.645 8.357518
54.650 8.526398
54.655 8.278345
54.660 8.172366
54.665 8.247798
54.670 7.871437
54.675 7.527708
54.680 6.875042
54.685 6.881912
54.690 7.334531
54.695 7.129561
54.700 7.299321
54.705 7.453257
54.710 7.389207
54.715 7.539385
54.720 7.336473
54.725 7.466164
54.730 7.62484
54.735 7.687216
54.740 7.49519
54.745 7.673645
54.750 7.782162
54.755 7.588393
54.760 7.492421
54.765 7.655278
54.770 7.861209
54.775 8.185971
54.780 8.065537
54.785 7.981357
54.790 8.037712
54.795 8.059915
54.800 7.824859
54.805 7.941705
54.810 7.842992
54.815 7.789918
54.820 7.882255
54.825 7.866377
54.830 7.943595
54.835 8.109355
54.840 7.809155
54.845 8.580802
54.850 9.035587
54.855 9.231061
54.860 8.965089
54.865 8.724534
54.870 8.804996
54.875 8.715611
54.880 8.397601
54.885 8.106799
54.890 8.146324
54.895 8.572529
54.900 8.97145
54.905 9.32428
54.910 9.593211
54.915 9.781865
54.920 9.834122
54.925 9.489524
54.930 9.476082
54.935 8.903165
54.940 8.349161
54.945 8.278827
54.950 7.945704
54.955 8.053459
54.960 8.100261
54.965 8.15888
54.970 8.610705
54.975 9.235398
54.980 9.342833
54.985 9.591639
54.990 9.469292
54.995 9.616461
55.000 9.931218
55.005 9.459496
55.010 8.961841
55.015 8.934205
55.020 8.647966
55.025 9.109544
55.030 8.730525
55.035 8.647183
55.040 8.860761
55.045 9.007393
55.050 9.278481
55.055 9.247668
55.060 9.036283
55.065 9.014681
55.070 8.835997
55.075 8.874843
55.080 8.824265
55.085 8.534291
55.090 8.739841
55.095 8.881351
55.100 8.725574
55.105 8.558678
55.110 7.648509
55.115 7.669835
55.120 7.950452
55.125 7.926539
55.130 8.045047
55.135 8.420777
55.140 8.58874
55.145 8.865291
55.150 8.656953
55.155 8.061662
55.160 7.855527
55.165 8.00195
55.170 7.93245
55.175 7.663799
55.180 7.720434
55.185 7.582958
55.190 8.259957
55.195 8.343202
55.200 8.030879
55.205 8.226241
55.210 8.489262
55.215 8.419797
55.220 8.791089
55.225 8.599449
55.230 8.681877
55.235 8.439438
55.240 8.297503
55.245 8.551105
55.250 8.560746
55.255 8.02656
55.260 7.658067
55.265 7.445139
55.270 7.727372
55.275 8.070233
55.280 7.870657
55.285 7.40413
55.290 7.198173
55.295 7.194815
55.300 7.207412
55.305 6.914108
55.310 6.412099
55.315 6.831746
55.320 7.258749
55.325 7.71973
55.330 8.096809
55.335 8.233198
55.340 8.410551
55.345 8.492188
55.350 8.714387
55.355 8.902228
55.360 8.887849
55.365 8.512698
55.370 8.299896
55.375 8.24544
55.380 8.129816
55.385 8.080579
55.390 7.809569
55.395 7.984608
55.400 8.40904
55.405 9.019258
55.410 9.46078
55.415 9.498323
55.420 9.499329
55.425 9.712887
55.430 9.79701
55.435 9.460299
55.440 8.89475
55.445 8.724998
55.450 8.846911
55.455 8.800469
55.460 8.768247
55.465 8.7574
55.470 9.097612
55.475 9.406832
55.480 9.731074
55.485 9.620385
55.490 9.888798
55.495 10.120801
55.500 9.861971
55.505 9.638572
55.510 9.437933
55.515 9.122701
55.520 8.822135
55.525 8.327169
55.530 8.023896
55.535 8.213209
55.540 8.343013
55.545 8.114499
55.550 8.076076
55.555 8.494067
55.560 8.629549
55.565 8.403053
55.570 7.735445
55.575 7.281116
55.580 7.352521
55.585 7.106345
55.590 6.437233
55.595 6.606621
55.600 6.810876
55.605 6.818329
55.610 6.724873
55.615 6.820714
55.620 7.155025
55.625 6.949881
55.630 6.681025
55.635 6.840056
55.640 7.453032
55.645 7.745381
55.650 8.101265
55.655 8.241059
55.660 8.55932
55.665 8.362271
55.670 7.75853
55.675 7.383286
55.680 6.947929
55.685 6.642037
55.690 7.093939
55.695 7.598888
55.700 8.278041
55.705 8.51426
55.710 9.196389
55.715 9.623789
55.720 9.23103
55.725 8.803535
55.730 8.351187
55.735 7.953546
55.740 7.810571
55.745 7.162797
55.750 7.303183
55.755 7.795309
55.760 7.551761
55.765 7.260283
55.770 7.665116
55.775 7.576338
55.780 7.468218
55.785 7.514879
55.790 7.377704
55.795 7.551066
55.800 7.628125
55.805 7.715547
55.810 8.072404
55.815 8.215199
55.820 7.604611
55.825 7.476579
55.830 7.718556
55.835 8.256577
55.840 8.000261
55.845 8.234153
55.850 8.863839
55.855 9.371078
55.860 9.305854
55.865 9.096544
55.870 8.720723
55.875 8.912526
55.880 8.312359
55.885 7.599193
55.890 7.502245
55.895 7.553663
55.900 7.300422
55.905 7.095297
55.910 7.125692
55.915 7.45099
55.920 7.631125
55.925 7.619557
55.930 7.788974
55.935 8.213784
55.940 8.4258
55.945 8.593644
55.950 8.850662
55.955 9.103858
55.960 8.991702
55.965 8.741879
55.970 8.556702
55.975 8.431425
55.980 8.348718
55.985 8.132239
55.990 7.815228
55.995 7.934111
56.000 7.76858
56.005 8.048879
56.010 7.899358
56.015 7.556483
56.020 7.388316
56.025 7.382635
56.030 7.536065
56.035 7.989598
56.040 8.019473
56.045 8.207915
56.050 8.26833
56.055 8.632654
56.060 8.438535
56.065 8.368937
56.070 8.143356
56.075 8.052485
56.080 7.895213
56.085 8.233365
56.090 8.32291
56.095 8.513949
56.100 8.377209
56.105 8.132274
56.110 8.195382
56.115 8.351723
56.120 8.284878
56.125 8.086107
56.130 8.118646
56.135 7.974535
56.140 7.918769
56.145 7.794469
56.150 7.250456
56.155 7.140678
56.160 7.350178
56.165 7.397949
56.170 7.926264
56.175 8.335258
56.180 8.691504
56.185 8.938415
56.190 9.130067
56.195 9.322174
56.200 9.144642
56.205 8.635596
56.210 8.328187
56.215 8.341969
56.220 8.239381
56.225 8.142629
56.230 7.9988
56.235 8.445767
56.240 8.668981
56.245 9.001604
56.250 8.99791
56.255 8.835684
56.260 8.690694
56.265 8.116855
56.270 7.687831
56.275 7.504514
56.280 7.300889
56.285 7.37087
56.290 7.396046
56.295 7.563677
56.300 8.031404
56.305 7.946789
56.310 7.879168
56.315 7.990779
56.320 8.030732
56.325 8.018193
56.330 7.803332
56.335 7.797735
56.340 7.927178
56.345 8.176232
56.350 8.353581
56.355 8.702795
56.360 9.317652
56.365 9.677708
56.370 9.553908
56.375 9.639783
56.380 9.812315
56.385 9.651236
56.390 9.309418
56.395 9.156503
56.400 9.171103
56.405 9.287422
56.410 9.542071
56.415 9.288198
56.420 9.058031
56.425 9.037783
56.430 8.736442
56.435 8.514045
56.440 8.012414
56.445 7.895164
56.450 7.960661
56.455 8.096951
56.460 8.319242
56.465 8.341825
56.470 8.86911
56.475 9.25096
56.480 8.89844
56.485 8.85987
56.490 8.987195
56.495 8.990926
56.500 9.319514
56.505 9.296039
56.510 9.652154
56.515 9.903272
56.520 9.883294
56.525 9.788324
56.530 9.935171
56.535 9.764476
56.540 9.39268
56.545 9.079407
56.550 9.021055
56.555 9.327204
56.560 9.481574
56.565 9.321004
56.570 9.286593
56.575 9.734089
56.580 10.077608
56.585 10.268515
56.590 10.155453
56.595 9.978172
56.600 9.977794
56.605 10.173814
56.610 9.880758
56.615 9.631169
56.620 9.734776
56.625 9.380947
56.630 9.423127
56.635 9.257635
56.640 9.310055
56.645 9.420649
56.650 9.312009
56.655 9.048261
56.660 9.21474
56.665 9.019948
56.670 9.386718
56.675 9.537236
56.680 9.753918
56.685 10.143432
56.690 10.495153
56.695 10.58504
56.700 10.32937
56.705 9.980412
56.710 9.308861
56.715 9.070804
56.720 8.683917
56.725 8.660818
56.730 8.306402
56.735 8.665936
56.740 9.18452
56.745 9.756603
56.750 9.522008
56.755 9.468305
56.760 9.266263
56.765 9.263458
56.770 8.991186
56.775 8.874475
56.780 8.768543
56.785 8.932446
56.790 8.723762
56.795 8.6459
56.800 8.941159
56.805 8.640214
56.810 8.423973
56.815 8.187838
56.820 8.107679
56.825 8.060044
56.830 8.392679
56.835 8.077007
56.840 8.115191
56.845 7.89849
56.850 7.726813
56.855 7.503531
56.860 7.494861
56.865 7.342443
56.870 7.477353
56.875 7.155595
56.880 7.425451
56.885 7.844021
56.890 7.9412
56.895 7.676964
56.900 7.281209
56.905 6.948967
56.910 6.91256
56.915 6.956705
56.920 7.157681
56.925 7.412999
56.930 7.804439
56.935 8.006328
56.940 8.708049
56.945 9.023062
56.950 8.771086
56.955 8.605049
56.960 8.457485
56.965 8.4187
56.970 8.845783
56.975 8.645512
56.980 8.502666
56.985 8.973413
56.990 9.166065
56.995 9.457703
57.000 9.061972
57.005 8.385452
57.010 8.142958
57.015 8.017594
57.020 7.409586
57.025 7.248934
57.030 7.158284
57.035 7.387235
57.040 7.880934
57.045 7.982477
57.050 7.927983
57.055 8.043958
57.060 8.368572
57.065 8.449486
57.070 8.670554
57.075 8.543163
57.080 8.802567
57.085 9.304278
57.090 9.396588
57.095 9.053022
57.100 8.891261
57.105 8.518511
57.110 8.213037
57.115 8.009224
57.120 7.877103
57.125 7.937276
57.130 7.756832
57.135 7.670355
57.140 7.961078
57.145 7.916553
57.150 7.874725
57.155 7.504381
57.160 7.744962
57.165 7.784835
57.170 8.009588
57.175 8.24878
57.180 8.439545
57.185 8.16168
57.190 8.221573
57.195 8.38559
57.200 8.473857
57.205 8.46208
57.210 8.892732
57.215 8.934817
57.220 9.274276
57.225 8.86192
57.230 8.512119
57.235 8.542591
57.240 8.463043
57.245 8.293715
57.250 8.61262
57.255 8.541953
57.260 8.824873
57.265 8.928408
57.270 9.28442
57.275 9.162522
57.280 8.726324
57.285 8.697712
57.290 8.915361
57.295 8.987399
57.300 9.42159
57.305 9.033736
57.310 8.820422
57.315 8.816132
57.320 9.136713
57.325 9.100364
57.330 8.755692
57.335 8.314478
57.340 8.827233
57.345 9.321871
57.350 9.175659
57.355 8.563974
57.360 8.412373
57.365 8.282503
57.370 8.058372
57.375 7.835234
57.380 7.929609
57.385 8.063359
57.390 8.107669
57.395 8.696587
57.400 9.568166
57.405 9.29156
57.410 8.730228
57.415 8.615028
57.420 8.853742
57.425 8.763482
57.430 8.367043
57.435 7.984202
57.440 8.119331
57.445 8.407371
57.450 8.461095
57.455 8.436632
57.460 8.279194
57.465 8.459642
57.470 8.979842
57.475 9.310015
57.480 9.076316
57.485 8.726542
57.490 9.017964
57.495 9.184491
57.500 9.089305
57.505 8.794344
57.510 8.632085
57.515 8.846711
57.520 8.959026
57.525 8.867016
57.530 9.251212
57.535 9.086758
57.540 8.781054
57.545 8.797194
57.550 8.724565
57.555 8.557438
57.560 8.479456
57.565 8.416678
57.570 8.509535
57.575 8.625272
57.580 8.97206
57.585 9.042568
57.590 8.897674
57.595 8.318889
57.600 7.920659
57.605 7.849262
57.610 8.026645
57.615 7.462274
57.620 7.424514
57.625 8.200241
57.630 8.967049
57.635 9.374774
57.640 9.299346
57.645 8.94459
57.650 8.877759
57.655 8.852247
57.660 8.493386
57.665 8.134108
57.670 7.695323
57.675 7.363762
57.680 7.379841
57.685 7.780664
57.690 8.15915
57.695 8.164328
57.700 8.616853
57.705 9.277759
57.710 9.997343
57.715 10.418428
57.720 10.402585
57.725 9.993902
57.730 9.883565
57.735 9.467291
57.740 8.725357
57.745 8.25336
57.750 8.268353
57.755 8.097271
57.760 7.93741
57.765 7.574732
57.770 7.479575
57.775 7.476512
57.780 7.887805
57.785 7.62208
57.790 7.475397
57.795 7.480105
57.800 7.264841
57.805 7.404698
57.810 7.603192
57.815 7.574387
57.820 7.690391
57.825 7.608626
57.830 7.703518
57.835 8.426787
57.840 8.608963
57.845 8.788782
57.850 8.682381
57.855 8.572304
57.860 8.710006
57.865 8.409374
57.870 8.066524
57.875 7.888566
57.880 7.680453
57.885 7.559941
57.890 7.909019
57.895 8.353259
57.900 9.01028
57.905 9.502967
57.910 9.476406
57.915 9.313656
57.920 9.123639
57.925 9.539883
57.930 9.42091
57.935 9.293226
57.940 9.103433
57.945 8.937188
57.950 9.411385
57.955 9.873256
57.960 9.129633
57.965 8.849084
57.970 8.316621
57.975 7.899713
57.980 8.21695
57.985 7.717222
57.990 7.3297
57.995 7.602729
58.000 8.057508
58.005 8.492073
58.010 8.666382
58.015 8.589354
58.020 8.736058
58.025 8.608889
58.030 8.238088
58.035 8.1466
58.040 8.183477
58.045 8.338669
58.050 8.296394
58.055 8.122184
58.060 8.320089
58.065 8.526591
58.070 8.40801
58.075 8.086168
58.080 8.160742
58.085 8.168428
58.090 8.132149
58.095 8.125019
58.100 7.901946
58.105 7.958482
58.110 8.308776
58.115 8.01613
58.120 7.683414
58.125 7.852637
58.130 7.924009
58.135 8.12141
58.140 7.961857
58.145 7.650808
58.150 8.04735
58.155 8.272155
58.160 8.236694
58.165 8.324671
58.170 8.198458
58.175 8.19311
58.180 8.216071
58.185 8.157364
58.190 8.491285
58.195 8.816182
58.200 8.792342
58.205 8.355739
58.210 8.472085
58.215 8.740767
58.220 8.701596
58.225 8.661593
58.230 8.209995
58.235 8.120466
58.240 8.353407
58.245 8.080761
58.250 7.774678
58.255 7.898511
58.260 7.932128
58.265 8.174412
58.270 8.328471
58.275 8.460093
58.280 8.804163
58.285 8.960845
58.290 9.245983
58.295 8.850677
58.300 8.755096
58.305 8.87831
58.310 8.709634
58.315 8.138788
58.320 7.761022
58.325 7.445582
58.330 7.514211
58.335 7.231385
58.340 7.091098
58.345 7.657793
58.350 8.121282
58.355 8.148922
58.360 8.094354
58.365 8.460527
58.370 8.990866
58.375 8.9402
58.380 8.394907
58.385 8.209
58.390 8.45343
58.395 8.55311
58.400 8.435111
58.405 8.163074
58.410 8.328449
58.415 8.30557
58.420 8.488896
58.425 8.15971
58.430 7.752286
58.435 7.468734
58.440 7.364275
58.445 7.214445
58.450 7.191019
58.455 7.395818
58.460 7.610986
58.465 8.00705
58.470 8.439807
58.475 8.713364
58.480 9.000013
58.485 9.326735
58.490 9.597766
58.495 10.152194
58.500 9.782769
58.505 9.521044
58.510 9.536674
58.515 9.600408
58.520 9.424478
58.525 9.540012
58.530 9.537455
58.535 9.773536
58.540 9.940898
58.545 9.70063
58.550 9.196641
58.555 8.768669
58.560 8.244685
58.565 8.021832
58.570 7.965548
58.575 8.318938
58.580 8.60499
58.585 9.169155
58.590 9.575631
58.595 9.396461
58.600 9.077969
58.605 8.83777
58.610 8.377319
58.615 8.122108
58.620 8.060261
58.625 8.288479
58.630 8.396146
58.635 9.09323
58.640 8.856894
58.645 8.660775
58.650 8.855112
58.655 8.818009
58.660 8.523319
58.665 8.788037
58.670 8.482351
58.675 8.726998
58.680 9.261025
58.685 9.163358
58.690 8.866903
58.695 9.058862
58.700 8.931305
58.705 9.300559
58.710 9.27792
58.715 9.085455
58.720 9.32696
58.725 9.532571
58.730 9.175834
58.735 8.842546
58.740 8.49663
58.745 8.533558
58.750 8.484083
58.755 8.283716
