!@!!GADDS PLOTSO FILE: Chi integration type
!@!!Title/SampleName: map-9d
!@!!Comment: ?
!@!!User: Bruker Instrument Administrator
!@!!Site: University of Illinois Chicago
!@!!Frame: map-9d_01_000.gfrm
!@!!Wavelengths    1.54184   1.54056   1.54439
!@!!Frame angles: 2Theta: 63.000 Omega: 50.000 Phi: 0.000 Chi: 90.000
!@!!Integration range: 2Theta: 53.000 to 73.000  Gamma: -105.000 to -75.000
!@!!Integration method: bin normalized
!@!N
!@!SS
!@!M
!@!L 0.0 0.0 0.0 0.0
!@!XDegrees
!@!YCounts
53.000 10.603998
53.005 10.402901
53.010 9.86609
53.015 9.084246
53.020 9.14857
53.025 9.117027
53.030 9.182425
53.035 9.153706
53.040 9.00393
53.045 9.181623
53.050 9.345045
53.055 9.366358
53.060 9.453979
53.065 9.394668
53.070 9.602938
53.075 9.551496
53.080 9.592317
53.085 10.207741
53.090 10.351322
53.095 10.722049
53.100 10.846558
53.105 10.815898
53.110 10.528794
53.115 10.166309
53.120 9.59772
53.125 9.356876
53.130 9.443095
53.135 9.348881
53.140 9.194975
53.145 9.294739
53.150 9.658862
53.155 9.822878
53.160 9.830054
53.165 9.451317
53.170 9.59366
53.175 9.558609
53.180 9.642265
53.185 9.269605
53.190 9.090249
53.195 9.096322
53.200 9.073583
53.205 9.551348
53.210 9.650396
53.215 9.401832
53.220 9.409639
53.225 9.506968
53.230 9.616234
53.235 9.372932
53.240 8.882545
53.245 9.150859
53.250 9.726746
53.255 9.773701
53.260 9.490923
53.265 9.405453
53.270 9.678675
53.275 9.466552
53.280 9.287267
53.285 9.283197
53.290 9.472446
53.295 9.865537
53.300 9.996403
53.305 9.956766
53.310 9.978972
53.315 10.254478
53.320 10.499599
53.325 10.933006
53.330 10.546087
53.335 10.429309
53.340 10.794897
53.345 11.112523
53.350 10.911995
53.355 11.066878
53.360 10.842619
53.365 10.995431
53.370 11.352585
53.375 11.50773
53.380 11.465551
53.385 11.980722
53.390 11.582352
53.395 11.921127
53.400 12.060856
53.405 11.420138
53.410 10.892861
53.415 10.426791
53.420 9.60503
53.425 9.39593
53.430 9.178186
53.435 9.045594
53.440 9.07174
53.445 9.098877
53.450 9.521905
53.455 10.069998
53.460 10.533904
53.465 10.368696
53.470 10.563345
53.475 11.016586
53.480 11.539149
53.485 11.608084
53.490 11.130523
53.495 10.337154
53.500 10.830336
53.505 11.31201
53.510 11.23863
53.515 11.16991
53.520 11.321793
53.525 11.534238
53.530 11.749979
53.535 11.451105
53.540 11.052857
53.545 10.895885
53.550 10.579009
53.555 10.326355
53.560 10.582361
53.565 10.448895
53.570 10.364525
53.575 10.283504
53.580 10.004072
53.585 10.056931
53.590 10.306085
53.595 10.353907
53.600 10.766989
53.605 10.672797
53.610 11.015171
53.615 11.342921
53.620 10.931458
53.625 10.534683
53.630 10.293769
53.635 9.852666
53.640 9.701487
53.645 9.243162
53.650 9.548625
53.655 10.070685
53.660 9.937346
53.665 9.939989
53.670 10.236537
53.675 10.461404
53.680 10.773156
53.685 10.556365
53.690 10.073312
53.695 10.367764
53.700 10.504357
53.705 10.290383
53.710 10.388291
53.715 10.300633
53.720 10.416649
53.725 10.124937
53.730 9.70871
53.735 9.691936
53.740 9.803802
53.745 9.621897
53.750 9.440029
53.755 9.705444
53.760 9.847578
53.765 10.164835
53.770 10.17492
53.775 10.45032
53.780 10.41948
53.785 10.261566
53.790 10.270533
53.795 10.764746
53.800 10.87319
53.805 10.868805
53.810 10.553685
53.815 10.792849
53.820 10.858802
53.825 10.822796
53.830 10.492421
53.835 10.715424
53.840 10.717537
53.845 10.958092
53.850 11.148025
53.855 11.162248
53.860 11.110192
53.865 11.37839
53.870 11.340771
53.875 11.645664
53.880 11.630754
53.885 11.779336
53.890 11.665967
53.895 11.382211
53.900 10.91554
53.905 10.609947
53.910 10.346963
53.915 10.170368
53.920 9.97929
53.925 10.568412
53.930 11.289384
53.935 11.77447
53.940 12.3862
53.945 12.504372
53.950 12.722983
53.955 12.575925
53.960 12.091568
53.965 11.91648
53.970 12.245377
53.975 12.066268
53.980 11.417304
53.985 11.013551
53.990 10.943365
53.995 11.233479
54.000 10.905467
54.005 9.74825
54.010 9.620177
54.015 10.246971
54.020 10.735496
54.025 10.715228
54.030 10.54168
54.035 10.634084
54.040 10.690446
54.045 10.940659
54.050 10.622109
54.055 10.647442
54.060 11.283206
54.065 11.838946
54.070 11.888654
54.075 12.181365
54.080 12.330698
54.085 12.312393
54.090 11.637264
54.095 10.892612
54.100 10.35578
54.105 10.440646
54.110 10.011243
54.115 9.843241
54.120 9.788775
54.125 10.224912
54.130 10.230239
54.135 10.360825
54.140 10.606943
54.145 10.850886
54.150 11.199923
54.155 11.382173
54.160 11.543525
54.165 11.7967
54.170 11.388523
54.175 11.313321
54.180 11.049137
54.185 11.011221
54.190 10.631533
54.195 10.450761
54.200 10.095457
54.205 10.204356
54.210 9.971007
54.215 10.06535
54.220 10.125079
54.225 10.427351
54.230 10.927793
54.235 11.15678
54.240 11.056686
54.245 11.627884
54.250 11.799175
54.255 11.829357
54.260 11.894723
54.265 11.486469
54.270 11.478217
54.275 11.586099
54.280 11.319506
54.285 11.191224
54.290 11.088745
54.295 10.679431
54.300 10.865983
54.305 11.034842
54.310 11.084632
54.315 10.54658
54.320 10.964888
54.325 11.157299
54.330 11.334814
54.335 11.49681
54.340 11.662256
54.345 11.8792
54.350 12.179489
54.355 11.875585
54.360 11.995606
54.365 12.069873
54.370 12.191818
54.375 12.27322
54.380 12.30671
54.385 11.896444
54.390 12.215787
54.395 11.865885
54.400 11.534337
54.405 11.383021
54.410 11.235564
54.415 11.6699
54.420 11.839605
54.425 11.533637
54.430 11.47006
54.435 12.15119
54.440 12.036711
54.445 11.990672
54.450 11.64962
54.455 11.426715
54.460 11.827731
54.465 11.909617
54.470 12.334437
54.475 12.538485
54.480 12.15526
54.485 12.104444
54.490 12.32709
54.495 12.208455
54.500 11.947569
54.505 11.155797
54.510 10.628517
54.515 11.054386
54.520 10.873034
54.525 10.323579
54.530 10.322337
54.535 10.468853
54.540 10.458916
54.545 10.911154
54.550 11.141813
54.555 11.578759
54.560 11.867281
54.565 11.856887
54.570 11.7357
54.575 11.918695
54.580 11.84788
54.585 11.758636
54.590 11.757752
54.595 11.89919
54.600 11.671808
54.605 11.716074
54.610 11.905312
54.615 12.02415
54.620 11.978774
54.625 11.871273
54.630 11.871082
54.635 12.22755
54.640 12.301644
54.645 11.543124
54.650 11.043894
54.655 10.878592
54.660 10.605544
54.665 10.542787
54.670 10.132709
54.675 9.901415
54.680 10.215917
54.685 9.888244
54.690 10.275837
54.695 10.408486
54.700 10.128394
54.705 10.395602
54.710 10.980384
54.715 11.081648
54.720 11.843714
54.725 12.24546
54.730 12.087724
54.735 12.455864
54.740 12.409612
54.745 12.1194
54.750 12.188792
54.755 11.550241
54.760 11.718722
54.765 12.078578
54.770 11.894266
54.775 11.571552
54.780 11.270387
54.785 11.078119
54.790 10.834932
54.795 10.871053
54.800 10.950155
54.805 10.934534
54.810 11.042009
54.815 11.296369
54.820 11.402848
54.825 11.427263
54.830 10.470382
54.835 10.169765
54.840 10.277626
54.845 10.68397
54.850 11.013093
54.855 11.302773
54.860 11.631742
54.865 11.977043
54.870 11.953461
54.875 12.1294
54.880 12.548566
54.885 12.35372
54.890 12.516544
54.895 12.579688
54.900 13.035177
54.905 13.463804
54.910 13.092377
54.915 12.6708
54.920 12.803369
54.925 12.421841
54.930 12.167554
54.935 11.65699
54.940 11.155369
54.945 11.495355
54.950 12.086747
54.955 11.98013
54.960 11.866889
54.965 11.764183
54.970 12.291356
54.975 12.815138
54.980 12.390667
54.985 11.850284
54.990 11.59082
54.995 11.823036
55.000 12.195552
55.005 11.729919
55.010 11.743696
55.015 11.641899
55.020 11.446186
55.025 11.78253
55.030 11.974146
55.035 12.183373
55.040 11.883332
55.045 12.15584
55.050 12.357129
55.055 12.700572
55.060 12.914803
55.065 12.255662
55.070 12.180641
55.075 12.465534
55.080 12.564841
55.085 12.626108
55.090 12.33322
55.095 12.39505
55.100 12.835294
55.105 13.153469
55.110 13.189179
55.115 12.714775
55.120 12.548699
55.125 12.513585
55.130 12.493714
55.135 12.114254
55.140 11.797886
55.145 11.456228
55.150 11.557531
55.155 11.619968
55.160 12.015715
55.165 12.122662
55.170 12.257146
55.175 12.30409
55.180 12.438462
55.185 12.399677
55.190 12.072096
55.195 11.851661
55.200 12.013293
55.205 11.893474
55.210 11.958295
55.215 11.875834
55.220 12.178834
55.225 12.125283
55.230 11.864099
55.235 11.780472
55.240 11.636302
55.245 11.599187
55.250 11.605444
55.255 11.497224
55.260 11.71379
55.265 11.889304
55.270 11.529795
55.275 11.24607
55.280 11.414743
55.285 11.440324
55.290 11.44291
55.295 11.080072
55.300 11.20271
55.305 11.685914
55.310 12.05724
55.315 11.875481
55.320 11.890433
55.325 12.421431
55.330 12.688551
55.335 12.508204
55.340 12.460591
55.345 12.305837
55.350 12.52593
55.355 12.466956
55.360 12.046158
55.365 12.03051
55.370 11.835475
55.375 11.415145
55.380 11.789254
55.385 11.905903
55.390 12.452634
55.395 12.713223
55.400 12.202943
55.405 12.362153
55.410 12.659585
55.415 12.457788
55.420 12.101918
55.425 12.327343
55.430 12.355093
55.435 12.576428
55.440 13.09001
55.445 12.577028
55.450 12.871988
55.455 12.728295
55.460 12.339128
55.465 12.928466
55.470 13.680263
55.475 13.892014
55.480 13.923534
55.485 13.720989
55.490 13.690638
55.495 14.062209
55.500 13.855501
55.505 12.835925
55.510 12.383224
55.515 12.229907
55.520 12.320423
55.525 11.696152
55.530 10.736075
55.535 10.923786
55.540 11.528585
55.545 11.77195
55.550 11.95099
55.555 12.252933
55.560 13.124682
55.565 13.856274
55.570 13.939555
55.575 13.962339
55.580 14.422585
55.585 14.689106
55.590 14.563041
55.595 14.579807
55.600 14.034594
55.605 13.410029
55.610 13.475743
55.615 13.249359
55.620 12.710463
55.625 12.486117
55.630 11.84642
55.635 11.702573
55.640 11.616449
55.645 11.065843
55.650 11.21518
55.655 11.790041
55.660 11.817128
55.665 11.693745
55.670 11.792184
55.675 12.017842
55.680 12.197642
55.685 12.424084
55.690 12.246734
55.695 12.470407
55.700 12.93385
55.705 13.096938
55.710 13.443935
55.715 13.415672
55.720 13.10428
55.725 13.507113
55.730 13.65227
55.735 13.723099
55.740 13.125353
55.745 12.851076
55.750 12.791863
55.755 12.130014
55.760 11.965497
55.765 11.863475
55.770 12.482901
55.775 13.251537
55.780 13.542672
55.785 13.557756
55.790 13.642789
55.795 13.016985
55.800 13.284142
55.805 12.974195
55.810 12.812631
55.815 12.619974
55.820 13.170469
55.825 13.65796
55.830 13.808334
55.835 13.265863
55.840 13.158007
55.845 13.36477
55.850 13.470062
55.855 12.941124
55.860 13.250542
55.865 13.438334
55.870 13.925982
55.875 13.9333
55.880 13.062695
55.885 13.019414
55.890 13.271494
55.895 12.787053
55.900 12.324625
55.905 11.835135
55.910 11.694203
55.915 12.080968
55.920 11.588785
55.925 11.583843
55.930 11.830591
55.935 12.000394
55.940 12.47843
55.945 13.176021
55.950 13.382838
55.955 13.866473
55.960 13.690128
55.965 13.727139
55.970 14.077991
55.975 13.539837
55.980 12.831614
55.985 12.425471
55.990 12.456014
55.995 12.627294
56.000 12.681138
56.005 12.301979
56.010 13.077942
56.015 13.820786
56.020 14.144047
56.025 14.363626
56.030 14.721895
56.035 14.821085
56.040 14.332257
56.045 14.295931
56.050 14.035929
56.055 14.252003
56.060 13.766807
56.065 13.645286
56.070 14.048022
56.075 14.342857
56.080 13.394411
56.085 13.036418
56.090 12.780496
56.095 12.610203
56.100 12.017907
56.105 11.2913
56.110 11.232421
56.115 11.965219
56.120 12.156325
56.125 11.943518
56.130 12.12013
56.135 12.402598
56.140 13.162938
56.145 13.00604
56.150 12.077452
56.155 12.179959
56.160 11.955761
56.165 11.871774
56.170 12.097208
56.175 11.809611
56.180 12.100397
56.185 12.497455
56.190 12.70812
56.195 12.894623
56.200 12.973465
56.205 12.93682
56.210 13.141465
56.215 13.570438
56.220 13.778874
56.225 13.660619
56.230 14.101164
56.235 13.962595
56.240 14.109689
56.245 13.692346
56.250 13.3444
56.255 13.722225
56.260 14.280294
56.265 14.008863
56.270 14.162848
56.275 13.753454
56.280 13.864855
56.285 14.111485
56.290 13.827328
56.295 13.660206
56.300 13.782373
56.305 14.142973
56.310 14.752326
56.315 14.645541
56.320 14.571289
56.325 14.388632
56.330 14.416022
56.335 14.187621
56.340 13.603933
56.345 13.535876
56.350 13.438481
56.355 13.222863
56.360 13.55968
56.365 13.871287
56.370 13.92693
56.375 13.606356
56.380 13.128666
56.385 12.814462
56.390 12.345945
56.395 11.46062
56.400 11.114819
56.405 11.200534
56.410 11.657019
56.415 11.983597
56.420 12.970311
56.425 13.613919
56.430 14.099064
56.435 14.27386
56.440 14.47508
56.445 14.511499
56.450 14.57583
56.455 14.061728
56.460 13.841277
56.465 14.013235
56.470 13.773923
56.475 13.488201
56.480 13.272214
56.485 12.67681
56.490 12.986622
56.495 12.921968
56.500 12.619496
56.505 12.997233
56.510 13.770988
56.515 14.266374
56.520 14.976304
56.525 15.283257
56.530 15.561437
56.535 15.924217
56.540 15.729911
56.545 15.387148
56.550 15.366066
56.555 15.069561
56.560 14.307617
56.565 13.900591
56.570 13.77249
56.575 14.173866
56.580 13.91729
56.585 14.095868
56.590 14.42429
56.595 15.052595
56.600 15.24349
56.605 15.049031
56.610 14.354071
56.615 14.252175
56.620 14.283021
56.625 13.845231
56.630 13.657672
56.635 13.341127
56.640 13.027741
56.645 13.475589
56.650 13.611359
56.655 13.560475
56.660 13.576777
56.665 13.354156
56.670 13.542805
56.675 13.956235
56.680 14.004221
56.685 14.17371
56.690 14.329502
56.695 14.591385
56.700 14.82881
56.705 15.007051
56.710 14.966283
56.715 14.768589
56.720 14.486969
56.725 14.815258
56.730 15.303337
56.735 15.344691
56.740 15.330895
56.745 15.863875
56.750 16.243048
56.755 16.257332
56.760 15.60635
56.765 15.19691
56.770 14.677994
56.775 14.445171
56.780 14.054418
56.785 13.762284
56.790 13.668679
56.795 14.094879
56.800 13.658357
56.805 13.896577
56.810 14.172273
56.815 14.391104
56.820 14.817498
56.825 14.604908
56.830 14.580941
56.835 15.265192
56.840 15.085909
56.845 14.434362
56.850 14.010793
56.855 13.605662
56.860 13.724274
56.865 13.728401
56.870 14.103153
56.875 14.644547
56.880 14.947727
56.885 15.176617
56.890 15.603316
56.895 15.644253
56.900 14.955075
56.905 14.45449
56.910 14.245034
56.915 14.571606
56.920 14.727612
56.925 14.641707
56.930 14.41081
56.935 14.23792
56.940 14.274906
56.945 13.960066
56.950 13.394409
56.955 13.493776
56.960 13.600101
56.965 14.119197
56.970 14.204659
56.975 14.170957
56.980 14.758826
56.985 14.87385
56.990 14.652173
56.995 14.14955
57.000 13.992363
57.005 14.372958
57.010 14.746569
57.015 14.34453
57.020 14.262745
57.025 14.089525
57.030 14.058666
57.035 14.354115
57.040 14.794712
57.045 14.71091
57.050 15.169518
57.055 15.536876
57.060 15.418664
57.065 15.497809
57.070 15.158404
57.075 15.107738
57.080 14.889977
57.085 14.305054
57.090 14.375326
57.095 15.109186
57.100 15.597845
57.105 15.492609
57.110 14.40682
57.115 14.615762
57.120 14.687802
57.125 14.050591
57.130 13.62742
57.135 13.240661
57.140 13.556806
57.145 14.311956
57.150 14.303482
57.155 14.118773
57.160 14.153036
57.165 14.063305
57.170 14.339805
57.175 14.204042
57.180 14.313037
57.185 14.249869
57.190 14.61927
57.195 14.493064
57.200 14.233108
57.205 13.861483
57.210 13.779263
57.215 13.650638
57.220 13.879602
57.225 14.363771
57.230 14.817927
57.235 14.968577
57.240 15.102429
57.245 14.958164
57.250 14.889943
57.255 14.423601
57.260 13.929167
57.265 14.112907
57.270 14.526718
57.275 14.291263
57.280 14.534135
57.285 14.905332
57.290 15.152862
57.295 15.7019
57.300 15.956597
57.305 15.980238
57.310 16.158392
57.315 15.804107
57.320 15.654913
57.325 15.330328
57.330 14.633399
57.335 14.481878
57.340 14.257493
57.345 14.375977
57.350 15.33258
57.355 15.074001
57.360 15.207389
57.365 14.857604
57.370 14.870057
57.375 15.370849
57.380 15.634398
57.385 15.931307
57.390 15.79822
57.395 15.586085
57.400 15.645749
57.405 15.106384
57.410 14.615134
57.415 14.022927
57.420 13.077864
57.425 13.442639
57.430 14.301155
57.435 14.562512
57.440 14.771648
57.445 14.814943
57.450 15.036764
57.455 15.070822
57.460 14.964368
57.465 14.92361
57.470 14.746135
57.475 14.73393
57.480 14.94642
57.485 15.206372
57.490 15.623967
57.495 15.566154
57.500 15.359608
57.505 15.831297
57.510 16.021368
57.515 16.323526
57.520 16.525322
57.525 16.542738
57.530 16.770927
57.535 16.821655
57.540 16.842304
57.545 16.806349
57.550 16.067923
57.555 15.670225
57.560 15.628692
57.565 15.0001
57.570 14.718473
57.575 14.278101
57.580 14.253726
57.585 14.524454
57.590 15.025355
57.595 15.035191
57.600 15.785871
57.605 15.853962
57.610 15.506364
57.615 14.773771
57.620 14.508235
57.625 14.306555
57.630 14.592353
57.635 14.694385
57.640 15.117392
57.645 15.767159
57.650 16.251635
57.655 16.716858
57.660 16.175177
57.665 16.149578
57.670 16.095573
57.675 16.304209
57.680 16.351025
57.685 16.557302
57.690 16.593655
57.695 17.130829
57.700 16.543118
57.705 16.014566
57.710 16.067091
57.715 15.811351
57.720 15.934625
57.725 15.300087
57.730 15.598708
57.735 16.347971
57.740 16.408464
57.745 15.999048
57.750 16.033548
57.755 15.615089
57.760 16.21277
57.765 16.048925
57.770 15.752954
57.775 15.818603
57.780 15.931181
57.785 15.92607
57.790 16.150906
57.795 16.248463
57.800 15.907104
57.805 16.11965
57.810 16.041412
57.815 16.436531
57.820 16.64621
57.825 16.598116
57.830 15.967977
57.835 16.262882
57.840 16.468681
57.845 17.152807
57.850 16.677773
57.855 16.385443
57.860 16.186432
57.865 15.901124
57.870 15.548551
57.875 15.013386
57.880 14.40427
57.885 14.327953
57.890 14.432135
57.895 14.743637
57.900 15.432283
57.905 15.621329
57.910 16.269142
57.915 16.55711
57.920 16.716654
57.925 17.29517
57.930 17.577946
57.935 17.176065
57.940 17.49304
57.945 17.448298
57.950 17.787544
57.955 17.428179
57.960 17.10932
57.965 17.379414
57.970 18.032066
57.975 18.125731
57.980 18.356016
57.985 18.382168
57.990 18.691751
57.995 18.430323
58.000 17.914305
58.005 17.768755
58.010 17.07543
58.015 16.281219
58.020 16.146671
58.025 15.999216
58.030 16.363052
58.035 16.524014
58.040 16.374527
58.045 17.096422
58.050 17.895401
58.055 17.984818
58.060 18.354927
58.065 18.125307
58.070 17.9963
58.075 17.608219
58.080 17.539278
58.085 17.81271
58.090 17.656845
58.095 18.057335
58.100 18.027126
58.105 18.061165
58.110 18.563723
58.115 18.510859
58.120 17.75771
58.125 17.227715
58.130 17.34288
58.135 18.12653
58.140 18.462709
58.145 18.143053
58.150 18.204937
58.155 18.543919
58.160 18.915367
58.165 18.483164
58.170 18.103949
58.175 18.501816
58.180 19.525068
58.185 19.645384
58.190 20.236975
58.195 20.119663
58.200 20.419527
58.205 20.345818
58.210 19.974669
58.215 19.606863
58.220 19.415142
58.225 18.983829
58.230 18.9676
58.235 18.908642
58.240 19.260839
58.245 19.565294
58.250 19.901867
58.255 20.125368
58.260 20.631268
58.265 20.989897
58.270 21.093597
58.275 20.700171
58.280 20.470295
58.285 20.11042
58.290 20.545368
58.295 21.025358
58.300 21.265997
58.305 21.440475
58.310 21.924431
58.315 22.740419
58.320 23.451963
58.325 23.636049
58.330 24.024916
58.335 24.780256
58.340 25.316114
58.345 25.229738
58.350 25.662031
58.355 25.663712
58.360 25.404406
58.365 25.027042
58.370 24.740543
58.375 24.929937
58.380 24.69129
58.385 24.415117
58.390 24.714785
58.395 25.487982
58.400 25.961983
58.405 25.973808
58.410 26.55567
58.415 26.91247
58.420 26.748186
58.425 26.68824
58.430 26.226625
58.435 25.946217
58.440 26.588303
58.445 26.425501
58.450 26.815199
58.455 26.57976
58.460 27.264034
58.465 27.168825
58.470 27.025896
