!@!!GADDS PLOTSO FILE: Chi integration type
!@!!Title/SampleName: map-160
!@!!Comment: ?
!@!!User: Bruker Instrument Administrator
!@!!Site: University of Illinois Chicago
!@!!Frame: map-160_01_000.gfrm
!@!!Wavelengths    1.54184   1.54056   1.54439
!@!!Frame angles: 2Theta: 63.000 Omega: 50.000 Phi: 0.000 Chi: 90.000
!@!!Integration range: 2Theta: 53.000 to 73.000  Gamma: -105.000 to -75.000
!@!!Integration method: bin normalized
!@!N
!@!SS
!@!M
!@!L 0.0 0.0 0.0 0.0
!@!XDegrees
!@!YCounts
53.000 6.041647
53.005 6.54826
53.010 6.933396
53.015 6.864724
53.020 6.65435
53.025 6.641111
53.030 7.055809
53.035 6.962285
53.040 6.719091
53.045 6.406518
53.050 6.254718
53.055 6.512028
53.060 6.399799
53.065 6.154568
53.070 6.14333
53.075 6.395518
53.080 6.767044
53.085 6.969758
53.090 6.727319
53.095 6.954596
53.100 7.244836
53.105 7.206893
53.110 7.177319
53.115 7.099563
53.120 7.015122
53.125 6.904537
53.130 6.53847
53.135 6.117853
53.140 5.960499
53.145 5.830596
53.150 5.752577
53.155 5.99004
53.160 6.215588
53.165 6.175454
53.170 6.124314
53.175 6.062219
53.180 6.275916
53.185 6.105305
53.190 6.2114
53.195 6.568366
53.200 6.948061
53.205 7.24819
53.210 7.679412
53.215 7.5486
53.220 7.532362
53.225 7.21887
53.230 6.807206
53.235 6.562002
53.240 6.172145
53.245 5.542734
53.250 5.774441
53.255 6.24049
53.260 6.598597
53.265 6.417378
53.270 6.26191
53.275 6.651064
53.280 6.974477
53.285 6.774902
53.290 6.292313
53.295 6.368708
53.300 6.560371
53.305 6.9632
53.310 6.785649
53.315 6.727979
53.320 6.756359
53.325 6.434485
53.330 6.273471
53.335 6.244997
53.340 6.121449
53.345 6.125245
53.350 6.361009
53.355 6.377416
53.360 6.212113
53.365 6.225561
53.370 6.510447
53.375 6.554809
53.380 6.492106
53.385 6.073483
53.390 6.006978
53.395 6.420726
53.400 6.552702
53.405 6.253934
53.410 6.663244
53.415 6.770175
53.420 6.827067
53.425 6.994988
53.430 6.591337
53.435 6.746014
53.440 6.738377
53.445 6.761886
53.450 6.672027
53.455 6.438514
53.460 6.369946
53.465 6.415437
53.470 6.101041
53.475 6.06252
53.480 5.74473
53.485 6.030314
53.490 6.360447
53.495 6.51335
53.500 6.42803
53.505 6.196933
53.510 6.16787
53.515 6.238091
53.520 6.342738
53.525 6.594574
53.530 7.16346
53.535 7.630986
53.540 7.831883
53.545 7.779236
53.550 7.701871
53.555 7.583382
53.560 7.249698
53.565 7.089241
53.570 6.946556
53.575 6.87664
53.580 7.303161
53.585 7.352155
53.590 7.657784
53.595 7.691135
53.600 7.502553
53.605 7.756731
53.610 7.816022
53.615 7.514206
53.620 7.2525
53.625 6.776984
53.630 6.642842
53.635 6.729395
53.640 6.854719
53.645 6.674141
53.650 6.655137
53.655 6.961513
53.660 7.031569
53.665 6.780035
53.670 6.472776
53.675 6.590363
53.680 6.776895
53.685 6.853506
53.690 7.059909
53.695 7.716233
53.700 7.923321
53.705 8.105092
53.710 8.174966
53.715 8.046523
53.720 7.909051
53.725 7.892998
53.730 7.696962
53.735 7.681326
53.740 7.223982
53.745 7.03929
53.750 6.954844
53.755 6.632197
53.760 6.399163
53.765 6.880308
53.770 7.170402
53.775 7.350066
53.780 7.398013
53.785 7.641999
53.790 7.711772
53.795 7.632564
53.800 7.416207
53.805 7.016094
53.810 6.89203
53.815 7.028084
53.820 7.385598
53.825 7.629962
53.830 7.490902
53.835 7.386662
53.840 7.845438
53.845 7.85977
53.850 7.52138
53.855 7.298862
53.860 7.296099
53.865 7.125158
53.870 6.928148
53.875 6.880121
53.880 6.928129
53.885 7.030257
53.890 6.793384
53.895 7.041612
53.900 7.041069
53.905 6.979525
53.910 6.866349
53.915 6.866262
53.920 6.72542
53.925 6.793507
53.930 6.815491
53.935 6.907887
53.940 7.602994
53.945 7.873645
53.950 7.833396
53.955 7.997327
53.960 8.153117
53.965 8.110177
53.970 8.033476
53.975 7.406326
53.980 7.419345
53.985 7.574811
53.990 7.434381
53.995 7.307611
54.000 7.057498
54.005 7.216406
54.010 7.412438
54.015 7.113875
54.020 7.313724
54.025 7.370499
54.030 7.726402
54.035 7.934709
54.040 7.775857
54.045 7.502724
54.050 7.757454
54.055 7.845378
54.060 7.715515
54.065 7.558063
54.070 7.247184
54.075 7.120614
54.080 7.306341
54.085 7.089673
54.090 7.19163
54.095 6.958525
54.100 6.554523
54.105 6.49258
54.110 6.459876
54.115 6.428382
54.120 6.144061
54.125 5.863292
54.130 6.323025
54.135 6.923852
54.140 7.175313
54.145 7.562472
54.150 7.600751
54.155 7.63457
54.160 7.772364
54.165 7.533556
54.170 7.173614
54.175 7.370167
54.180 6.956239
54.185 6.928616
54.190 6.942832
54.195 7.024049
54.200 7.015265
54.205 7.030056
54.210 6.973438
54.215 7.205537
54.220 7.214052
54.225 7.568082
54.230 7.53098
54.235 7.299099
54.240 7.490095
54.245 7.605992
54.250 7.87561
54.255 8.195827
54.260 7.800435
54.265 7.922728
54.270 8.205585
54.275 7.752482
54.280 7.671417
54.285 7.485009
54.290 7.516924
54.295 7.234724
54.300 7.171877
54.305 7.070688
54.310 7.402231
54.315 7.32907
54.320 6.778499
54.325 6.521811
54.330 6.182005
54.335 6.203255
54.340 6.437882
54.345 6.533498
54.350 6.574828
54.355 6.807155
54.360 6.676834
54.365 7.109108
54.370 7.301929
54.375 7.673129
54.380 7.751197
54.385 7.726533
54.390 7.794252
54.395 8.290686
54.400 8.129241
54.405 7.395754
54.410 6.860787
54.415 6.663269
54.420 6.708343
54.425 6.721664
54.430 6.494666
54.435 6.538182
54.440 6.590721
54.445 6.653283
54.450 6.883165
54.455 7.13818
54.460 7.368985
54.465 7.493242
54.470 7.677449
54.475 8.039961
54.480 8.24159
54.485 8.03742
54.490 7.674203
54.495 7.337967
54.500 7.807459
54.505 8.005778
54.510 7.799909
54.515 7.578586
54.520 7.747367
54.525 8.077132
54.530 7.793442
54.535 7.2801
54.540 6.740783
54.545 6.592985
54.550 6.68065
54.555 6.45647
54.560 6.534332
54.565 6.441411
54.570 6.438093
54.575 6.990347
54.580 6.993671
54.585 6.832571
54.590 6.553859
54.595 6.450409
54.600 6.848239
54.605 6.848294
54.610 6.857244
54.615 6.869686
54.620 7.04371
54.625 7.082395
54.630 7.18546
54.635 6.946976
54.640 7.279545
54.645 6.842501
54.650 6.81749
54.655 6.85889
54.660 7.089566
54.665 7.153272
54.670 7.143143
54.675 6.62121
54.680 6.927599
54.685 7.023266
54.690 7.277215
54.695 6.939451
54.700 6.829543
54.705 6.761724
54.710 6.939065
54.715 6.813223
54.720 6.408314
54.725 6.55329
54.730 6.786489
54.735 6.812583
54.740 6.785449
54.745 6.918018
54.750 7.19543
54.755 7.211223
54.760 6.885674
54.765 7.223975
54.770 7.489558
54.775 7.632571
54.780 7.406755
54.785 7.394567
54.790 7.495532
54.795 7.449261
54.800 7.347977
54.805 7.342828
54.810 7.459032
54.815 7.925309
54.820 7.990598
54.825 8.346001
54.830 9.015998
54.835 8.922249
54.840 8.928286
54.845 9.064167
54.850 9.031117
54.855 9.132514
54.860 8.851702
54.865 8.698151
54.870 9.029282
54.875 9.249327
54.880 9.180156
54.885 9.055969
54.890 8.970883
54.895 8.805143
54.900 8.144316
54.905 7.981639
54.910 7.710965
54.915 7.867185
54.920 7.941218
54.925 7.865229
54.930 8.235067
54.935 8.46932
54.940 8.493255
54.945 8.804418
54.950 8.565128
54.955 8.39383
54.960 8.937283
54.965 9.048651
54.970 9.148338
54.975 8.965709
54.980 8.744413
54.985 8.840293
54.990 8.762182
54.995 8.141739
55.000 7.910227
55.005 7.784307
55.010 7.794038
55.015 7.986266
55.020 8.335189
55.025 8.736877
55.030 8.793712
55.035 9.191389
55.040 9.308764
55.045 9.568876
55.050 9.403562
55.055 9.242837
55.060 9.071728
55.065 9.154058
55.070 9.237055
55.075 9.289028
55.080 8.945973
55.085 8.910486
55.090 8.845086
55.095 8.70576
55.100 8.340706
55.105 7.77741
55.110 7.926887
55.115 8.128735
55.120 8.030834
55.125 8.033624
55.130 8.040944
55.135 8.219939
55.140 8.133085
55.145 7.631824
55.150 7.750214
55.155 7.771065
55.160 7.838871
55.165 7.673592
55.170 7.38452
55.175 7.448263
55.180 7.560643
55.185 6.829403
55.190 6.794952
55.195 6.989742
55.200 7.22322
55.205 7.381329
55.210 7.485752
55.215 7.490641
55.220 8.066255
55.225 7.847589
55.230 7.597026
55.235 7.680005
55.240 7.573992
55.245 7.756278
55.250 7.690142
55.255 7.316336
55.260 7.451871
55.265 7.532772
55.270 7.515063
55.275 7.833477
55.280 7.922709
55.285 7.862707
55.290 7.733066
55.295 7.49053
55.300 7.551827
55.305 7.702507
55.310 7.3592
55.315 7.240093
55.320 7.581526
55.325 8.076978
55.330 8.012305
55.335 8.045031
55.340 8.030274
55.345 7.930168
55.350 7.962156
55.355 7.820807
55.360 7.489141
55.365 7.579299
55.370 7.364045
55.375 7.519508
55.380 7.662093
55.385 7.686991
55.390 7.909278
55.395 8.377055
55.400 8.424966
55.405 8.506926
55.410 8.552398
55.415 8.133998
55.420 7.843123
55.425 7.493616
55.430 7.62626
55.435 7.655434
55.440 7.5313
55.445 7.765044
55.450 8.462726
55.455 8.721237
55.460 8.673449
55.465 8.710919
55.470 8.6816
55.475 8.532223
55.480 8.302786
55.485 8.15439
55.490 8.056174
55.495 8.251939
55.500 8.149525
55.505 8.2628
55.510 8.211479
55.515 7.902468
55.520 7.949227
55.525 7.772346
55.530 7.417055
55.535 7.870069
55.540 7.913679
55.545 7.875795
55.550 7.775484
55.555 7.805978
55.560 7.623142
55.565 7.694637
55.570 7.384704
55.575 7.664213
55.580 7.951747
55.585 7.590909
55.590 7.484901
55.595 8.008772
55.600 7.549455
55.605 7.412187
55.610 7.034096
55.615 7.450129
55.620 7.736346
55.625 7.79607
55.630 7.839423
55.635 7.917512
55.640 7.694041
55.645 7.621738
55.650 7.454261
55.655 7.526366
55.660 7.25406
55.665 6.669595
55.670 6.600609
55.675 6.560661
55.680 6.771479
55.685 6.761453
55.690 7.056484
55.695 7.477766
55.700 8.009575
55.705 8.014174
55.710 8.225389
55.715 8.00387
55.720 8.023094
55.725 8.097353
55.730 7.905484
55.735 7.878283
55.740 7.853031
55.745 7.799555
55.750 8.023315
55.755 7.6235
55.760 7.472157
55.765 7.617826
55.770 7.825086
55.775 8.134636
55.780 8.08927
55.785 7.841389
55.790 7.717096
55.795 7.616071
55.800 7.646667
55.805 7.738815
55.810 7.574811
55.815 7.404318
55.820 8.250265
55.825 9.035348
55.830 9.298376
55.835 9.296475
55.840 9.345845
55.845 9.289073
55.850 9.352337
55.855 8.897057
55.860 8.701077
55.865 8.431971
55.870 8.264305
55.875 8.3156
55.880 8.624047
55.885 8.495483
55.890 8.644291
55.895 8.708545
55.900 8.421853
55.905 7.99502
55.910 7.687691
55.915 7.521564
55.920 7.222829
55.925 6.983684
55.930 7.042938
55.935 7.160786
55.940 7.322205
55.945 7.202447
55.950 7.136004
55.955 7.122982
55.960 6.75948
55.965 6.399312
55.970 6.791511
55.975 6.743903
55.980 6.759621
55.985 6.774221
55.990 6.622679
55.995 6.844339
56.000 7.135969
56.005 7.097011
56.010 7.305879
56.015 7.40375
56.020 7.506006
56.025 7.644936
56.030 7.700082
56.035 7.418418
56.040 7.087616
56.045 6.738847
56.050 6.64074
56.055 6.200155
56.060 6.023696
56.065 5.535077
56.070 5.50052
56.075 5.486137
56.080 5.724614
56.085 6.252485
56.090 6.524123
56.095 6.738873
56.100 7.040953
56.105 6.963216
56.110 7.245742
56.115 7.320827
56.120 6.909205
56.125 7.009034
56.130 6.767493
56.135 7.163275
56.140 7.525296
56.145 7.479969
56.150 7.416449
56.155 7.61642
56.160 7.555447
56.165 7.533582
56.170 7.134202
56.175 7.187824
56.180 7.113286
56.185 7.143062
56.190 7.110994
56.195 7.029119
56.200 7.148069
56.205 7.050357
56.210 7.28633
56.215 7.719519
56.220 7.811667
56.225 8.04679
56.230 8.184633
56.235 8.322165
56.240 8.872159
56.245 8.634977
56.250 8.494353
56.255 8.357611
56.260 8.226516
56.265 8.437895
56.270 8.438647
56.275 8.313007
56.280 8.270546
56.285 8.3544
56.290 8.571519
56.295 8.61404
56.300 8.932819
56.305 9.04904
56.310 8.868446
56.315 9.046
56.320 8.963066
56.325 8.669129
56.330 8.790284
56.335 8.318538
56.340 8.12186
56.345 8.435338
56.350 8.277516
56.355 8.197673
56.360 8.179173
56.365 8.046782
56.370 8.008986
56.375 7.966763
56.380 7.396802
56.385 7.278369
56.390 7.283436
56.395 7.338401
56.400 7.717828
56.405 7.924421
56.410 8.318644
56.415 8.531309
56.420 9.007344
56.425 9.58308
56.430 10.005294
56.435 10.080511
56.440 10.008464
56.445 9.890669
56.450 10.076803
56.455 9.848407
56.460 9.799076
56.465 9.908081
56.470 9.926538
56.475 9.921796
56.480 9.926861
56.485 9.856298
56.490 10.458261
56.495 10.603861
56.500 10.681358
56.505 10.89391
56.510 10.988274
56.515 10.989865
56.520 10.886528
56.525 10.49058
56.530 10.437505
56.535 9.961506
56.540 9.961331
56.545 9.857244
56.550 10.106536
56.555 9.947611
56.560 9.597586
56.565 9.106958
56.570 9.339852
56.575 8.965803
56.580 8.64718
56.585 8.016573
56.590 8.157077
56.595 8.328661
56.600 8.373212
56.605 8.458638
56.610 8.596674
56.615 8.714111
56.620 9.189919
56.625 9.057761
56.630 9.389901
56.635 9.100616
56.640 8.923658
56.645 8.936545
56.650 9.258908
56.655 9.053218
56.660 9.723387
56.665 9.570983
56.670 9.670128
56.675 10.048129
56.680 10.364456
56.685 10.590487
56.690 10.486905
56.695 9.643073
56.700 9.874909
56.705 10.315554
56.710 9.878076
56.715 9.452068
56.720 9.088078
56.725 8.961204
56.730 9.057458
56.735 8.640722
56.740 8.550695
56.745 8.933004
56.750 9.040817
56.755 9.327037
56.760 9.895627
56.765 9.648175
56.770 9.836878
56.775 9.482356
56.780 9.207454
56.785 9.06132
56.790 9.057727
56.795 8.725485
56.800 8.953899
56.805 8.925168
56.810 8.88945
56.815 8.940933
56.820 8.556872
56.825 8.423174
56.830 8.314924
56.835 8.100491
56.840 7.545898
56.845 7.143425
56.850 6.981861
56.855 7.198711
56.860 7.386355
56.865 7.560121
56.870 7.323691
56.875 7.451123
56.880 7.800041
56.885 7.377921
56.890 6.971572
56.895 6.639157
56.900 6.2725
56.905 6.767185
56.910 6.986861
56.915 6.814184
56.920 6.991241
56.925 7.652836
56.930 7.73771
56.935 8.245274
56.940 7.897692
56.945 7.762331
56.950 7.770942
56.955 7.84905
56.960 7.324747
56.965 7.287265
56.970 7.130082
56.975 7.592959
56.980 7.714427
56.985 7.675241
56.990 7.856932
56.995 8.408535
57.000 8.46674
57.005 8.497046
57.010 8.274273
57.015 8.639486
57.020 9.072748
57.025 8.854723
57.030 8.422093
57.035 8.157681
57.040 7.769747
57.045 7.713251
57.050 7.641777
57.055 7.275804
57.060 7.158774
57.065 7.653137
57.070 7.736691
57.075 7.710287
57.080 7.224564
57.085 6.966672
57.090 7.058656
57.095 6.92351
57.100 6.444855
57.105 6.424664
57.110 6.584867
57.115 6.789206
57.120 6.701326
57.125 7.069246
57.130 7.448497
57.135 7.361619
57.140 7.377194
57.145 7.854627
57.150 8.484805
57.155 8.704859
57.160 7.915117
57.165 7.6379
57.170 7.777111
57.175 7.877734
57.180 7.476027
57.185 7.318304
57.190 7.517458
57.195 8.257861
57.200 8.343322
57.205 8.425039
57.210 8.673573
57.215 8.6021
57.220 8.099061
57.225 8.322141
57.230 8.459269
57.235 8.527225
57.240 8.842812
57.245 9.10873
57.250 9.395427
57.255 9.306219
57.260 9.178694
57.265 9.044583
57.270 9.248141
57.275 8.722809
57.280 8.252254
57.285 8.304101
57.290 8.269147
57.295 7.653288
57.300 7.422291
57.305 7.444416
57.310 7.630073
57.315 7.622256
57.320 7.811136
57.325 8.275579
57.330 9.099064
57.335 9.576004
57.340 9.648058
57.345 9.643628
57.350 9.356322
57.355 8.897419
57.360 8.383606
57.365 8.171955
57.370 7.756785
57.375 7.40096
57.380 7.828324
57.385 8.235788
57.390 8.254784
57.395 8.395672
57.400 8.09494
57.405 8.502589
57.410 8.730548
57.415 8.302703
57.420 8.241881
57.425 8.577448
57.430 8.762031
57.435 8.861557
57.440 8.767638
57.445 8.721231
57.450 8.87173
57.455 8.880475
57.460 8.708101
57.465 8.239869
57.470 8.378913
57.475 8.001286
57.480 7.920213
57.485 7.940881
57.490 7.806046
57.495 7.834586
57.500 7.996924
57.505 7.924465
57.510 8.232269
57.515 8.322323
57.520 8.216043
57.525 8.66504
57.530 8.954829
57.535 8.75977
57.540 8.773875
57.545 8.72052
57.550 8.7781
57.555 8.760418
57.560 8.448869
57.565 8.142757
57.570 8.524859
57.575 8.551207
57.580 8.493711
57.585 8.194704
57.590 8.335918
57.595 8.401278
57.600 8.500538
57.605 8.529438
57.610 8.431311
57.615 8.248954
57.620 8.261187
57.625 8.285975
57.630 8.276748
57.635 8.144755
57.640 8.217958
57.645 8.647022
57.650 9.162548
57.655 9.187799
57.660 8.822659
57.665 9.128302
57.670 9.247923
57.675 9.132174
57.680 8.83205
57.685 8.750134
57.690 8.764853
57.695 8.877878
57.700 8.51327
57.705 8.050466
57.710 7.934751
57.715 7.622914
57.720 7.520146
57.725 7.464218
57.730 7.472967
57.735 7.522131
57.740 8.148914
57.745 8.569976
57.750 8.911731
57.755 8.755796
57.760 8.986196
57.765 9.211436
57.770 9.187937
57.775 8.726991
57.780 8.423233
57.785 8.279676
57.790 8.193022
57.795 8.283235
57.800 8.108695
57.805 8.039627
57.810 8.335382
57.815 8.407006
57.820 8.648223
57.825 8.474439
57.830 8.208509
57.835 8.141404
57.840 7.809645
57.845 7.181813
57.850 7.018616
57.855 7.102163
57.860 7.437027
57.865 7.881499
57.870 8.269044
57.875 8.949497
57.880 9.166606
57.885 8.879641
57.890 8.566178
57.895 8.233148
57.900 7.937088
57.905 7.735891
57.910 7.551184
57.915 7.457542
57.920 7.558362
57.925 7.831273
57.930 7.800869
57.935 7.538337
57.940 7.007258
57.945 6.649231
57.950 6.523171
57.955 6.530903
57.960 6.582736
57.965 6.480475
57.970 6.794405
57.975 7.349285
57.980 7.520453
57.985 7.873501
57.990 8.228098
57.995 8.306011
58.000 8.326071
58.005 8.408831
58.010 8.638803
58.015 9.05528
58.020 9.075958
58.025 9.277204
58.030 9.65314
58.035 10.252601
58.040 10.256559
58.045 9.90883
58.050 9.564425
58.055 9.121192
58.060 8.737549
58.065 8.304765
58.070 8.276353
58.075 8.023141
58.080 8.437643
58.085 8.237903
58.090 8.272219
58.095 8.265245
58.100 8.068986
58.105 7.507845
58.110 7.394436
58.115 7.269917
58.120 7.416371
58.125 7.014099
58.130 6.849863
58.135 6.96903
58.140 7.108448
58.145 7.300029
58.150 7.106747
58.155 7.309646
58.160 7.67223
58.165 7.646865
58.170 7.805557
58.175 8.029749
58.180 7.806582
58.185 7.872109
58.190 7.855554
58.195 7.74931
58.200 7.894804
58.205 7.721187
58.210 7.44329
58.215 7.288782
58.220 7.214774
58.225 7.409604
58.230 7.505063
58.235 7.537495
58.240 7.872536
58.245 7.946555
58.250 8.096356
58.255 7.942724
58.260 7.701499
58.265 7.490666
58.270 7.937638
58.275 7.999281
58.280 8.189511
58.285 8.624835
58.290 8.879652
58.295 8.983106
58.300 9.24433
58.305 8.851309
58.310 8.708132
58.315 8.830377
58.320 8.543509
58.325 8.349431
58.330 8.288965
58.335 8.139155
58.340 7.969023
58.345 7.821734
58.350 7.364226
58.355 7.057445
58.360 7.160966
58.365 7.330917
58.370 7.345596
58.375 7.580413
58.380 7.623805
58.385 8.061605
58.390 8.525502
58.395 8.807014
58.400 8.780079
58.405 8.739224
58.410 8.829393
58.415 9.16484
58.420 9.201477
58.425 9.065304
58.430 8.845254
58.435 8.960242
58.440 8.712532
58.445 8.528075
58.450 8.14569
58.455 7.999481
58.460 8.387282
58.465 8.54852
58.470 8.454255
58.475 8.615482
58.480 8.348816
58.485 8.450571
58.490 8.20849
58.495 8.028894
58.500 7.761776
58.505 8.068512
58.510 8.508391
58.515 8.660641
58.520 8.52271
58.525 8.676672
58.530 8.60563
58.535 8.818507
58.540 8.311002
58.545 7.898132
58.550 8.062422
58.555 7.992764
58.560 8.018628
58.565 8.010474
58.570 7.694352
58.575 8.152018
58.580 8.203885
58.585 8.239266
58.590 8.366558
58.595 8.257727
58.600 8.080949
58.605 8.194708
58.610 7.980783
58.615 7.70463
58.620 7.476046
58.625 7.428467
58.630 7.97765
58.635 7.810503
58.640 7.868587
58.645 7.583407
58.650 7.598387
58.655 8.10165
58.660 8.43034
58.665 8.444349
58.670 8.30054
58.675 8.03252
58.680 8.019628
58.685 7.902966
58.690 7.440935
58.695 7.058029
58.700 6.445816
58.705 6.509057
58.710 6.644853
58.715 7.004745
58.720 7.287534
58.725 7.255128
58.730 6.683431
58.735 6.875817
58.740 7.568264
58.745 7.533777
58.750 7.642144
58.755 8.081591
58.760 8.353642
