!@!!GADDS PLOTSO FILE: Chi integration type
!@!!Title/SampleName: map-166
!@!!Comment: ?
!@!!User: Bruker Instrument Administrator
!@!!Site: University of Illinois Chicago
!@!!Frame: map-166_01_000.gfrm
!@!!Wavelengths    1.54184   1.54056   1.54439
!@!!Frame angles: 2Theta: 63.000 Omega: 50.000 Phi: 0.000 Chi: 90.000
!@!!Integration range: 2Theta: 53.000 to 73.000  Gamma: -105.000 to -75.000
!@!!Integration method: bin normalized
!@!N
!@!SS
!@!M
!@!L 0.0 0.0 0.0 0.0
!@!XDegrees
!@!YCounts
53.000 3.92764
53.005 4.04248
53.010 4.00587
53.015 3.535322
53.020 3.562226
53.025 3.677246
53.030 3.927389
53.035 4.369364
53.040 4.751078
53.045 4.908004
53.050 4.669955
53.055 4.304367
53.060 4.296392
53.065 4.403192
53.070 4.316099
53.075 4.049995
53.080 4.394629
53.085 4.856043
53.090 4.871113
53.095 4.802811
53.100 4.892951
53.105 4.862669
53.110 4.998206
53.115 4.730415
53.120 4.430859
53.125 4.4775
53.130 4.104851
53.135 4.036511
53.140 3.777053
53.145 3.530606
53.150 3.682327
53.155 3.810522
53.160 3.734939
53.165 3.773012
53.170 3.675647
53.175 3.930189
53.180 3.954925
53.185 3.544303
53.190 3.851674
53.195 4.122011
53.200 4.050109
53.205 4.193711
53.210 4.205814
53.215 4.405689
53.220 4.743776
53.225 4.698015
53.230 4.705933
53.235 4.722888
53.240 4.641877
53.245 4.766472
53.250 4.507534
53.255 4.316607
53.260 4.164746
53.265 4.228425
53.270 4.200557
53.275 3.786455
53.280 3.752179
53.285 3.931815
53.290 4.044457
53.295 3.944081
53.300 3.750502
53.305 3.55059
53.310 3.827498
53.315 3.535606
53.320 3.450972
53.325 3.548299
53.330 3.534118
53.335 3.591709
53.340 3.785772
53.345 3.757874
53.350 3.926335
53.355 3.796526
53.360 3.464379
53.365 3.568162
53.370 3.330405
53.375 3.258377
53.380 3.464372
53.385 3.451678
53.390 3.774957
53.395 4.011032
53.400 4.200187
53.405 4.350992
53.410 4.243411
53.415 4.277823
53.420 4.459106
53.425 4.272608
53.430 4.247292
53.435 3.999352
53.440 4.078334
53.445 4.088748
53.450 3.683423
53.455 3.503583
53.460 3.444332
53.465 3.532612
53.470 3.60463
53.475 3.379758
53.480 3.478692
53.485 3.708995
53.490 3.43656
53.495 3.482047
53.500 3.641666
53.505 3.883743
53.510 3.933873
53.515 3.864522
53.520 3.648918
53.525 3.876595
53.530 3.942892
53.535 3.651399
53.540 3.581272
53.545 3.599711
53.550 3.552574
53.555 4.102611
53.560 3.927537
53.565 3.879454
53.570 4.00634
53.575 3.855505
53.580 3.981671
53.585 3.815643
53.590 3.557041
53.595 3.697084
53.600 3.527478
53.605 3.532297
53.610 3.598243
53.615 4.011449
53.620 4.17897
53.625 4.642198
53.630 4.757184
53.635 4.963284
53.640 5.040037
53.645 4.744607
53.650 4.56646
53.655 4.325362
53.660 3.766094
53.665 3.61711
53.670 3.650597
53.675 3.836652
53.680 4.030012
53.685 3.89079
53.690 3.853671
53.695 3.990668
53.700 4.059635
53.705 4.093229
53.710 3.932016
53.715 3.775428
53.720 3.993846
53.725 3.936973
53.730 3.850025
53.735 3.83515
53.740 3.752436
53.745 3.825985
53.750 3.726328
53.755 3.693477
53.760 4.039701
53.765 4.299317
53.770 4.238331
53.775 4.247977
53.780 4.184956
53.785 4.243432
53.790 4.357937
53.795 4.321307
53.800 4.00062
53.805 3.83935
53.810 3.768073
53.815 4.000172
53.820 4.147914
53.825 4.188461
53.830 4.136895
53.835 3.983995
53.840 4.035553
53.845 4.029278
53.850 3.751846
53.855 3.574075
53.860 3.080646
53.865 3.262269
53.870 3.706444
53.875 3.604929
53.880 3.733005
53.885 3.845199
53.890 4.009157
53.895 4.246823
53.900 4.106839
53.905 3.981063
53.910 4.129785
53.915 3.959595
53.920 3.927376
53.925 3.872317
53.930 3.695919
53.935 3.626056
53.940 3.644685
53.945 3.654934
53.950 3.6023
53.955 3.568049
53.960 3.593826
53.965 3.645194
53.970 3.534196
53.975 3.386339
53.980 3.269852
53.985 3.538873
53.990 3.511832
53.995 3.308016
54.000 3.465352
54.005 3.81776
54.010 4.083006
54.015 4.285086
54.020 4.351793
54.025 4.702757
54.030 4.908847
54.035 4.745842
54.040 4.295247
54.045 4.178725
54.050 3.924898
54.055 3.738271
54.060 3.50218
54.065 3.459477
54.070 3.662318
54.075 3.622812
54.080 3.841554
54.085 3.978956
54.090 3.798536
54.095 3.865273
54.100 4.007549
54.105 4.015297
54.110 3.944165
54.115 3.716411
54.120 3.709486
54.125 3.737216
54.130 3.731379
54.135 3.589497
54.140 3.52028
54.145 3.727738
54.150 3.77283
54.155 3.823872
54.160 3.60534
54.165 3.361748
54.170 3.295625
54.175 3.123445
54.180 2.919896
54.185 2.776288
54.190 2.731327
54.195 2.93779
54.200 3.032443
54.205 3.120905
54.210 3.135423
54.215 2.942958
54.220 3.017089
54.225 3.252506
54.230 3.319082
54.235 3.473976
54.240 3.738222
54.245 4.126716
54.250 4.453817
54.255 4.729632
54.260 4.649606
54.265 4.305726
54.270 4.28546
54.275 4.110624
54.280 4.107752
54.285 3.807028
54.290 3.622855
54.295 3.60396
54.300 3.830544
54.305 3.781174
54.310 3.594881
54.315 3.528032
54.320 3.883111
54.325 3.829175
54.330 3.953652
54.335 3.744439
54.340 3.987898
54.345 4.276958
54.350 4.308361
54.355 4.153031
54.360 4.173956
54.365 4.288304
54.370 4.436311
54.375 3.944157
54.380 3.77156
54.385 3.784181
54.390 3.794945
54.395 3.879649
54.400 3.905325
54.405 3.989612
54.410 4.053922
54.415 3.904758
54.420 3.725897
54.425 3.848859
54.430 3.795902
54.435 3.523258
54.440 3.354318
54.445 3.58792
54.450 3.714719
54.455 3.79802
54.460 3.458946
54.465 3.210245
54.470 3.462163
54.475 3.521012
54.480 3.438603
54.485 3.362421
54.490 3.071411
54.495 3.137288
54.500 3.18478
54.505 3.321637
54.510 3.421432
54.515 3.875779
54.520 4.293215
54.525 4.648493
54.530 5.056421
54.535 5.174236
54.540 4.948552
54.545 4.425885
54.550 3.984871
54.555 3.618785
54.560 3.060502
54.565 2.539734
54.570 2.414676
54.575 2.781191
54.580 2.948843
54.585 3.088877
54.590 3.487992
54.595 3.865046
54.600 4.28883
54.605 4.756844
54.610 4.416846
54.615 4.412853
54.620 4.531365
54.625 4.355099
54.630 4.474401
54.635 4.364507
54.640 4.435122
54.645 4.520974
54.650 4.233806
54.655 4.19857
54.660 4.309051
54.665 4.294914
54.670 4.276527
54.675 3.932894
54.680 4.099812
54.685 4.210253
54.690 4.332032
54.695 4.186606
54.700 4.161741
54.705 3.838408
54.710 3.596122
54.715 3.728238
54.720 3.850513
54.725 3.838999
54.730 3.85073
54.735 3.727773
54.740 3.956133
54.745 4.030704
54.750 3.849541
54.755 3.6914
54.760 3.573255
54.765 3.853187
54.770 3.909
54.775 3.809932
54.780 3.624852
54.785 3.472347
54.790 3.468212
54.795 3.618086
54.800 3.448524
54.805 3.422266
54.810 3.691562
54.815 4.047442
54.820 4.372866
54.825 4.562189
54.830 4.482563
54.835 4.371511
54.840 4.396409
54.845 4.296996
54.850 4.291649
54.855 4.150664
54.860 3.952173
54.865 3.979438
54.870 4.455581
54.875 4.49665
54.880 4.739017
54.885 4.424972
54.890 4.674215
54.895 4.81341
54.900 4.579638
54.905 4.255796
54.910 4.101702
54.915 3.957036
54.920 4.093857
54.925 3.914475
54.930 3.91953
54.935 4.029599
54.940 4.130401
54.945 4.406261
54.950 4.619345
54.955 4.461317
54.960 4.372993
54.965 4.647091
54.970 4.778565
54.975 4.495236
54.980 4.289065
54.985 4.386625
54.990 4.597452
54.995 4.577573
55.000 4.127983
55.005 4.014093
55.010 4.118935
55.015 4.100704
55.020 3.979163
55.025 3.903073
55.030 4.00616
55.035 4.337077
55.040 4.474305
55.045 4.565849
55.050 4.731575
55.055 5.185275
55.060 5.206108
55.065 4.885768
55.070 4.68569
55.075 4.706923
55.080 4.897289
55.085 4.744252
55.090 4.638629
55.095 4.447647
55.100 4.553298
55.105 4.552713
55.110 4.566856
55.115 4.415924
55.120 4.352041
55.125 4.010561
55.130 4.062197
55.135 4.219214
55.140 4.188322
55.145 3.766586
55.150 3.558632
55.155 3.556925
55.160 3.603496
55.165 3.764894
55.170 3.621858
55.175 3.882104
55.180 4.141501
55.185 4.400086
55.190 4.229155
55.195 4.193206
55.200 4.127536
55.205 4.272911
55.210 4.316151
55.215 4.224059
55.220 4.28954
55.225 4.408929
55.230 4.644465
55.235 4.715493
55.240 4.401714
55.245 4.363712
55.250 4.159689
55.255 4.147439
55.260 4.201384
55.265 4.312393
55.270 4.128374
55.275 4.346645
55.280 4.327771
55.285 4.555186
55.290 4.659231
55.295 4.461254
55.300 4.195902
55.305 3.982303
55.310 3.901256
55.315 4.019622
55.320 3.866098
55.325 3.503184
55.330 3.771976
55.335 4.052287
55.340 4.245377
55.345 4.376617
55.350 4.140432
55.355 4.189195
55.360 4.329456
55.365 4.181084
55.370 4.276295
55.375 4.364967
55.380 4.358571
55.385 4.505989
55.390 4.795206
55.395 4.984537
55.400 4.738168
55.405 4.762082
55.410 4.630639
55.415 4.646919
55.420 4.644493
55.425 4.501636
55.430 4.346448
55.435 4.745366
55.440 4.949283
55.445 4.867993
55.450 4.690506
55.455 4.664897
55.460 4.546191
55.465 4.466912
55.470 4.225949
55.475 4.223709
55.480 4.487424
55.485 4.463591
55.490 4.561837
55.495 4.722291
55.500 4.691397
55.505 4.368394
55.510 4.123459
55.515 4.046401
55.520 4.032136
55.525 3.792759
55.530 3.731169
55.535 4.069358
55.540 4.372074
55.545 4.34971
55.550 4.399783
55.555 4.540835
55.560 4.79951
55.565 4.838859
55.570 4.450716
55.575 4.4585
55.580 4.501659
55.585 4.569776
55.590 4.526146
55.595 4.1903
55.600 3.965765
55.605 3.947034
55.610 3.890761
55.615 3.73359
55.620 3.46764
55.625 3.345543
55.630 3.518525
55.635 3.81942
55.640 4.316989
55.645 4.363156
55.650 4.359941
55.655 4.759347
55.660 5.176697
55.665 5.136336
55.670 4.957292
55.675 4.682996
55.680 4.567848
55.685 4.394059
55.690 4.097169
55.695 3.964035
55.700 4.035961
55.705 4.147761
55.710 4.293559
55.715 4.340715
55.720 4.622258
55.725 4.68829
55.730 4.743247
55.735 4.748418
55.740 4.480753
55.745 4.405812
55.750 4.652802
55.755 4.360754
55.760 4.073569
55.765 3.871867
55.770 3.816055
55.775 4.28914
55.780 4.483797
55.785 4.682095
55.790 4.750134
55.795 4.912983
55.800 5.144349
55.805 5.001939
55.810 4.342297
55.815 3.98429
55.820 3.76806
55.825 4.143526
55.830 4.427281
55.835 4.535311
55.840 4.853887
55.845 5.054679
55.850 5.290942
55.855 5.332458
55.860 5.053381
55.865 4.830859
55.870 4.392754
55.875 4.354729
55.880 4.378945
55.885 4.589494
55.890 4.655918
55.895 4.522551
55.900 4.576416
55.905 4.761393
55.910 4.500231
55.915 4.335837
55.920 4.066481
55.925 3.918633
55.930 3.860944
55.935 3.918421
55.940 4.015723
55.945 4.354621
55.950 4.592437
55.955 4.505605
55.960 4.379633
55.965 4.314157
55.970 4.27234
55.975 4.315621
55.980 4.179009
55.985 3.881365
55.990 3.889501
55.995 4.232482
56.000 4.18078
56.005 4.105128
56.010 4.218541
56.015 4.503647
56.020 4.791771
56.025 4.593076
56.030 4.732951
56.035 4.697023
56.040 4.558723
56.045 4.124924
56.050 3.603135
56.055 3.557581
56.060 3.670372
56.065 3.352716
56.070 3.342251
56.075 3.14935
56.080 3.214984
56.085 3.512803
56.090 3.192297
56.095 3.27244
56.100 3.610734
56.105 4.029027
56.110 4.884225
56.115 5.084583
56.120 5.092197
56.125 5.285916
56.130 5.225762
56.135 5.242252
56.140 5.014098
56.145 4.577107
56.150 4.801702
56.155 4.615353
56.160 4.900878
56.165 4.894491
56.170 4.702908
56.175 4.589446
56.180 4.445819
56.185 4.399062
56.190 4.619682
56.195 4.369209
56.200 4.475345
56.205 4.531957
56.210 4.703438
56.215 4.69121
56.220 4.98958
56.225 5.054816
56.230 4.96989
56.235 4.969701
56.240 5.151046
56.245 5.168494
56.250 4.883467
56.255 4.479916
56.260 4.784619
56.265 4.939947
56.270 4.633818
56.275 4.338671
56.280 4.234448
56.285 4.213311
56.290 4.17464
56.295 3.793396
56.300 3.852741
56.305 4.112992
56.310 4.139521
56.315 4.305479
56.320 4.583866
56.325 4.514356
56.330 4.626507
56.335 5.050852
56.340 5.067495
56.345 5.182398
56.350 5.333714
56.355 5.472471
56.360 5.458782
56.365 5.269912
56.370 4.734622
56.375 4.620903
56.380 4.546847
56.385 4.485357
56.390 4.440869
56.395 4.429488
56.400 4.438315
56.405 4.594017
56.410 4.824645
56.415 4.808469
56.420 4.984949
56.425 4.909567
56.430 5.065306
56.435 5.129533
56.440 5.110365
56.445 4.745865
56.450 4.592052
56.455 4.550077
56.460 4.678649
56.465 4.783257
56.470 4.890391
56.475 4.843132
56.480 4.938352
56.485 4.961946
56.490 4.759021
56.495 4.868472
56.500 4.818096
56.505 4.842924
56.510 4.867589
56.515 4.888266
56.520 4.966488
56.525 5.060491
56.530 4.885594
56.535 4.617962
56.540 4.835944
56.545 5.06388
56.550 5.464884
56.555 5.624134
56.560 5.340554
56.565 5.138711
56.570 4.971236
56.575 4.62335
56.580 4.314367
56.585 3.897657
56.590 3.53268
56.595 3.574988
56.600 3.633086
56.605 3.789179
56.610 3.915793
56.615 3.839777
56.620 4.04156
56.625 3.994789
56.630 4.075138
56.635 4.273526
56.640 4.171229
56.645 4.307867
56.650 4.541172
56.655 4.702212
56.660 4.686688
56.665 4.573516
56.670 4.678454
56.675 4.698907
56.680 4.774457
56.685 4.673923
56.690 4.8743
56.695 5.53761
56.700 5.693323
56.705 5.791819
56.710 5.922648
56.715 5.539734
56.720 5.505091
56.725 5.411248
56.730 4.772521
56.735 4.415616
56.740 4.455164
56.745 4.748993
56.750 4.918055
56.755 4.701604
56.760 4.525347
56.765 5.085326
56.770 5.208557
56.775 4.699769
56.780 4.389858
56.785 4.387244
56.790 4.476011
56.795 4.332595
56.800 4.370316
56.805 5.025834
56.810 5.473903
56.815 5.588147
56.820 5.628211
56.825 5.597429
56.830 5.600391
56.835 5.28485
56.840 4.518678
56.845 4.352318
56.850 4.169875
56.855 3.862474
56.860 3.802839
56.865 3.684416
56.870 3.557177
56.875 3.90405
56.880 4.061841
56.885 4.228363
56.890 4.42593
56.895 4.694807
56.900 4.869643
56.905 4.8676
56.910 4.610066
56.915 4.567961
56.920 4.490122
56.925 4.349875
56.930 4.158767
56.935 4.088806
56.940 4.206518
56.945 4.270732
56.950 4.01417
56.955 4.227327
56.960 4.673748
56.965 4.54084
56.970 4.199241
56.975 4.196871
56.980 4.227817
56.985 4.250404
56.990 3.90228
56.995 3.812138
57.000 4.116034
57.005 4.493139
57.010 4.653235
57.015 4.767315
57.020 4.843443
57.025 4.933005
57.030 4.877579
57.035 4.697852
57.040 4.666803
57.045 4.426925
57.050 4.568453
57.055 4.752259
57.060 4.876392
57.065 5.162486
57.070 5.415072
57.075 5.552641
57.080 5.419797
57.085 5.183133
57.090 4.90097
57.095 4.806034
57.100 4.47345
57.105 4.557016
57.110 4.564884
57.115 4.912146
57.120 5.174284
57.125 5.3015
57.130 5.445461
57.135 5.467816
57.140 5.020943
57.145 4.834426
57.150 4.58818
57.155 4.524667
57.160 4.541861
57.165 4.505242
57.170 4.439476
57.175 4.572355
57.180 4.558538
57.185 4.636377
57.190 4.78944
57.195 4.623496
57.200 4.144126
57.205 4.097586
57.210 3.905723
57.215 4.206
57.220 4.35835
57.225 4.205585
57.230 4.507108
57.235 4.611333
57.240 4.93693
57.245 5.076134
57.250 4.72198
57.255 4.73219
57.260 4.760017
57.265 4.941078
57.270 5.244702
57.275 5.183017
57.280 5.186273
57.285 5.045177
57.290 4.749219
57.295 4.904349
57.300 4.942418
57.305 4.688491
57.310 4.457211
57.315 4.351556
57.320 4.503371
57.325 5.030676
57.330 4.936743
57.335 4.506701
57.340 4.83883
57.345 5.214855
57.350 5.482898
57.355 5.320265
57.360 4.499895
57.365 4.569539
57.370 4.980541
57.375 4.656854
57.380 4.485618
57.385 4.411692
57.390 4.764678
57.395 5.168689
57.400 5.134398
57.405 4.77729
57.410 4.796609
57.415 4.744576
57.420 4.943207
57.425 4.62794
57.430 4.248258
57.435 4.242955
57.440 4.23954
57.445 4.253004
57.450 4.34592
57.455 4.546419
57.460 4.871365
57.465 5.331549
57.470 5.571394
57.475 5.686955
57.480 5.589783
57.485 5.429809
57.490 5.536286
57.495 5.338964
57.500 4.932168
57.505 4.57309
57.510 4.506274
57.515 4.741629
57.520 4.655654
57.525 4.295194
57.530 4.434985
57.535 5.031221
57.540 5.129159
57.545 5.327859
57.550 5.41003
57.555 5.52513
57.560 5.927628
57.565 5.578923
57.570 5.274562
57.575 5.512097
57.580 5.639135
57.585 5.681464
57.590 5.513928
57.595 5.267004
57.600 5.264332
57.605 5.097195
57.610 5.119348
57.615 5.090245
57.620 5.043304
57.625 5.308827
57.630 5.285693
57.635 5.323956
57.640 5.418599
57.645 5.356718
57.650 5.294802
57.655 5.110737
57.660 4.754683
57.665 5.066295
57.670 5.03372
57.675 5.081226
57.680 5.07762
57.685 5.044913
57.690 5.287561
57.695 5.537791
57.700 5.224198
57.705 5.179976
57.710 5.059152
57.715 4.929713
57.720 4.678773
57.725 4.420735
57.730 4.00024
57.735 3.966586
57.740 4.225142
57.745 4.22745
57.750 4.388213
57.755 4.617026
57.760 4.753376
57.765 4.936306
57.770 5.070667
57.775 5.148661
57.780 5.491995
57.785 5.572927
57.790 5.754087
57.795 5.53846
57.800 5.545342
57.805 5.77352
57.810 5.365654
57.815 5.192657
57.820 4.919877
57.825 4.687756
57.830 4.742516
57.835 4.680428
57.840 4.425686
57.845 4.687958
57.850 4.632638
57.855 4.661352
57.860 4.671478
57.865 4.675113
57.870 4.640559
57.875 4.660009
57.880 4.747657
57.885 4.998669
57.890 5.158415
57.895 5.071787
57.900 5.595075
57.905 5.736294
57.910 5.949462
57.915 5.993027
57.920 6.213602
57.925 6.211155
57.930 6.037248
57.935 5.423791
57.940 5.27302
57.945 5.074492
57.950 4.824709
57.955 4.477861
57.960 4.636735
57.965 4.673462
57.970 4.669896
57.975 4.614764
57.980 4.505877
57.985 4.410993
57.990 4.525654
57.995 4.345993
58.000 4.664226
58.005 4.909191
58.010 5.154726
58.015 5.146761
58.020 5.078357
58.025 5.060034
58.030 5.130106
58.035 5.064199
58.040 4.854873
58.045 5.015257
58.050 5.263463
58.055 5.238952
58.060 5.301929
58.065 5.348541
58.070 5.791885
58.075 6.250717
58.080 6.384864
58.085 6.548813
58.090 6.416364
58.095 6.420333
58.100 6.312344
58.105 5.866365
58.110 5.637172
58.115 5.846055
58.120 5.915699
58.125 6.465335
58.130 6.546976
58.135 6.734464
58.140 6.873977
58.145 6.705569
58.150 6.127085
58.155 5.964914
58.160 5.445315
58.165 5.345729
58.170 4.977284
58.175 4.438627
58.180 4.276084
58.185 4.080743
58.190 3.789719
58.195 3.631094
58.200 3.437423
58.205 3.646118
58.210 3.6663
58.215 3.947283
58.220 4.324725
58.225 4.902048
58.230 5.175709
58.235 5.385743
58.240 5.501068
58.245 5.842027
58.250 6.003078
58.255 5.791553
58.260 5.472122
58.265 5.310728
58.270 5.378329
58.275 5.266338
58.280 5.217825
58.285 4.990026
58.290 5.225327
58.295 5.213511
58.300 5.376485
58.305 5.506472
58.310 5.642112
58.315 5.680092
58.320 5.815298
58.325 5.718493
58.330 5.792718
58.335 5.565436
58.340 5.370969
58.345 5.237017
58.350 5.131526
58.355 5.131949
58.360 4.710809
58.365 4.644762
58.370 4.623108
58.375 4.72497
58.380 4.855058
58.385 4.989076
58.390 4.983264
58.395 5.42366
58.400 5.800058
58.405 5.80572
58.410 5.873128
58.415 5.774177
58.420 5.968409
58.425 6.168801
58.430 6.115709
58.435 5.989839
58.440 6.168094
58.445 6.331202
58.450 6.557385
58.455 6.277144
58.460 6.254869
58.465 6.038822
58.470 6.067192
58.475 6.041774
58.480 5.797485
58.485 5.673631
58.490 5.883636
58.495 5.996284
58.500 6.231279
58.505 6.291594
58.510 6.208875
58.515 6.080636
58.520 5.843188
58.525 5.528631
58.530 5.562517
58.535 5.577791
58.540 5.316951
58.545 5.338703
58.550 5.597514
58.555 5.766941
58.560 5.871519
58.565 5.629435
58.570 5.843448
58.575 6.021916
58.580 5.973546
58.585 6.019959
58.590 6.327567
58.595 6.42896
58.600 6.462409
58.605 6.542055
58.610 6.895082
58.615 7.198265
58.620 7.072414
58.625 6.98394
58.630 7.251497
58.635 7.447369
58.640 7.33408
58.645 7.223964
58.650 7.06515
58.655 7.198537
58.660 7.355297
58.665 7.15855
58.670 7.206947
58.675 7.230931
58.680 7.188996
58.685 7.210189
58.690 6.984163
58.695 6.900957
58.700 7.133156
58.705 7.217731
58.710 7.166136
58.715 6.985955
58.720 6.951061
58.725 7.4573
58.730 7.277578
58.735 6.857769
58.740 6.606578
58.745 6.885169
58.750 7.256006
58.755 7.374559
58.760 7.34656
