!@!!GADDS PLOTSO FILE: Chi integration type
!@!!Title/SampleName: map-b0
!@!!Comment: ?
!@!!User: Bruker Instrument Administrator
!@!!Site: University of Illinois Chicago
!@!!Frame: map-b0_01_000.gfrm
!@!!Wavelengths    1.54184   1.54056   1.54439
!@!!Frame angles: 2Theta: 63.000 Omega: 50.000 Phi: 0.000 Chi: 90.000
!@!!Integration range: 2Theta: 53.000 to 73.000  Gamma: -105.000 to -75.000
!@!!Integration method: bin normalized
!@!N
!@!SS
!@!M
!@!L 0.0 0.0 0.0 0.0
!@!XDegrees
!@!YCounts
53.000 6.687216
53.005 6.751384
53.010 6.758642
53.015 6.290573
53.020 6.269234
53.025 6.620847
53.030 6.679565
53.035 6.00566
53.040 5.925959
53.045 6.274202
53.050 6.927653
53.055 7.255757
53.060 7.345212
53.065 7.744288
53.070 8.161226
53.075 7.895869
53.080 7.564884
53.085 7.266972
53.090 6.732664
53.095 6.561792
53.100 6.869791
53.105 7.268832
53.110 7.582381
53.115 8.051153
53.120 8.428614
53.125 8.464986
53.130 8.775626
53.135 8.198319
53.140 8.194691
53.145 8.226762
53.150 7.981186
53.155 7.847414
53.160 7.892278
53.165 7.166408
53.170 7.145868
53.175 6.941438
53.180 7.033486
53.185 6.853866
53.190 6.971032
53.195 7.190621
53.200 7.285125
53.205 7.581409
53.210 7.779449
53.215 7.770823
53.220 7.993279
53.225 7.678683
53.230 7.487277
53.235 7.508156
53.240 7.372887
53.245 7.185683
53.250 6.951549
53.255 7.350749
53.260 7.781455
53.265 8.360249
53.270 8.377268
53.275 8.168759
53.280 8.313249
53.285 8.354734
53.290 7.760955
53.295 7.474986
53.300 6.923982
53.305 6.646739
53.310 6.732818
53.315 6.499145
53.320 6.527436
53.325 6.881895
53.330 6.984059
53.335 7.122418
53.340 7.307594
53.345 7.342862
53.350 7.74951
53.355 7.374569
53.360 7.127729
53.365 7.587473
53.370 7.952302
53.375 8.007626
53.380 8.001471
53.385 7.610277
53.390 7.923571
53.395 7.687997
53.400 7.135385
53.405 6.992623
53.410 7.151741
53.415 7.679619
53.420 7.631619
53.425 7.618698
53.430 7.840105
53.435 7.933654
53.440 7.905617
53.445 8.059636
53.450 8.081572
53.455 8.163895
53.460 8.228583
53.465 8.428322
53.470 8.523642
53.475 8.306398
53.480 7.669095
53.485 7.275666
53.490 7.031454
53.495 6.873383
53.500 6.735214
53.505 6.65079
53.510 6.842963
53.515 6.853126
53.520 7.272235
53.525 7.380867
53.530 7.15654
53.535 7.051921
53.540 7.384501
53.545 7.547062
53.550 7.692651
53.555 7.727848
53.560 7.813804
53.565 8.154981
53.570 8.144993
53.575 8.19426
53.580 8.313275
53.585 8.090174
53.590 8.150991
53.595 8.195189
53.600 8.178156
53.605 8.575323
53.610 8.25294
53.615 8.269581
53.620 8.405259
53.625 8.455808
53.630 8.33015
53.635 8.058305
53.640 7.751809
53.645 8.080697
53.650 8.475681
53.655 8.624531
53.660 8.703902
53.665 8.61748
53.670 8.276045
53.675 8.035369
53.680 7.174007
53.685 6.998255
53.690 6.762732
53.695 6.929957
53.700 7.457237
53.705 8.175931
53.710 8.54257
53.715 8.706657
53.720 8.569144
53.725 8.249988
53.730 8.114876
53.735 7.745268
53.740 7.261638
53.745 7.294644
53.750 7.803153
53.755 8.158189
53.760 8.386962
53.765 8.190212
53.770 8.411734
53.775 8.472506
53.780 8.672812
53.785 8.462482
53.790 8.79646
53.795 8.980659
53.800 9.01797
53.805 8.76621
53.810 8.673309
53.815 8.423454
53.820 8.394589
53.825 7.843696
53.830 7.766469
53.835 8.192862
53.840 8.551363
53.845 8.796741
53.850 8.729548
53.855 8.346148
53.860 8.471117
53.865 8.804829
53.870 8.516407
53.875 8.18534
53.880 7.864865
53.885 8.063395
53.890 8.231208
53.895 8.030314
53.900 7.75687
53.905 7.694498
53.910 7.755404
53.915 7.595054
53.920 7.39089
53.925 7.270658
53.930 7.663382
53.935 7.814181
53.940 8.169073
53.945 8.42887
53.950 8.300028
53.955 8.199338
53.960 8.269562
53.965 8.499832
53.970 8.115539
53.975 8.148448
53.980 8.000256
53.985 8.186112
53.990 8.609166
53.995 8.51053
54.000 8.082243
54.005 8.153323
54.010 8.000567
54.015 8.323441
54.020 8.57294
54.025 8.663569
54.030 8.639615
54.035 8.992158
54.040 8.77656
54.045 8.72116
54.050 8.343381
54.055 8.462831
54.060 8.613976
54.065 8.559117
54.070 8.360072
54.075 8.382811
54.080 8.728963
54.085 8.86042
54.090 8.442483
54.095 8.622581
54.100 9.06916
54.105 9.270064
54.110 9.409988
54.115 9.485566
54.120 9.476907
54.125 9.045194
54.130 8.249499
54.135 7.712038
54.140 7.457311
54.145 7.312308
54.150 6.778543
54.155 6.737785
54.160 7.01734
54.165 7.359964
54.170 7.808012
54.175 7.863381
54.180 8.123016
54.185 8.536852
54.190 8.697895
54.195 8.529092
54.200 8.24448
54.205 8.509312
54.210 8.848246
54.215 8.974629
54.220 9.132139
54.225 9.314043
54.230 10.411298
54.235 11.228484
54.240 10.947935
54.245 10.730117
54.250 10.433514
54.255 10.324426
54.260 10.34765
54.265 9.709266
54.270 9.646855
54.275 9.930306
54.280 9.846145
54.285 10.224164
54.290 10.37961
54.295 10.203895
54.300 9.855418
54.305 9.344896
54.310 9.083203
54.315 8.735682
54.320 8.637859
54.325 8.923419
54.330 9.18036
54.335 9.210711
54.340 9.332399
54.345 9.376648
54.350 9.501167
54.355 9.439355
54.360 9.17622
54.365 9.020969
54.370 8.791696
54.375 9.205947
54.380 8.996836
54.385 9.256104
54.390 9.35438
54.395 9.613259
54.400 9.926233
54.405 10.30964
54.410 10.356566
54.415 10.806189
54.420 10.818704
54.425 10.480825
54.430 9.913752
54.435 9.313256
54.440 8.836895
54.445 8.698447
54.450 8.542602
54.455 8.31432
54.460 8.070956
54.465 8.457143
54.470 8.964142
54.475 8.677344
54.480 8.268191
54.485 8.188949
54.490 8.713938
54.495 9.07653
54.500 8.882176
54.505 8.911376
54.510 9.26945
54.515 8.920703
54.520 9.080832
54.525 9.073007
54.530 9.062557
54.535 9.103427
54.540 9.184374
54.545 9.355933
54.550 9.815614
54.555 9.607602
54.560 9.278112
54.565 9.005452
54.570 9.114738
54.575 9.758186
54.580 9.533269
54.585 9.437066
54.590 9.503211
54.595 9.854615
54.600 10.285034
54.605 9.910551
54.610 9.365976
54.615 9.665084
54.620 9.781741
54.625 9.629553
54.630 9.368252
54.635 9.07539
54.640 9.070232
54.645 8.948358
54.650 8.924743
54.655 9.416735
54.660 9.850049
54.665 10.092265
54.670 10.434265
54.675 10.190954
54.680 10.094444
54.685 9.885307
54.690 9.391374
54.695 8.739505
54.700 8.393461
54.705 8.549256
54.710 8.75599
54.715 9.356475
54.720 9.296661
54.725 10.182516
54.730 10.926354
54.735 10.903635
54.740 10.604584
54.745 10.936528
54.750 10.3377
54.755 10.109776
54.760 9.430392
54.765 9.125405
54.770 9.670112
54.775 10.180616
54.780 10.113514
54.785 10.479712
54.790 10.536566
54.795 10.781076
54.800 11.125016
54.805 10.927797
54.810 10.830009
54.815 10.597598
54.820 10.775249
54.825 11.198128
54.830 11.086204
54.835 10.916853
54.840 10.890611
54.845 10.893764
54.850 11.154384
54.855 10.934875
54.860 10.681264
54.865 10.934776
54.870 10.741072
54.875 10.345278
54.880 9.68634
54.885 9.266453
54.890 9.031425
54.895 8.635089
54.900 8.192224
54.905 8.420999
54.910 8.929749
54.915 9.493162
54.920 9.403514
54.925 9.57736
54.930 9.679498
54.935 10.02494
54.940 9.924566
54.945 9.828366
54.950 10.419644
54.955 10.779103
54.960 11.215304
54.965 11.348339
54.970 11.554484
54.975 11.75755
54.980 11.762153
54.985 11.619966
54.990 11.776528
54.995 11.671687
55.000 11.594345
55.005 11.634018
55.010 11.69831
55.015 11.949002
55.020 11.623307
55.025 11.179766
55.030 10.929173
55.035 10.896774
55.040 10.682489
55.045 10.14465
55.050 9.953123
55.055 10.18556
55.060 10.295918
55.065 10.342938
55.070 10.253058
55.075 10.012503
55.080 10.497102
55.085 10.176741
55.090 9.788066
55.095 10.480605
55.100 10.562437
55.105 10.462991
55.110 10.840738
55.115 10.06918
55.120 10.135454
55.125 10.149064
55.130 9.395796
55.135 9.440399
55.140 9.704499
55.145 9.944826
55.150 10.169868
55.155 10.265118
55.160 10.706308
55.165 11.12959
55.170 10.898039
55.175 10.560012
55.180 10.671606
55.185 11.035738
55.190 11.304002
55.195 11.284248
55.200 10.91079
55.205 10.980364
55.210 10.864644
55.215 10.406864
55.220 10.218876
55.225 10.224079
55.230 10.32424
55.235 10.343628
55.240 10.204576
55.245 10.329589
55.250 10.491604
55.255 10.649433
55.260 11.098333
55.265 11.217586
55.270 11.500828
55.275 11.660125
55.280 11.395187
55.285 11.258132
55.290 10.44374
55.295 9.65725
55.300 9.704885
55.305 9.542951
55.310 9.334683
55.315 9.518206
55.320 9.991056
55.325 10.78362
55.330 10.881642
55.335 10.915499
55.340 11.290064
55.345 11.280512
55.350 11.627194
55.355 11.438334
55.360 11.132309
55.365 11.082624
55.370 11.055781
55.375 10.879978
55.380 10.987553
55.385 10.594584
55.390 10.603095
55.395 11.030787
55.400 10.813954
55.405 10.807571
55.410 10.643614
55.415 10.49205
55.420 10.738052
55.425 10.549498
55.430 10.173825
55.435 10.029876
55.440 10.185157
55.445 10.358191
55.450 10.751364
55.455 10.849756
55.460 10.834985
55.465 11.004827
55.470 11.217352
55.475 10.775731
55.480 10.302834
55.485 10.061716
55.490 9.988462
55.495 9.924269
55.500 9.954235
55.505 9.559643
55.510 9.61162
55.515 9.883651
55.520 9.679642
55.525 9.657837
55.530 9.247563
55.535 9.027204
55.540 9.098237
55.545 9.679965
55.550 9.827428
55.555 10.023705
55.560 10.215377
55.565 10.792675
55.570 11.091118
55.575 11.130705
55.580 10.8531
55.585 10.859575
55.590 10.610902
55.595 10.48865
55.600 10.394561
55.605 10.068677
55.610 10.060227
55.615 10.186808
55.620 10.226442
55.625 10.048829
55.630 10.053132
55.635 10.237836
55.640 10.456317
55.645 10.660111
55.650 10.507521
55.655 10.543202
55.660 10.753652
55.665 10.499404
55.670 10.360332
55.675 10.400568
55.680 10.257843
55.685 10.472633
55.690 10.381345
55.695 10.712061
55.700 11.174981
55.705 11.08897
55.710 11.424658
55.715 12.142589
55.720 12.247694
55.725 12.402045
55.730 11.860739
55.735 11.454285
55.740 11.472095
55.745 11.052171
55.750 10.394379
55.755 10.197505
55.760 10.022092
55.765 10.131718
55.770 10.270321
55.775 10.501053
55.780 10.786504
55.785 10.967659
55.790 10.92365
55.795 10.913396
55.800 10.753885
55.805 11.209932
55.810 10.803117
55.815 10.739285
55.820 10.66837
55.825 10.566027
55.830 10.71309
55.835 10.646011
55.840 10.171035
55.845 10.442739
55.850 10.399835
55.855 10.243495
55.860 10.853725
55.865 11.22212
55.870 11.294012
55.875 11.164801
55.880 10.695471
55.885 10.580583
55.890 10.512568
55.895 10.12857
55.900 9.799313
55.905 9.865185
55.910 10.48668
55.915 10.610094
55.920 10.660603
55.925 10.632782
55.930 10.579318
55.935 11.342894
55.940 11.438302
55.945 11.402555
55.950 11.44377
55.955 11.376463
55.960 11.750347
55.965 11.759089
55.970 11.208014
55.975 10.93025
55.980 10.860904
55.985 11.318273
55.990 11.781924
55.995 11.570439
56.000 11.113915
56.005 10.989838
56.010 10.872943
56.015 10.646627
56.020 10.181307
56.025 9.673322
56.030 9.757954
56.035 10.285254
56.040 10.697348
56.045 11.326963
56.050 11.81241
56.055 12.136247
56.060 11.93926
56.065 11.718635
56.070 11.610456
56.075 11.852992
56.080 11.247328
56.085 10.994328
56.090 11.047976
56.095 11.335696
56.100 11.487598
56.105 11.621714
56.110 11.152438
56.115 10.97555
56.120 11.053345
56.125 10.865623
56.130 10.827219
56.135 11.036446
56.140 10.966353
56.145 11.587229
56.150 11.966372
56.155 11.732463
56.160 11.851964
56.165 11.578848
56.170 11.362629
56.175 11.322993
56.180 10.873579
56.185 10.467364
56.190 10.495326
56.195 10.692718
56.200 11.021386
56.205 11.163248
56.210 11.143295
56.215 11.66757
56.220 12.043567
56.225 12.156059
56.230 12.302073
56.235 12.414128
56.240 12.123813
56.245 12.375707
56.250 12.170927
56.255 12.445828
56.260 12.523673
56.265 12.127955
56.270 12.144322
56.275 12.803288
56.280 12.813996
56.285 12.28009
56.290 11.453649
56.295 11.428072
56.300 11.521683
56.305 11.345506
56.310 10.915279
56.315 10.695103
56.320 11.317172
56.325 12.038252
56.330 12.548174
56.335 12.512077
56.340 12.40847
56.345 12.346953
56.350 12.345861
56.355 12.269293
56.360 12.411849
56.365 12.556728
56.370 12.254578
56.375 12.172148
56.380 12.141775
56.385 12.634328
56.390 12.311306
56.395 11.44051
56.400 11.275883
56.405 11.442154
56.410 12.070175
56.415 11.955711
56.420 11.903538
56.425 11.928377
56.430 11.820051
56.435 11.701714
56.440 11.648173
56.445 11.441389
56.450 11.293737
56.455 10.950498
56.460 11.318059
56.465 11.701511
56.470 11.558744
56.475 11.752307
56.480 11.380342
56.485 12.174341
56.490 12.710976
56.495 12.232713
56.500 11.998237
56.505 12.211011
56.510 12.147799
56.515 11.972597
56.520 11.290588
56.525 11.046507
56.530 11.565023
56.535 11.853098
56.540 12.160813
56.545 12.449162
56.550 12.497159
56.555 12.650105
56.560 13.008042
56.565 12.702147
56.570 12.942314
56.575 12.845358
56.580 12.965818
56.585 13.010522
56.590 13.030767
56.595 12.75431
56.600 12.916761
56.605 12.517687
56.610 12.653118
56.615 12.159621
56.620 11.880344
56.625 11.469203
56.630 11.117575
56.635 11.038095
56.640 10.851292
56.645 10.737959
56.650 11.073093
56.655 11.538178
56.660 11.670215
56.665 11.68478
56.670 11.638072
56.675 11.69391
56.680 11.419665
56.685 11.316644
56.690 11.105828
56.695 11.542486
56.700 11.692094
56.705 11.958915
56.710 12.221825
56.715 12.720158
56.720 13.049997
56.725 12.963282
56.730 13.065035
56.735 12.96598
56.740 12.699862
56.745 12.398936
56.750 12.326483
56.755 12.35128
56.760 12.365246
56.765 12.34285
56.770 12.292686
56.775 12.531985
56.780 12.923388
56.785 12.376966
56.790 12.166247
56.795 12.291111
56.800 12.456434
56.805 12.720596
56.810 12.655415
56.815 12.445076
56.820 12.693236
56.825 12.835619
56.830 13.079257
56.835 13.14548
56.840 12.791462
56.845 12.67382
56.850 12.902626
56.855 12.882246
56.860 12.777177
56.865 12.2158
56.870 11.855973
56.875 12.190641
56.880 12.132717
56.885 11.843699
56.890 11.362045
56.895 11.003752
56.900 11.188094
56.905 11.455663
56.910 11.095562
56.915 11.19316
56.920 11.481838
56.925 11.893532
56.930 12.302048
56.935 12.554985
56.940 12.266454
56.945 12.442382
56.950 12.769814
56.955 12.616373
56.960 13.178772
56.965 13.448621
56.970 12.874553
56.975 12.913911
56.980 13.212942
56.985 12.865933
56.990 12.96039
56.995 12.752166
57.000 12.677096
57.005 12.737329
57.010 12.472546
57.015 11.640553
57.020 11.61639
57.025 11.491074
57.030 11.22369
57.035 11.312962
57.040 11.375324
57.045 12.008598
57.050 12.536938
57.055 13.319588
57.060 13.781522
57.065 13.543612
57.070 13.077102
57.075 12.814536
57.080 12.915388
57.085 12.706633
57.090 12.06512
57.095 11.735847
57.100 12.229882
57.105 12.830948
57.110 13.430665
57.115 13.136246
57.120 12.940391
57.125 12.953858
57.130 12.968688
57.135 12.401272
57.140 12.07183
57.145 12.225943
57.150 12.275238
57.155 12.189348
57.160 12.136413
57.165 11.982736
57.170 12.689267
57.175 12.51409
57.180 12.287439
57.185 12.608648
57.190 12.652572
57.195 12.843793
57.200 13.318347
57.205 13.010509
57.210 13.514133
57.215 13.411175
57.220 13.23761
57.225 13.333851
57.230 13.124366
57.235 12.617833
57.240 12.472913
57.245 12.512887
57.250 13.352286
57.255 14.022135
57.260 14.518418
57.265 14.85675
57.270 14.836957
57.275 14.934226
57.280 14.621454
57.285 14.068675
57.290 13.543807
57.295 13.739725
57.300 13.411705
57.305 13.639805
57.310 13.856669
57.315 14.101867
57.320 13.901237
57.325 13.815406
57.330 13.441325
57.335 13.267185
57.340 13.18921
57.345 12.743311
57.350 12.781206
57.355 12.237436
57.360 12.055397
57.365 12.05237
57.370 12.420884
57.375 12.68085
57.380 12.553354
57.385 12.720843
57.390 13.323513
57.395 13.824129
57.400 14.285961
57.405 14.426793
57.410 14.54751
57.415 14.632502
57.420 14.122878
57.425 13.382255
57.430 12.978182
57.435 12.824676
57.440 12.57601
57.445 12.562962
57.450 12.953452
57.455 13.565059
57.460 13.941844
57.465 14.045462
57.470 14.292546
57.475 14.809482
57.480 14.886057
57.485 14.953642
57.490 14.877594
57.495 14.927103
57.500 14.470452
57.505 13.863198
57.510 13.4804
57.515 13.307556
57.520 12.809875
57.525 12.375877
57.530 12.394284
57.535 12.657963
57.540 13.10312
57.545 12.977386
57.550 12.862179
57.555 13.729852
57.560 14.802877
57.565 15.173823
57.570 15.573171
57.575 15.952024
57.580 16.540064
57.585 16.65917
57.590 16.036278
57.595 14.997537
57.600 14.893275
57.605 14.602347
57.610 14.167616
57.615 13.649059
57.620 13.952529
57.625 14.445407
57.630 14.521297
57.635 14.366497
57.640 14.264894
57.645 14.008672
57.650 14.462897
57.655 14.098786
57.660 14.025208
57.665 14.406766
57.670 14.387477
57.675 14.524831
57.680 14.793556
57.685 14.686243
57.690 14.959949
57.695 14.975288
57.700 14.581051
57.705 14.21524
57.710 13.742956
57.715 13.5172
57.720 13.67977
57.725 13.766724
57.730 13.764887
57.735 14.235982
57.740 14.862397
57.745 15.102075
57.750 14.904689
57.755 14.718835
57.760 15.021958
57.765 15.427052
57.770 15.583427
57.775 15.49973
57.780 15.648407
57.785 15.992915
57.790 15.885197
57.795 15.918876
57.800 15.588407
57.805 15.242547
57.810 14.886487
57.815 14.752446
57.820 14.411641
57.825 14.210658
57.830 14.004217
57.835 14.161352
57.840 14.624674
57.845 15.093049
57.850 15.045425
57.855 15.185567
57.860 15.325899
57.865 15.039244
57.870 14.998313
57.875 14.747576
57.880 14.777552
57.885 14.899337
57.890 15.021931
57.895 15.341307
57.900 15.70982
57.905 15.389249
57.910 14.928812
57.915 14.937209
57.920 14.530754
57.925 14.586473
57.930 14.052978
57.935 14.459546
57.940 15.53996
57.945 16.154932
57.950 16.193533
57.955 16.688019
57.960 16.448204
57.965 16.265627
57.970 15.701985
57.975 15.06291
57.980 15.029565
57.985 14.933737
57.990 14.735682
57.995 14.287508
58.000 14.158389
58.005 13.745078
58.010 13.771638
58.015 14.091429
58.020 14.224852
58.025 14.336115
58.030 15.263405
58.035 15.487314
58.040 16.134995
58.045 16.385332
58.050 16.352743
58.055 16.491167
58.060 16.762289
58.065 16.89068
58.070 16.987097
58.075 16.21636
58.080 15.812738
58.085 15.592951
58.090 15.232958
58.095 14.716351
58.100 14.293105
58.105 14.755967
58.110 15.101569
58.115 14.978849
58.120 14.802437
58.125 14.964803
58.130 14.855501
58.135 15.156556
58.140 14.628208
58.145 14.602196
58.150 14.52552
58.155 14.841636
58.160 15.020446
58.165 15.383594
58.170 15.476737
58.175 15.66504
58.180 15.315125
58.185 15.858365
58.190 16.215006
58.195 16.143116
58.200 16.484758
58.205 16.261627
58.210 16.431252
58.215 16.91082
58.220 16.679976
58.225 16.583448
58.230 16.266066
58.235 15.751416
58.240 15.707709
58.245 15.848639
58.250 15.581741
58.255 15.332937
58.260 15.239301
58.265 15.795903
58.270 16.020464
58.275 16.131721
58.280 16.873365
58.285 17.195215
58.290 17.371471
58.295 17.59993
58.300 18.343737
58.305 18.872442
58.310 18.986725
58.315 18.799292
58.320 19.04204
58.325 19.224174
58.330 19.43569
58.335 18.659761
58.340 18.866632
58.345 18.520472
58.350 18.700191
58.355 18.836315
58.360 19.09726
58.365 19.592506
58.370 19.827349
58.375 20.346121
58.380 21.087696
58.385 21.573376
58.390 22.293625
58.395 22.490099
58.400 22.450008
58.405 22.707645
58.410 22.433426
58.415 22.317957
58.420 22.653658
58.425 23.283861
58.430 23.474812
58.435 23.46911
58.440 23.995543
58.445 24.331003
58.450 25.335905
58.455 25.710241
58.460 26.036381
58.465 26.647081
58.470 26.723495
58.475 26.878061
58.480 26.887699
58.485 26.125732
58.490 25.886011
58.495 25.95775
58.500 26.042305
58.505 26.930927
58.510 26.944117
58.515 26.994585
58.520 27.511461
58.525 27.733948
58.530 27.678638
58.535 27.923315
58.540 27.538528
58.545 27.912363
