!@!!GADDS PLOTSO FILE: Chi integration type
!@!!Title/SampleName: map-f5
!@!!Comment: ?
!@!!User: Bruker Instrument Administrator
!@!!Site: University of Illinois Chicago
!@!!Frame: map-f5_01_000.gfrm
!@!!Wavelengths    1.54184   1.54056   1.54439
!@!!Frame angles: 2Theta: 63.000 Omega: 50.000 Phi: 0.000 Chi: 90.000
!@!!Integration range: 2Theta: 53.000 to 73.000  Gamma: -105.000 to -75.000
!@!!Integration method: bin normalized
!@!N
!@!SS
!@!M
!@!L 0.0 0.0 0.0 0.0
!@!XDegrees
!@!YCounts
53.000 4.873092
53.005 4.262865
53.010 4.203337
53.015 4.379978
53.020 4.370346
53.025 4.691444
53.030 5.011434
53.035 5.162393
53.040 5.274546
53.045 5.255338
53.050 4.979888
53.055 4.749221
53.060 4.399177
53.065 4.353095
53.070 4.439189
53.075 4.496639
53.080 4.305091
53.085 4.798533
53.090 5.101707
53.095 5.33182
53.100 5.271359
53.105 5.191698
53.110 5.333147
53.115 5.582261
53.120 5.206448
53.125 5.28552
53.130 5.130508
53.135 4.908149
53.140 4.733345
53.145 4.249995
53.150 4.068341
53.155 3.930085
53.160 3.760888
53.165 3.542739
53.170 3.457966
53.175 3.406258
53.180 3.622646
53.185 3.762119
53.190 3.81923
53.195 3.85572
53.200 4.168515
53.205 4.500786
53.210 4.783312
53.215 4.480346
53.220 4.315004
53.225 4.601415
53.230 4.58455
53.235 4.48752
53.240 4.159739
53.245 4.107511
53.250 4.33383
53.255 4.506463
53.260 4.981158
53.265 5.534028
53.270 5.63247
53.275 5.565867
53.280 5.464772
53.285 5.502311
53.290 5.12014
53.295 4.705497
53.300 4.271194
53.305 4.504657
53.310 4.702352
53.315 4.928796
53.320 5.033912
53.325 5.477853
53.330 5.91907
53.335 5.860691
53.340 5.958881
53.345 6.270367
53.350 6.283858
53.355 6.05427
53.360 5.785806
53.365 5.878609
53.370 6.156801
53.375 6.045629
53.380 5.632491
53.385 5.495023
53.390 5.360516
53.395 4.972518
53.400 4.828293
53.405 4.516462
53.410 4.46351
53.415 4.521877
53.420 4.613007
53.425 4.612123
53.430 4.590271
53.435 4.577975
53.440 4.594863
53.445 4.587634
53.450 4.613518
53.455 4.587339
53.460 4.547849
53.465 4.564562
53.470 4.637452
53.475 4.840681
53.480 4.785596
53.485 4.945363
53.490 5.286326
53.495 5.348269
53.500 5.367576
53.505 5.303578
53.510 5.306128
53.515 5.382329
53.520 5.752324
53.525 5.65997
53.530 5.703094
53.535 5.685625
53.540 5.563588
53.545 5.182166
53.550 5.028686
53.555 4.880927
53.560 4.953978
53.565 5.003197
53.570 5.192563
53.575 5.819321
53.580 6.266227
53.585 6.041987
53.590 6.255682
53.595 6.186508
53.600 5.809045
53.605 5.571193
53.610 5.403494
53.615 5.16272
53.620 5.077088
53.625 4.592595
53.630 4.957435
53.635 5.30272
53.640 4.986013
53.645 4.996522
53.650 5.600795
53.655 5.756519
53.660 5.538625
53.665 5.269606
53.670 5.16766
53.675 5.273627
53.680 4.889413
53.685 4.312385
53.690 4.519438
53.695 4.405545
53.700 4.274297
53.705 4.1507
53.710 4.229925
53.715 4.878143
53.720 5.320535
53.725 5.683525
53.730 6.261639
53.735 6.454788
53.740 6.446122
53.745 6.325295
53.750 5.952233
53.755 5.774218
53.760 5.288022
53.765 5.024641
53.770 5.379741
53.775 5.390636
53.780 5.165199
53.785 5.086604
53.790 4.996189
53.795 5.168731
53.800 5.059453
53.805 4.881489
53.810 4.902842
53.815 5.10792
53.820 5.185592
53.825 5.305469
53.830 5.089134
53.835 5.053752
53.840 4.97222
53.845 5.214814
53.850 5.141333
53.855 4.992136
53.860 5.103435
53.865 5.110635
53.870 5.139513
53.875 5.240501
53.880 5.010979
53.885 5.030682
53.890 5.277208
53.895 5.366529
53.900 5.770219
53.905 5.997537
53.910 5.898143
53.915 5.979377
53.920 5.992856
53.925 5.908284
53.930 5.946484
53.935 5.914619
53.940 5.722977
53.945 5.915175
53.950 6.305045
53.955 6.393
53.960 6.333751
53.965 5.915982
53.970 5.571669
53.975 5.737037
53.980 5.699611
53.985 5.284636
53.990 5.056076
53.995 4.993962
54.000 5.014441
54.005 4.680017
54.010 4.431623
54.015 4.464971
54.020 4.410492
54.025 4.204394
54.030 3.935984
54.035 4.07774
54.040 4.428015
54.045 4.37703
54.050 4.257794
54.055 4.320099
54.060 4.647322
54.065 5.104259
54.070 5.288301
54.075 4.855846
54.080 4.992343
54.085 5.250978
54.090 5.228959
54.095 4.995604
54.100 4.981216
54.105 5.185491
54.110 5.757798
54.115 5.654023
54.120 5.245862
54.125 5.232008
54.130 5.439626
54.135 5.543668
54.140 5.473997
54.145 5.332537
54.150 5.077114
54.155 5.381614
54.160 5.562938
54.165 5.415712
54.170 5.090537
54.175 4.734004
54.180 5.01324
54.185 5.292069
54.190 5.103004
54.195 5.291559
54.200 5.508952
54.205 5.627363
54.210 5.961406
54.215 6.046322
54.220 6.233289
54.225 6.155991
54.230 5.769975
54.235 5.785227
54.240 6.025183
54.245 5.568575
54.250 4.897209
54.255 4.768462
54.260 4.927091
54.265 5.082906
54.270 5.045009
54.275 4.900945
54.280 5.104581
54.285 5.565283
54.290 6.092468
54.295 6.430713
54.300 6.647447
54.305 7.156644
54.310 7.256559
54.315 7.39651
54.320 7.197538
54.325 6.428794
54.330 6.557595
54.335 6.303709
54.340 6.165467
54.345 6.174957
54.350 6.173796
54.355 6.206746
54.360 6.171101
54.365 5.724516
54.370 5.5234
54.375 5.515492
54.380 5.406034
54.385 5.207944
54.390 5.547693
54.395 5.75719
54.400 5.746584
54.405 5.522769
54.410 5.487213
54.415 5.290346
54.420 5.299338
54.425 4.92969
54.430 5.092628
54.435 5.05619
54.440 5.135309
54.445 5.049469
54.450 5.203866
54.455 5.435849
54.460 5.750624
54.465 5.654739
54.470 5.825683
54.475 5.812848
54.480 5.831751
54.485 5.917559
54.490 5.645136
54.495 5.705527
54.500 5.942482
54.505 5.949452
54.510 6.009995
54.515 5.872861
54.520 5.876357
54.525 5.768726
54.530 5.617865
54.535 5.413533
54.540 5.065037
54.545 5.651307
54.550 5.802186
54.555 6.000209
54.560 6.298403
54.565 6.356095
54.570 6.570796
54.575 6.779916
54.580 6.258206
54.585 6.302558
54.590 6.046146
54.595 5.918819
54.600 6.10653
54.605 6.303129
54.610 6.551795
54.615 6.669269
54.620 6.362533
54.625 6.332652
54.630 6.094626
54.635 5.662537
54.640 5.635082
54.645 5.344757
54.650 5.509979
54.655 5.681923
54.660 5.677219
54.665 5.749645
54.670 5.77171
54.675 5.629206
54.680 5.642732
54.685 5.535558
54.690 5.898221
54.695 6.074697
54.700 5.974973
54.705 6.240252
54.710 5.821293
54.715 5.689723
54.720 5.460706
54.725 5.286119
54.730 5.243477
54.735 4.967018
54.740 4.729437
54.745 5.026149
54.750 5.146456
54.755 5.101729
54.760 5.221934
54.765 5.533358
54.770 6.024737
54.775 6.058868
54.780 5.993828
54.785 6.182485
54.790 6.248559
54.795 5.947877
54.800 5.486962
54.805 5.685851
54.810 6.055004
54.815 5.907207
54.820 5.672436
54.825 5.59831
54.830 5.685554
54.835 5.930085
54.840 5.411142
54.845 5.140061
54.850 5.537139
54.855 6.034982
54.860 6.278296
54.865 6.334485
54.870 6.474867
54.875 6.69697
54.880 6.860093
54.885 6.820375
54.890 6.219403
54.895 6.219102
54.900 6.185199
54.905 5.953552
54.910 5.859149
54.915 6.020445
54.920 6.050206
54.925 6.178908
54.930 6.118901
54.935 5.953472
54.940 6.190673
54.945 6.241588
54.950 5.959353
54.955 5.852294
54.960 5.874179
54.965 5.895535
54.970 5.851702
54.975 5.735345
54.980 5.46514
54.985 5.795274
54.990 5.955485
54.995 6.115681
55.000 6.279932
55.005 6.061032
55.010 5.957568
55.015 5.996731
55.020 6.100421
55.025 6.135967
55.030 6.204016
55.035 6.300692
55.040 6.704711
55.045 7.029529
55.050 7.057082
55.055 6.803458
55.060 6.442579
55.065 6.549414
55.070 6.567622
55.075 6.365251
55.080 6.079216
55.085 6.205449
55.090 6.285132
55.095 6.426741
55.100 6.184744
55.105 6.190806
55.110 6.404644
55.115 6.7845
55.120 7.063695
55.125 7.207139
55.130 7.511804
55.135 7.416703
55.140 7.500088
55.145 7.693595
55.150 7.996392
55.155 7.553268
55.160 7.470067
55.165 7.352394
55.170 7.386863
55.175 7.24754
55.180 6.871549
55.185 6.570934
55.190 6.252296
55.195 6.024557
55.200 5.870237
55.205 6.035174
55.210 6.44664
55.215 6.540987
55.220 6.516725
55.225 6.511072
55.230 6.600815
55.235 6.582776
55.240 6.280255
55.245 6.03726
55.250 5.783867
55.255 5.808591
55.260 5.662521
55.265 5.411208
55.270 5.27336
55.275 5.258269
55.280 5.171292
55.285 5.430252
55.290 5.947287
55.295 6.500532
55.300 6.647278
55.305 6.674427
55.310 6.608695
55.315 6.502437
55.320 6.251255
55.325 5.819273
55.330 5.829001
55.335 6.254103
55.340 6.709386
55.345 7.192914
55.350 7.432711
55.355 7.495742
55.360 7.7811
55.365 7.747249
55.370 7.697458
55.375 7.890098
55.380 7.687763
55.385 7.584233
55.390 7.797874
55.395 7.698784
55.400 7.853132
55.405 7.718452
55.410 7.246067
55.415 7.158638
55.420 6.923316
55.425 6.439045
55.430 6.392282
55.435 6.120965
55.440 6.375574
55.445 6.574062
55.450 6.74545
55.455 7.202299
55.460 7.94352
55.465 8.471408
55.470 8.769462
55.475 8.615851
55.480 8.51608
55.485 8.573945
55.490 8.247488
55.495 7.610583
55.500 7.041839
55.505 6.695613
55.510 6.702819
55.515 6.563429
55.520 6.559555
55.525 6.287746
55.530 6.625164
55.535 6.33822
55.540 6.448441
55.545 6.245191
55.550 6.447681
55.555 6.545935
55.560 6.649435
55.565 7.167819
55.570 7.73374
55.575 7.70861
55.580 7.888326
55.585 7.832602
55.590 8.168957
55.595 7.93621
55.600 7.154109
55.605 6.836491
55.610 6.872759
55.615 6.824868
55.620 6.647666
55.625 6.33478
55.630 6.446844
55.635 6.632105
55.640 6.197125
55.645 6.046441
55.650 5.906155
55.655 5.927794
55.660 5.869564
55.665 5.702408
55.670 6.048267
55.675 6.335868
55.680 6.25376
55.685 6.620434
55.690 6.678038
55.695 6.595079
55.700 7.020098
55.705 7.450389
55.710 7.613286
55.715 7.706515
55.720 7.242763
55.725 7.377995
55.730 7.739269
55.735 7.715843
55.740 7.395278
55.745 7.38564
55.750 7.240818
55.755 7.210204
55.760 6.932582
55.765 6.862598
55.770 6.643695
55.775 6.308915
55.780 6.759197
55.785 7.29977
55.790 7.557274
55.795 7.652997
55.800 7.212513
55.805 6.842488
55.810 6.578524
55.815 6.328171
55.820 6.519645
55.825 6.850301
55.830 7.132337
55.835 7.835772
55.840 8.738356
55.845 9.020896
55.850 9.034092
55.855 8.64331
55.860 8.180291
55.865 8.069743
55.870 7.782717
55.875 7.356792
55.880 7.156964
55.885 6.934134
55.890 6.788235
55.895 7.136434
55.900 7.002956
55.905 6.781877
55.910 6.990293
55.915 6.982216
55.920 7.025481
55.925 7.282238
55.930 7.230021
55.935 7.728381
55.940 8.398773
55.945 8.697188
55.950 9.036086
55.955 9.025144
55.960 8.90868
55.965 8.665557
55.970 8.165499
55.975 7.656411
55.980 7.295597
55.985 7.086515
55.990 6.878586
55.995 6.937467
56.000 7.123189
56.005 6.874182
56.010 6.591586
56.015 6.320293
56.020 6.186858
56.025 6.092884
56.030 5.74866
56.035 5.327929
56.040 5.227474
56.045 5.504387
56.050 5.787228
56.055 6.118364
56.060 6.237562
56.065 6.333929
56.070 6.571156
56.075 6.546399
56.080 6.323335
56.085 6.314261
56.090 6.161218
56.095 6.215568
56.100 6.343859
56.105 6.440458
56.110 6.777609
56.115 6.828648
56.120 6.871328
56.125 6.660685
56.130 6.585306
56.135 6.575881
56.140 6.813678
56.145 6.967355
56.150 7.513784
56.155 7.866958
56.160 7.711968
56.165 7.716214
56.170 7.594568
56.175 7.382479
56.180 6.908405
56.185 6.344421
56.190 6.241016
56.195 6.587477
56.200 6.705228
56.205 6.654895
56.210 6.877557
56.215 7.065456
56.220 7.098294
56.225 7.001033
56.230 7.078479
56.235 7.427464
56.240 8.002103
56.245 8.051613
56.250 7.75206
56.255 7.687387
56.260 7.911709
56.265 8.019081
56.270 7.736465
56.275 7.393119
56.280 7.333661
56.285 7.567611
56.290 7.737133
56.295 7.733459
56.300 7.689699
56.305 7.705765
56.310 7.74781
56.315 7.937015
56.320 8.071343
56.325 7.911684
56.330 7.72288
56.335 7.865304
56.340 7.805712
56.345 7.519713
56.350 7.334098
56.355 7.16757
56.360 7.332285
56.365 7.098998
56.370 6.938618
56.375 7.061763
56.380 7.382678
56.385 7.791214
56.390 7.680441
56.395 7.483332
56.400 7.403535
56.405 7.058322
56.410 6.859962
56.415 6.617774
56.420 6.782396
56.425 7.122791
56.430 7.527952
56.435 8.159904
56.440 8.071316
56.445 8.025036
56.450 8.078058
56.455 7.374141
56.460 7.286208
56.465 6.823685
56.470 6.397268
56.475 6.445369
56.480 6.635042
56.485 6.858997
56.490 7.337574
56.495 7.766467
56.500 8.218977
56.505 8.835108
56.510 8.884326
56.515 8.591235
56.520 8.588325
56.525 8.576217
56.530 8.100924
56.535 7.985452
56.540 7.792367
56.545 7.854122
56.550 7.898791
56.555 7.680808
56.560 7.626259
56.565 7.73788
56.570 7.820082
56.575 7.891611
56.580 8.183132
56.585 8.416558
56.590 9.133117
56.595 9.210974
56.600 9.339772
56.605 9.061287
56.610 9.101368
56.615 8.939626
56.620 8.988659
56.625 8.833167
56.630 8.777264
56.635 8.890156
56.640 9.210526
56.645 9.026155
56.650 8.820024
56.655 8.687016
56.660 8.281585
56.665 8.075397
56.670 8.00695
56.675 7.842158
56.680 7.976419
56.685 8.003824
56.690 8.208516
56.695 8.201309
56.700 8.474809
56.705 8.005687
56.710 7.985919
56.715 7.975142
56.720 7.821698
56.725 7.614308
56.730 7.755728
56.735 7.785186
56.740 8.069247
56.745 8.227061
56.750 8.249868
56.755 8.54245
56.760 8.678555
56.765 8.284387
56.770 8.138402
56.775 8.266829
56.780 8.447086
56.785 8.332524
56.790 8.263673
56.795 8.024845
56.800 8.458952
56.805 8.666429
56.810 8.917008
56.815 8.694897
56.820 8.574793
56.825 8.696711
56.830 9.062663
56.835 9.119934
56.840 8.689969
56.845 8.684161
56.850 9.071462
56.855 9.309251
56.860 8.965909
56.865 8.960095
56.870 8.928852
56.875 8.899846
56.880 8.204877
56.885 8.006593
56.890 7.86219
56.895 7.768608
56.900 7.388315
56.905 7.436223
56.910 7.752337
56.915 8.245881
56.920 8.121423
56.925 8.335627
56.930 8.984424
56.935 9.390011
56.940 9.695132
56.945 9.64081
56.950 9.47087
56.955 9.577854
56.960 9.388747
56.965 9.169499
56.970 8.790073
56.975 8.46254
56.980 8.350267
56.985 8.6913
56.990 8.643376
56.995 8.314241
57.000 8.340732
57.005 8.630536
57.010 8.958656
57.015 8.97625
57.020 8.467058
57.025 8.581438
57.030 8.764277
57.035 8.596214
57.040 8.301011
57.045 7.790253
57.050 7.937757
57.055 8.144425
57.060 8.159252
57.065 8.336014
57.070 8.126678
57.075 8.392213
57.080 8.82076
57.085 9.051798
57.090 8.995488
57.095 8.599089
57.100 8.677223
57.105 8.658378
57.110 8.532168
57.115 8.226993
57.120 7.978888
57.125 7.982938
57.130 8.407359
57.135 8.220689
57.140 8.25234
57.145 7.723361
57.150 7.543709
57.155 7.632958
57.160 7.712759
57.165 7.504226
57.170 7.612562
57.175 7.57773
57.180 7.953868
57.185 8.023723
57.190 7.945948
57.195 7.908642
57.200 7.920203
57.205 8.270097
57.210 8.870682
57.215 8.728531
57.220 8.856246
57.225 8.744874
57.230 8.429877
57.235 8.325382
57.240 7.753273
57.245 7.406808
57.250 7.702507
57.255 7.57092
57.260 7.64754
57.265 7.703914
57.270 7.683874
57.275 7.464963
57.280 7.36005
57.285 7.484449
57.290 7.423367
57.295 7.702367
57.300 7.933005
57.305 8.209209
57.310 8.493245
57.315 8.749565
57.320 8.590008
57.325 8.870841
57.330 8.945007
57.335 9.230042
57.340 9.155613
57.345 9.24806
57.350 9.327647
57.355 9.701985
57.360 9.90602
57.365 9.805717
57.370 9.488113
57.375 9.601931
57.380 9.988259
57.385 10.360914
57.390 9.863164
57.395 9.66019
57.400 9.993637
57.405 10.29286
57.410 10.629971
57.415 10.204799
57.420 9.841241
57.425 10.113083
57.430 9.839574
57.435 9.395706
57.440 9.35021
57.445 9.114349
57.450 9.015163
57.455 9.40135
57.460 9.726317
57.465 9.802834
57.470 9.706616
57.475 9.276086
57.480 9.280765
57.485 9.490614
57.490 9.052855
57.495 8.731136
57.500 8.526171
57.505 8.441468
57.510 8.41635
57.515 8.488596
57.520 8.411951
57.525 8.295978
57.530 8.365915
57.535 8.708894
57.540 8.648275
57.545 8.715405
57.550 8.759943
57.555 8.611612
57.560 8.903227
57.565 9.447456
57.570 9.58112
57.575 9.538386
57.580 9.485323
57.585 9.237232
57.590 9.245062
57.595 8.722829
57.600 8.381389
57.605 8.382674
57.610 8.794143
57.615 8.990435
57.620 8.952868
57.625 9.017094
57.630 8.825445
57.635 8.622742
57.640 8.630725
57.645 8.509082
57.650 8.35403
57.655 8.029829
57.660 8.024204
57.665 8.485493
57.670 8.898859
57.675 9.107749
57.680 9.238413
57.685 9.350824
57.690 9.774911
57.695 9.628893
57.700 9.600985
57.705 9.854811
57.710 9.781495
57.715 9.621172
57.720 9.88607
57.725 10.161225
57.730 10.335473
57.735 10.263732
57.740 9.428806
57.745 9.099363
57.750 9.191412
57.755 9.066359
57.760 9.042231
57.765 8.907892
57.770 8.724134
57.775 9.065462
57.780 9.338786
57.785 9.57859
57.790 9.57246
57.795 9.398372
57.800 9.754285
57.805 9.99222
57.810 10.218449
57.815 10.516996
57.820 10.31185
57.825 10.284683
57.830 10.543624
57.835 10.490451
57.840 10.320888
57.845 10.017403
57.850 10.023139
57.855 10.426782
57.860 10.724037
57.865 11.012433
57.870 11.181048
57.875 11.536124
57.880 11.395948
57.885 11.283696
57.890 10.754527
57.895 10.218413
57.900 9.478354
57.905 9.039272
57.910 8.799407
57.915 9.135479
57.920 9.151614
57.925 9.061155
57.930 9.075417
57.935 9.46347
57.940 9.703796
57.945 9.949188
57.950 10.045919
57.955 10.236063
57.960 10.704338
57.965 10.960109
57.970 10.574462
57.975 10.090351
57.980 9.867457
57.985 9.739048
57.990 9.63226
57.995 9.519081
58.000 9.799606
58.005 10.019897
58.010 10.055068
58.015 10.432503
58.020 10.393335
58.025 10.037723
58.030 10.121449
58.035 9.860388
58.040 10.225443
58.045 10.487184
58.050 10.337715
58.055 10.759943
58.060 11.059159
58.065 11.192435
58.070 11.684862
58.075 11.806312
58.080 11.651231
58.085 11.600565
58.090 11.039337
58.095 10.98049
58.100 10.786346
58.105 10.334232
58.110 10.063856
58.115 9.95798
58.120 9.754587
58.125 10.126917
58.130 10.304763
58.135 10.2257
58.140 10.325835
58.145 9.985907
58.150 10.267301
58.155 10.853965
58.160 10.580387
58.165 10.679411
58.170 10.381707
58.175 10.469141
58.180 10.90335
58.185 10.800197
58.190 10.528394
58.195 10.363173
58.200 10.261044
58.205 10.56078
58.210 10.412874
58.215 10.69796
58.220 10.969837
58.225 10.928242
58.230 11.243734
58.235 11.07057
58.240 10.928312
58.245 11.00421
58.250 10.668137
58.255 10.487857
58.260 10.566768
58.265 10.856159
58.270 11.281547
58.275 11.366096
58.280 11.741426
58.285 11.678375
58.290 11.562757
58.295 11.45337
58.300 11.467864
58.305 11.39978
58.310 11.79776
58.315 11.27769
58.320 11.429833
58.325 11.216029
58.330 10.938414
58.335 11.311872
58.340 11.511191
58.345 11.096033
58.350 11.851461
58.355 12.197825
58.360 12.275326
58.365 12.440838
58.370 12.218108
58.375 11.724881
58.380 11.349871
58.385 10.561346
58.390 10.707803
58.395 11.57731
58.400 11.841388
58.405 11.613689
58.410 12.055879
58.415 12.691993
58.420 13.79802
58.425 13.835146
58.430 13.376321
58.435 13.27922
58.440 13.224885
58.445 13.075367
58.450 12.869239
58.455 12.877969
58.460 12.938792
58.465 13.333033
58.470 13.939635
58.475 14.238263
58.480 14.634685
58.485 15.042075
58.490 14.807947
58.495 14.816034
58.500 14.987649
58.505 14.842302
58.510 15.262815
58.515 15.360615
58.520 15.289497
58.525 15.951324
58.530 15.985993
58.535 15.987085
58.540 16.458353
58.545 17.0753
58.550 17.725643
58.555 18.126654
58.560 18.090675
58.565 18.590019
58.570 19.009348
58.575 19.198151
58.580 18.640102
58.585 17.999226
58.590 18.113916
58.595 18.57472
58.600 18.834616
58.605 18.805092
58.610 18.274288
58.615 18.773401
58.620 19.777784
58.625 19.912497
58.630 19.677439
58.635 19.360689
58.640 19.525335
58.645 20.080278
58.650 20.112576
58.655 19.708555
58.660 19.760008
58.665 20.330439
58.670 20.750246
58.675 20.581522
58.680 20.930529
58.685 21.075327
58.690 21.562889
58.695 21.744341
58.700 21.457001
58.705 21.06864
58.710 21.049694
