!@!!GADDS PLOTSO FILE: Chi integration type
!@!!Title/SampleName: map-7f
!@!!Comment: ?
!@!!User: Bruker Instrument Administrator
!@!!Site: University of Illinois Chicago
!@!!Frame: map-7f_01_000.gfrm
!@!!Wavelengths    1.54184   1.54056   1.54439
!@!!Frame angles: 2Theta: 63.000 Omega: 50.000 Phi: 0.000 Chi: 90.000
!@!!Integration range: 2Theta: 53.000 to 73.000  Gamma: -105.000 to -75.000
!@!!Integration method: bin normalized
!@!N
!@!SS
!@!M
!@!L 0.0 0.0 0.0 0.0
!@!XDegrees
!@!YCounts
53.000 10.822856
53.005 10.327694
53.010 10.303287
53.015 10.114473
53.020 9.706931
53.025 9.526608
53.030 8.884377
53.035 9.285923
53.040 9.789002
53.045 9.503104
53.050 9.431187
53.055 9.805388
53.060 10.444369
53.065 10.620514
53.070 10.270757
53.075 10.272614
53.080 10.402264
53.085 10.701402
53.090 10.365497
53.095 10.124487
53.100 9.972335
53.105 10.081245
53.110 10.334662
53.115 10.480277
53.120 10.657512
53.125 10.745526
53.130 10.474383
53.135 10.6653
53.140 10.92083
53.145 11.188876
53.150 10.759207
53.155 10.724353
53.160 10.663775
53.165 10.901692
53.170 11.153359
53.175 10.674208
53.180 10.40967
53.185 10.122718
53.190 9.787476
53.195 10.026925
53.200 10.375076
53.205 10.264048
53.210 10.513948
53.215 10.693676
53.220 11.148933
53.225 11.15848
53.230 10.947392
53.235 10.677849
53.240 10.204868
53.245 10.247967
53.250 10.138974
53.255 9.799171
53.260 9.738004
53.265 9.857704
53.270 10.03698
53.275 10.238143
53.280 9.82908
53.285 9.661306
53.290 10.32183
53.295 10.515072
53.300 10.609324
53.305 10.731738
53.310 10.672906
53.315 10.830851
53.320 10.899988
53.325 10.719471
53.330 10.345456
53.335 10.635151
53.340 10.775402
53.345 11.175989
53.350 11.421765
53.355 11.352745
53.360 11.57756
53.365 11.58081
53.370 11.445364
53.375 10.968743
53.380 10.815353
53.385 10.43751
53.390 10.54944
53.395 10.442796
53.400 10.182347
53.405 9.831362
53.410 9.756219
53.415 9.697723
53.420 9.890849
53.425 10.008962
53.430 9.861095
53.435 10.173334
53.440 10.631478
53.445 10.932626
53.450 10.72314
53.455 10.356043
53.460 10.591277
53.465 10.846896
53.470 10.875201
53.475 10.488155
53.480 10.491533
53.485 11.052645
53.490 11.076769
53.495 10.897028
53.500 10.874849
53.505 10.967586
53.510 11.177663
53.515 11.261316
53.520 11.202349
53.525 11.473302
53.530 11.913813
53.535 12.116591
53.540 12.287496
53.545 12.045197
53.550 11.732653
53.555 11.390262
53.560 11.138382
53.565 10.987292
53.570 10.95512
53.575 10.634861
53.580 10.799385
53.585 11.536611
53.590 11.724484
53.595 11.785204
53.600 11.953421
53.605 12.001724
53.610 12.358563
53.615 12.620044
53.620 12.363489
53.625 12.764347
53.630 12.339023
53.635 11.722249
53.640 11.471304
53.645 11.261906
53.650 11.039372
53.655 10.606447
53.660 10.026769
53.665 10.076528
53.670 10.385008
53.675 10.521242
53.680 10.176915
53.685 10.387861
53.690 10.978718
53.695 11.076092
53.700 10.661805
53.705 10.560909
53.710 10.450283
53.715 10.319689
53.720 10.366992
53.725 10.083405
53.730 10.303544
53.735 10.312607
53.740 10.35498
53.745 10.467356
53.750 10.418063
53.755 10.05807
53.760 10.359509
53.765 10.66916
53.770 10.874388
53.775 11.368871
53.780 11.680807
53.785 11.872984
53.790 12.125611
53.795 12.056042
53.800 12.093552
53.805 11.941389
53.810 11.618419
53.815 11.593718
53.820 11.855109
53.825 11.924564
53.830 11.350947
53.835 11.346268
53.840 10.914224
53.845 10.752396
53.850 10.425392
53.855 10.432689
53.860 10.188302
53.865 10.36959
53.870 10.605226
53.875 11.053578
53.880 11.449937
53.885 11.688905
53.890 11.540939
53.895 12.036171
53.900 12.132848
53.905 11.974986
53.910 11.784173
53.915 11.663021
53.920 11.802392
53.925 11.901284
53.930 11.41504
53.935 11.694902
53.940 11.740078
53.945 11.76898
53.950 11.729679
53.955 11.467401
53.960 11.89185
53.965 12.118687
53.970 11.796519
53.975 11.810517
53.980 11.59333
53.985 11.347587
53.990 11.155587
53.995 10.913344
54.000 10.904997
54.005 10.786736
54.010 10.566839
54.015 10.768098
54.020 11.135695
54.025 10.949796
54.030 10.777715
54.035 10.732941
54.040 11.195543
54.045 11.129069
54.050 10.886074
54.055 10.418016
54.060 10.900924
54.065 11.27232
54.070 11.205957
54.075 11.176775
54.080 11.594772
54.085 12.38274
54.090 12.752697
54.095 12.610126
54.100 11.950314
54.105 11.982611
54.110 11.738958
54.115 11.792595
54.120 11.443136
54.125 11.693679
54.130 12.04768
54.135 12.592302
54.140 12.734067
54.145 13.543681
54.150 13.339795
54.155 12.87716
54.160 12.216026
54.165 12.395941
54.170 13.158522
54.175 12.725055
54.180 11.891603
54.185 11.43016
54.190 11.480639
54.195 11.524251
54.200 11.123896
54.205 10.314145
54.210 10.535695
54.215 10.631126
54.220 10.976615
54.225 10.896436
54.230 11.127405
54.235 11.030717
54.240 11.252352
54.245 11.120338
54.250 11.612958
54.255 12.002774
54.260 12.265483
54.265 12.226118
54.270 12.275639
54.275 12.624388
54.280 12.873425
54.285 12.677061
54.290 13.27298
54.295 13.372379
54.300 13.511307
54.305 13.197984
54.310 12.941865
54.315 12.58878
54.320 12.494843
54.325 12.500971
54.330 12.781938
54.335 12.299178
54.340 12.723398
54.345 13.061319
54.350 13.284725
54.355 13.325919
54.360 12.601472
54.365 12.315391
54.370 12.282109
54.375 12.317182
54.380 12.335919
54.385 12.297907
54.390 12.09042
54.395 12.442407
54.400 12.464663
54.405 12.51879
54.410 12.458956
54.415 12.493072
54.420 12.462725
54.425 12.694137
54.430 12.889394
54.435 13.12507
54.440 13.878299
54.445 14.188459
54.450 13.975932
54.455 13.707331
54.460 13.263091
54.465 13.298422
54.470 12.954388
54.475 12.12839
54.480 11.707477
54.485 11.832476
54.490 11.876695
54.495 12.016005
54.500 11.850423
54.505 12.050426
54.510 12.152656
54.515 12.168862
54.520 12.056085
54.525 11.935678
54.530 11.953678
54.535 11.685709
54.540 11.644212
54.545 12.09393
54.550 12.515293
54.555 12.470483
54.560 12.707452
54.565 12.826351
54.570 13.073921
54.575 12.916426
54.580 12.689128
54.585 13.086952
54.590 13.010842
54.595 12.374027
54.600 11.951436
54.605 11.964123
54.610 12.129208
54.615 11.890242
54.620 11.380422
54.625 11.691926
54.630 12.368797
54.635 12.386715
54.640 12.323996
54.645 12.173446
54.650 12.226873
54.655 12.436863
54.660 11.825336
54.665 11.724563
54.670 12.039457
54.675 12.036979
54.680 11.925507
54.685 11.378005
54.690 11.256556
54.695 11.461809
54.700 11.137611
54.705 11.077016
54.710 11.059252
54.715 11.575623
54.720 11.680637
54.725 12.010705
54.730 11.761996
54.735 11.81432
54.740 12.027515
54.745 12.026519
54.750 11.927524
54.755 11.830903
54.760 11.642743
54.765 11.80244
54.770 12.058442
54.775 11.986047
54.780 11.746028
54.785 12.04764
54.790 12.758014
54.795 13.165021
54.800 13.204918
54.805 12.789957
54.810 12.888165
54.815 12.549995
54.820 12.126012
54.825 12.270147
54.830 12.100276
54.835 12.109333
54.840 11.993185
54.845 11.761314
54.850 12.234297
54.855 12.308202
54.860 12.087814
54.865 12.531225
54.870 13.180534
54.875 13.429549
54.880 13.414773
54.885 12.822383
54.890 12.067097
54.895 12.220968
54.900 11.574599
54.905 11.193996
54.910 11.265089
54.915 11.049654
54.920 11.503283
54.925 11.744123
54.930 11.706861
54.935 12.057316
54.940 12.079482
54.945 12.150936
54.950 13.244148
54.955 13.277242
54.960 13.183055
54.965 13.287611
54.970 13.29302
54.975 13.422632
54.980 13.125845
54.985 12.597079
54.990 12.902481
54.995 13.098873
55.000 12.738204
55.005 12.241013
55.010 12.0004
55.015 11.878115
55.020 11.908424
55.025 11.550857
55.030 11.013796
55.035 11.185269
55.040 11.607132
55.045 12.03427
55.050 12.776056
55.055 13.15748
55.060 13.357801
55.065 13.566077
55.070 13.34256
55.075 13.254047
55.080 13.11235
55.085 12.030167
55.090 11.694864
55.095 11.647264
55.100 11.482295
55.105 11.967238
55.110 12.090733
55.115 11.685255
55.120 11.946412
55.125 12.598966
55.130 12.772431
55.135 13.284279
55.140 13.566786
55.145 13.914517
55.150 14.160191
55.155 14.001663
55.160 13.571966
55.165 13.179373
55.170 12.548187
55.175 12.005499
55.180 11.729618
55.185 11.881948
55.190 11.9564
55.195 12.279041
55.200 12.966907
55.205 13.332186
55.210 13.598389
55.215 13.632449
55.220 14.11736
55.225 13.996803
55.230 13.90503
55.235 13.930891
55.240 13.640167
55.245 13.957005
55.250 14.191682
55.255 13.99387
55.260 14.626948
55.265 14.647589
55.270 14.382678
55.275 14.383756
55.280 13.898388
55.285 13.848202
55.290 13.663344
55.295 13.148698
55.300 12.69396
55.305 12.753147
55.310 12.941556
55.315 12.999222
55.320 13.030034
55.325 12.780537
55.330 12.24593
55.335 12.424591
55.340 12.293953
55.345 11.797694
55.350 11.813185
55.355 11.529582
55.360 12.173888
55.365 12.269814
55.370 11.886599
55.375 11.315806
55.380 11.451492
55.385 11.421741
55.390 11.30799
55.395 11.148739
55.400 11.509328
55.405 11.943826
55.410 12.43293
55.415 12.361638
55.420 12.878722
55.425 12.852749
55.430 12.576883
55.435 12.413056
55.440 12.587498
55.445 12.8051
55.450 12.618534
55.455 12.699165
55.460 12.998556
55.465 13.051428
55.470 13.08282
55.475 13.705076
55.480 13.895621
55.485 14.226287
55.490 14.192245
55.495 14.431263
55.500 14.948205
55.505 14.864004
55.510 13.958143
55.515 13.654057
55.520 13.596277
55.525 13.825094
55.530 13.107833
55.535 12.798593
55.540 12.435179
55.545 12.66131
55.550 12.640526
55.555 12.625598
55.560 12.473763
55.565 12.920031
55.570 13.226357
55.575 13.932218
55.580 14.085682
55.585 13.650681
55.590 12.934501
55.595 13.178935
55.600 13.746576
55.605 13.645157
55.610 13.328608
55.615 12.994178
55.620 13.113738
55.625 13.33002
55.630 13.2567
55.635 12.632077
55.640 12.762462
55.645 12.63873
55.650 13.12325
55.655 13.978354
55.660 13.992722
55.665 13.290498
55.670 13.359463
55.675 13.124454
55.680 13.309772
55.685 12.726826
55.690 12.774745
55.695 13.301466
55.700 13.817637
55.705 13.886259
55.710 13.886569
55.715 13.828891
55.720 13.918854
55.725 13.663646
55.730 13.495316
55.735 13.095645
55.740 12.780466
55.745 13.120872
55.750 13.369697
55.755 13.619143
55.760 13.364393
55.765 13.3602
55.770 13.713996
55.775 14.104387
55.780 14.005013
55.785 13.927278
55.790 13.236048
55.795 13.159316
55.800 12.806739
55.805 12.891066
55.810 12.896154
55.815 12.836479
55.820 12.586263
55.825 12.931047
55.830 12.87301
55.835 12.930184
55.840 13.092154
55.845 13.535841
55.850 13.814368
55.855 14.220153
55.860 14.188367
55.865 14.35749
55.870 14.073037
55.875 13.758318
55.880 13.620313
55.885 13.916044
55.890 13.901733
55.895 13.715465
55.900 13.578842
55.905 14.081268
55.910 13.946969
55.915 13.47191
55.920 13.714695
55.925 13.887525
55.930 14.073205
55.935 14.620408
55.940 14.294045
55.945 14.915201
55.950 14.954559
55.955 14.457579
55.960 14.517525
55.965 14.682252
55.970 14.291852
55.975 14.391996
55.980 13.789759
55.985 13.342435
55.990 12.988409
55.995 13.352049
56.000 13.617371
56.005 13.783502
56.010 13.850272
56.015 13.652568
56.020 14.009539
56.025 13.867374
56.030 13.094492
56.035 12.738583
56.040 12.577914
56.045 12.849992
56.050 13.592084
56.055 13.471503
56.060 13.676387
56.065 13.501305
56.070 13.269962
56.075 13.295796
56.080 13.198644
56.085 13.171608
56.090 13.682245
56.095 13.826552
56.100 14.03572
56.105 14.108281
56.110 13.787863
56.115 13.511461
56.120 13.112338
56.125 13.193504
56.130 13.361507
56.135 13.595414
56.140 14.089977
56.145 14.610986
56.150 14.254576
56.155 13.800698
56.160 13.536881
56.165 13.207376
56.170 13.263704
56.175 12.866444
56.180 12.706754
56.185 12.642485
56.190 12.555308
56.195 12.444521
56.200 12.410358
56.205 12.351094
56.210 12.393792
56.215 12.308117
56.220 12.685626
56.225 12.984738
56.230 13.423885
56.235 13.609512
56.240 13.374633
56.245 14.273981
56.250 14.5669
56.255 14.58821
56.260 14.903696
56.265 14.707191
56.270 14.909694
56.275 14.851958
56.280 14.066377
56.285 14.052854
56.290 14.38172
56.295 14.234231
56.300 14.520826
56.305 14.646199
56.310 14.232469
56.315 14.054614
56.320 13.923012
56.325 14.064922
56.330 14.069372
56.335 13.750863
56.340 14.373488
56.345 14.66083
56.350 14.363885
56.355 14.287481
56.360 13.836436
56.365 14.23658
56.370 13.986341
56.375 13.306043
56.380 13.515297
56.385 13.917835
56.390 13.742293
56.395 13.669757
56.400 14.037659
56.405 14.410407
56.410 14.395312
56.415 14.240941
56.420 14.802958
56.425 15.235953
56.430 15.250497
56.435 14.207747
56.440 13.749227
56.445 13.934783
56.450 13.674845
56.455 13.37791
56.460 13.431702
56.465 13.512914
56.470 13.599927
56.475 13.794105
56.480 13.736746
56.485 13.852684
56.490 13.885482
56.495 13.774322
56.500 13.377896
56.505 13.300462
56.510 13.212308
56.515 12.960921
56.520 13.478257
56.525 13.476468
56.530 14.125152
56.535 14.721428
56.540 14.854511
56.545 14.840886
56.550 15.034922
56.555 14.957548
56.560 14.852394
56.565 14.139776
56.570 14.192211
56.575 14.298949
56.580 14.225865
56.585 14.583426
56.590 14.592081
56.595 14.881001
56.600 14.694868
56.605 14.376849
56.610 14.47281
56.615 14.288585
56.620 13.732532
56.625 13.272893
56.630 13.219851
56.635 13.55947
56.640 13.685871
56.645 13.546599
56.650 13.385777
56.655 13.473789
56.660 14.027044
56.665 14.116836
56.670 14.232431
56.675 14.4235
56.680 14.360896
56.685 14.79842
56.690 15.016032
56.695 14.644949
56.700 14.642837
56.705 14.699103
56.710 14.4016
56.715 14.918071
56.720 15.128954
56.725 15.547228
56.730 15.490471
56.735 14.685659
56.740 14.718007
56.745 14.968341
56.750 14.660592
56.755 13.835696
56.760 13.022697
56.765 13.274788
56.770 13.646019
56.775 13.348326
56.780 13.263714
56.785 13.307516
56.790 13.750972
56.795 13.95806
56.800 14.152443
56.805 14.746531
56.810 14.613124
56.815 14.460024
56.820 14.371099
56.825 13.968705
56.830 13.975148
56.835 13.700776
56.840 13.739661
56.845 14.402203
56.850 14.339405
56.855 14.457952
56.860 14.436114
56.865 14.338791
56.870 14.230123
56.875 14.016687
56.880 14.318861
56.885 14.777753
56.890 14.635405
56.895 14.789403
56.900 14.444457
56.905 13.938378
56.910 13.67096
56.915 13.282962
56.920 13.156187
56.925 13.686617
56.930 13.938609
56.935 14.023654
56.940 14.798694
56.945 15.162628
56.950 15.171621
56.955 15.269017
56.960 15.172671
56.965 15.096718
56.970 15.358679
56.975 15.151372
56.980 14.701678
56.985 14.415744
56.990 14.553407
56.995 14.436884
57.000 14.555161
57.005 14.415297
57.010 14.81901
57.015 15.769356
57.020 15.785566
57.025 15.573627
57.030 15.60289
57.035 15.420091
57.040 15.373748
57.045 14.642922
57.050 13.846059
57.055 13.987756
57.060 14.133531
57.065 14.011547
57.070 13.534082
57.075 13.661839
57.080 13.962923
57.085 14.133413
57.090 14.384094
57.095 14.1783
57.100 14.426552
57.105 14.881927
57.110 14.634089
57.115 14.543179
57.120 14.790339
57.125 14.259793
57.130 14.201225
57.135 14.496373
57.140 14.785769
57.145 15.008293
57.150 14.793291
57.155 14.464625
57.160 14.987969
57.165 15.043671
57.170 14.777585
57.175 15.376223
57.180 15.337432
57.185 15.414006
57.190 15.429554
57.195 15.216498
57.200 15.188301
57.205 15.061787
57.210 14.563757
57.215 14.533571
57.220 15.01747
57.225 15.023705
57.230 14.455695
57.235 14.302279
57.240 14.113241
57.245 13.724736
57.250 13.301875
57.255 12.955448
57.260 13.11237
57.265 13.457609
57.270 13.662365
57.275 13.169884
57.280 13.477173
57.285 14.498803
57.290 15.005974
57.295 14.973837
57.300 15.312559
57.305 15.570518
57.310 16.492594
57.315 16.931425
57.320 16.5082
57.325 16.757685
57.330 17.046938
57.335 16.651808
57.340 16.203217
57.345 15.457545
57.350 15.017984
57.355 15.197708
57.360 14.712745
57.365 14.576123
57.370 14.660882
57.375 15.372531
57.380 15.959215
57.385 15.9997
57.390 16.241661
57.395 16.448067
57.400 16.392977
57.405 16.883226
57.410 16.311035
57.415 15.676147
57.420 14.859423
57.425 14.128695
57.430 13.880751
57.435 13.948547
57.440 13.996708
57.445 14.196385
57.450 14.452238
57.455 14.63059
57.460 14.642719
57.465 15.11308
57.470 15.186794
57.475 14.938989
57.480 14.917988
57.485 15.082153
57.490 15.071952
57.495 15.508578
57.500 14.967289
57.505 14.695235
57.510 15.015396
57.515 14.781083
57.520 14.410437
57.525 14.444227
57.530 14.195414
57.535 14.024175
57.540 13.723235
57.545 13.762133
57.550 14.214195
57.555 15.178638
57.560 15.722301
57.565 15.878528
57.570 16.353636
57.575 16.546881
57.580 16.130074
57.585 16.434732
57.590 16.141943
57.595 15.501443
57.600 15.308025
57.605 15.55993
57.610 15.646524
57.615 15.175915
57.620 14.676435
57.625 15.025822
57.630 15.447271
57.635 15.679708
57.640 15.755827
57.645 15.490575
57.650 15.845502
57.655 15.945122
57.660 15.206347
57.665 14.753745
57.670 14.474867
57.675 13.892687
57.680 14.319142
57.685 14.336865
57.690 14.487082
57.695 15.255672
57.700 15.739841
57.705 16.104858
57.710 16.614483
57.715 16.651264
57.720 17.282597
57.725 17.453691
57.730 16.974556
57.735 16.412764
57.740 16.172501
57.745 15.971883
57.750 16.367493
57.755 16.093491
57.760 16.498587
57.765 16.91017
57.770 17.082987
57.775 17.031094
57.780 17.151175
57.785 16.311327
57.790 16.090298
57.795 15.301096
57.800 15.323341
57.805 15.800944
57.810 15.882471
57.815 15.542433
57.820 15.241805
57.825 15.229042
57.830 15.46666
57.835 15.294812
57.840 15.357618
57.845 15.520995
57.850 15.707706
57.855 16.003016
57.860 16.139463
57.865 16.303926
57.870 16.268599
57.875 16.522648
57.880 16.551424
57.885 16.671556
57.890 16.944494
57.895 17.153826
57.900 16.57078
57.905 16.333082
57.910 15.623914
57.915 15.25648
57.920 15.527958
57.925 15.356506
57.930 15.092507
57.935 15.106377
57.940 15.081322
57.945 15.277729
57.950 15.453389
57.955 15.01571
57.960 14.582976
57.965 14.495038
57.970 14.576211
57.975 14.653053
57.980 14.454676
57.985 14.571121
57.990 14.721498
57.995 14.64051
58.000 14.476236
58.005 14.558672
58.010 14.193152
58.015 13.79429
58.020 13.5439
58.025 13.942208
58.030 14.378991
58.035 14.665643
58.040 14.79793
58.045 14.756311
58.050 14.620245
58.055 14.653388
58.060 14.351725
58.065 14.203212
58.070 14.376486
58.075 14.260561
58.080 14.274862
58.085 14.799981
58.090 15.07485
58.095 15.242358
58.100 15.535243
58.105 15.233802
58.110 15.750938
58.115 16.616251
58.120 16.444283
58.125 16.504316
58.130 16.353935
58.135 16.441193
58.140 16.976923
58.145 17.250559
58.150 17.289257
58.155 17.397314
58.160 16.743656
58.165 16.189184
58.170 16.115522
58.175 15.701975
58.180 15.461539
58.185 15.117555
58.190 15.239637
58.195 15.467772
58.200 15.699047
58.205 15.353392
58.210 15.084123
58.215 14.955885
58.220 15.131268
58.225 15.07285
58.230 15.078223
58.235 15.287877
58.240 15.479702
58.245 15.859089
58.250 15.52271
58.255 15.476428
58.260 15.519501
58.265 15.420952
58.270 15.29629
58.275 14.766368
58.280 14.805543
58.285 15.016728
58.290 14.353785
58.295 13.972389
58.300 13.883568
58.305 14.296416
58.310 14.741776
58.315 14.415954
58.320 14.110684
58.325 14.372802
58.330 14.715979
58.335 15.099573
58.340 15.112131
58.345 14.852328
58.350 15.465271
58.355 16.307341
58.360 17.128414
58.365 17.050262
58.370 17.178795
58.375 16.735092
58.380 16.90596
58.385 16.636755
58.390 16.146185
58.395 16.200045
58.400 16.418444
58.405 16.622822
58.410 17.226969
58.415 17.182627
58.420 17.555376
58.425 17.799026
58.430 17.430695
58.435 17.053318
58.440 16.928932
58.445 16.446762
