!@!!GADDS PLOTSO FILE: Chi integration type
!@!!Title/SampleName: map-e0
!@!!Comment: ?
!@!!User: Bruker Instrument Administrator
!@!!Site: University of Illinois Chicago
!@!!Frame: map-e0_01_000.gfrm
!@!!Wavelengths    1.54184   1.54056   1.54439
!@!!Frame angles: 2Theta: 63.000 Omega: 50.000 Phi: 0.000 Chi: 90.000
!@!!Integration range: 2Theta: 53.000 to 73.000  Gamma: -105.000 to -75.000
!@!!Integration method: bin normalized
!@!N
!@!SS
!@!M
!@!L 0.0 0.0 0.0 0.0
!@!XDegrees
!@!YCounts
53.000 7.182833
53.005 6.949368
53.010 7.119055
53.015 7.166894
53.020 7.074396
53.025 6.955326
53.030 7.049445
53.035 7.35498
53.040 7.745026
53.045 7.728536
53.050 7.480173
53.055 7.803298
53.060 7.826836
53.065 7.652593
53.070 7.344269
53.075 7.387304
53.080 7.428092
53.085 7.292725
53.090 7.325221
53.095 7.352347
53.100 7.427135
53.105 7.416772
53.110 7.27088
53.115 7.579653
53.120 7.604649
53.125 7.057891
53.130 6.905006
53.135 6.82597
53.140 7.175375
53.145 6.816311
53.150 6.639766
53.155 6.903708
53.160 7.158436
53.165 7.252013
53.170 7.0755
53.175 6.716178
53.180 7.13737
53.185 7.530337
53.190 7.374542
53.195 7.44117
53.200 7.713013
53.205 8.025961
53.210 8.467742
53.215 8.525548
53.220 8.584108
53.225 8.936395
53.230 8.884236
53.235 9.09809
53.240 9.25564
53.245 9.29252
53.250 8.959695
53.255 8.81002
53.260 8.740358
53.265 8.440865
53.270 8.044598
53.275 7.79117
53.280 7.443883
53.285 7.55264
53.290 7.148904
53.295 7.285881
53.300 7.635161
53.305 7.733262
53.310 7.685875
53.315 7.817845
53.320 7.733614
53.325 7.7913
53.330 7.360286
53.335 7.074252
53.340 7.110054
53.345 7.340997
53.350 7.534037
53.355 7.738112
53.360 8.122133
53.365 8.754601
53.370 8.955977
53.375 8.628062
53.380 8.546976
53.385 8.310647
53.390 8.65482
53.395 8.361163
53.400 8.307803
53.405 8.331738
53.410 8.665486
53.415 8.926405
53.420 8.274085
53.425 7.868711
53.430 8.043567
53.435 7.861541
53.440 7.657505
53.445 7.193184
53.450 7.44195
53.455 7.896451
53.460 7.836688
53.465 7.68706
53.470 7.46619
53.475 7.69449
53.480 7.547472
53.485 7.349324
53.490 7.637201
53.495 7.560358
53.500 7.88364
53.505 8.222265
53.510 8.292996
53.515 8.231938
53.520 8.344831
53.525 8.297142
53.530 8.000549
53.535 7.777389
53.540 7.786039
53.545 7.834617
53.550 7.892804
53.555 7.458653
53.560 7.952359
53.565 8.448758
53.570 8.480893
53.575 8.691992
53.580 8.519855
53.585 8.830489
53.590 9.058187
53.595 8.399026
53.600 8.104296
53.605 7.905796
53.610 7.813001
53.615 7.985653
53.620 7.479249
53.625 7.175381
53.630 7.463497
53.635 7.766973
53.640 7.750237
53.645 7.87959
53.650 8.303321
53.655 8.753218
53.660 8.935692
53.665 8.416411
53.670 8.030492
53.675 7.923912
53.680 7.82267
53.685 7.570153
53.690 7.374457
53.695 7.722313
53.700 8.65696
53.705 9.119063
53.710 9.12231
53.715 9.28659
53.720 9.329278
53.725 9.582689
53.730 9.349654
53.735 8.803751
53.740 8.729662
53.745 8.960475
53.750 8.57688
53.755 8.572481
53.760 8.341109
53.765 8.421779
53.770 8.569163
53.775 8.258677
53.780 8.138138
53.785 8.329442
53.790 8.724912
53.795 9.069729
53.800 8.804797
53.805 8.878504
53.810 9.315419
53.815 9.065403
53.820 9.457978
53.825 9.566631
53.830 9.312863
53.835 9.566628
53.840 9.567994
53.845 9.917809
53.850 9.839635
53.855 9.314825
53.860 9.177924
53.865 8.900161
53.870 8.670827
53.875 8.22853
53.880 7.966283
53.885 8.237681
53.890 8.217101
53.895 8.268872
53.900 8.4181
53.905 8.62222
53.910 8.941864
53.915 8.779876
53.920 8.750531
53.925 8.490998
53.930 8.949062
53.935 9.053968
53.940 8.718201
53.945 8.626939
53.950 8.879232
53.955 8.967204
53.960 8.798181
53.965 8.525605
53.970 8.636408
53.975 8.883168
53.980 8.894784
53.985 8.763844
53.990 8.542622
53.995 8.731833
54.000 8.648373
54.005 8.453275
54.010 8.701315
54.015 8.495733
54.020 8.303713
54.025 8.406281
54.030 8.532682
54.035 8.873915
54.040 8.877768
54.045 8.486647
54.050 9.009978
54.055 9.612107
54.060 9.730233
54.065 9.567892
54.070 9.270042
54.075 9.186278
54.080 9.398668
54.085 8.699849
54.090 8.053495
54.095 8.07357
54.100 8.416007
54.105 9.141973
54.110 9.51306
54.115 9.598299
54.120 9.882123
54.125 9.950892
54.130 10.100528
54.135 9.491631
54.140 9.473397
54.145 9.327535
54.150 8.838172
54.155 8.688177
54.160 8.622732
54.165 7.960616
54.170 8.123261
54.175 7.944612
54.180 8.094112
54.185 8.128083
54.190 8.610554
54.195 9.155326
54.200 9.875653
54.205 9.562687
54.210 9.628506
54.215 9.767903
54.220 9.985209
54.225 10.058898
54.230 9.874274
54.235 9.438401
54.240 9.414244
54.245 9.342963
54.250 9.117649
54.255 9.496449
54.260 9.150563
54.265 9.24341
54.270 9.626828
54.275 9.548464
54.280 9.381291
54.285 9.261405
54.290 9.024958
54.295 9.336627
54.300 8.995212
54.305 8.876304
54.310 8.785951
54.315 8.797235
54.320 8.811647
54.325 8.895988
54.330 8.678026
54.335 8.927232
54.340 9.310292
54.345 9.686646
54.350 9.785066
54.355 9.942153
54.360 9.563427
54.365 9.593807
54.370 9.4431
54.375 9.415518
54.380 9.432054
54.385 10.079907
54.390 10.090375
54.395 9.764017
54.400 9.686017
54.405 9.278705
54.410 8.785641
54.415 8.433307
54.420 8.096447
54.425 8.358849
54.430 8.46473
54.435 8.484907
54.440 9.127811
54.445 9.572715
54.450 9.779434
54.455 9.687772
54.460 10.149362
54.465 10.457387
54.470 10.426021
54.475 10.314629
54.480 10.110956
54.485 10.044729
54.490 9.663823
54.495 9.374655
54.500 9.656311
54.505 9.631681
54.510 8.894555
54.515 8.715235
54.520 8.648136
54.525 8.609245
54.530 8.314115
54.535 8.20191
54.540 8.11302
54.545 8.501287
54.550 8.073146
54.555 8.138014
54.560 8.47382
54.565 8.553701
54.570 8.662724
54.575 8.640674
54.580 8.857658
54.585 9.485966
54.590 9.497224
54.595 9.266585
54.600 9.226462
54.605 9.367794
54.610 9.72683
54.615 9.801134
54.620 9.956961
54.625 10.161551
54.630 10.238009
54.635 10.132176
54.640 9.927014
54.645 10.020627
54.650 10.09043
54.655 10.055214
54.660 9.934674
54.665 10.310435
54.670 10.411651
54.675 10.478557
54.680 10.229862
54.685 10.051268
54.690 10.219359
54.695 10.427352
54.700 10.404345
54.705 10.346786
54.710 10.007013
54.715 10.193734
54.720 10.206244
54.725 10.056935
54.730 10.129077
54.735 10.105271
54.740 10.081748
54.745 10.084763
54.750 9.787631
54.755 9.395261
54.760 9.102138
54.765 9.019116
54.770 9.475373
54.775 9.638307
54.780 9.83533
54.785 10.175848
54.790 10.225794
54.795 10.37663
54.800 10.278725
54.805 10.111748
54.810 10.296543
54.815 9.922539
54.820 9.752914
54.825 10.157564
54.830 10.23772
54.835 9.820258
54.840 9.89346
54.845 10.188684
54.850 10.747506
54.855 11.325837
54.860 11.43613
54.865 11.325209
54.870 11.471217
54.875 11.811281
54.880 11.990208
54.885 11.883555
54.890 11.917294
54.895 12.230362
54.900 12.369138
54.905 12.233725
54.910 11.868253
54.915 11.934702
54.920 11.382055
54.925 10.391026
54.930 9.810956
54.935 9.744988
54.940 10.022042
54.945 9.780083
54.950 10.167476
54.955 10.38513
54.960 10.940614
54.965 11.426229
54.970 11.435893
54.975 11.055127
54.980 10.363401
54.985 9.972717
54.990 10.306201
54.995 10.302504
55.000 9.819579
55.005 9.858666
55.010 10.609424
55.015 11.102588
55.020 11.137034
55.025 11.282987
55.030 11.02841
55.035 11.623339
55.040 11.519966
55.045 11.211267
55.050 10.792036
55.055 10.58501
55.060 11.298134
55.065 10.942379
55.070 10.72269
55.075 10.344679
55.080 10.24089
55.085 10.654115
55.090 10.364004
55.095 9.84631
55.100 10.081244
55.105 10.130699
55.110 10.335053
55.115 10.412183
55.120 10.472627
55.125 10.285971
55.130 10.252396
55.135 10.506793
55.140 10.335059
55.145 10.153811
55.150 9.811552
55.155 9.632733
55.160 9.769535
55.165 9.886634
55.170 9.534301
55.175 9.063463
55.180 8.979608
55.185 8.848143
55.190 8.326857
55.195 7.854779
55.200 7.569494
55.205 7.577651
55.210 8.209929
55.215 8.906959
55.220 9.714777
55.225 10.328663
55.230 10.581489
55.235 10.464316
55.240 10.298679
55.245 10.172152
55.250 9.526381
55.255 8.720244
55.260 8.727883
55.265 9.217495
55.270 9.884317
55.275 10.372238
55.280 10.240904
55.285 10.440982
55.290 10.549178
55.295 10.228648
55.300 9.853848
55.305 9.71804
55.310 10.032578
55.315 10.262256
55.320 11.104314
55.325 11.561358
55.330 11.513758
55.335 11.421199
55.340 11.110553
55.345 10.572874
55.350 10.546164
55.355 10.390022
55.360 10.937495
55.365 10.903593
55.370 10.956187
55.375 11.034201
55.380 11.051517
55.385 10.623235
55.390 9.709683
55.395 8.963782
55.400 8.926126
55.405 8.649885
55.410 8.690327
55.415 8.531185
55.420 8.890136
55.425 9.597262
55.430 9.876778
55.435 10.513268
55.440 10.920783
55.445 10.945108
55.450 10.997717
55.455 10.924813
55.460 11.087259
55.465 11.624255
55.470 11.593117
55.475 11.634789
55.480 11.694432
55.485 12.162328
55.490 12.144268
55.495 11.521627
55.500 11.366215
55.505 11.150237
55.510 10.899975
55.515 11.120158
55.520 10.973684
55.525 10.823867
55.530 10.618152
55.535 10.342813
55.540 10.108455
55.545 9.803975
55.550 9.291553
55.555 9.189593
55.560 9.33528
55.565 9.972428
55.570 9.875198
55.575 10.334171
55.580 10.703884
55.585 10.814531
55.590 10.836975
55.595 10.926809
55.600 10.6415
55.605 11.079549
55.610 11.556434
55.615 11.757654
55.620 11.735271
55.625 12.194205
55.630 12.156931
55.635 11.913404
55.640 11.645783
55.645 11.394019
55.650 11.465379
55.655 11.525384
55.660 11.507987
55.665 11.682427
55.670 11.506973
55.675 11.325599
55.680 11.136743
55.685 11.296399
55.690 11.196918
55.695 11.455654
55.700 11.328734
55.705 11.84941
55.710 11.773927
55.715 11.755768
55.720 11.75251
55.725 11.626409
55.730 11.111418
55.735 11.265786
55.740 11.448246
55.745 11.551371
55.750 11.274394
55.755 10.892715
55.760 10.883498
55.765 10.778234
55.770 10.851472
55.775 10.307805
55.780 10.214873
55.785 10.725895
55.790 11.181089
55.795 11.796281
55.800 11.924833
55.805 11.27545
55.810 11.195646
55.815 11.301666
55.820 11.435861
55.825 11.224603
55.830 11.157758
55.835 11.524659
55.840 11.944017
55.845 12.082088
55.850 12.01786
55.855 11.69324
55.860 11.589613
55.865 11.1657
55.870 10.931571
55.875 11.231522
55.880 11.628848
55.885 11.399952
55.890 11.395465
55.895 10.911943
55.900 10.760466
55.905 11.054515
55.910 10.989834
55.915 10.683855
55.920 11.068746
55.925 11.057544
55.930 11.576857
55.935 12.08681
55.940 12.427865
55.945 12.609682
55.950 12.694772
55.955 12.606339
55.960 12.5624
55.965 12.586944
55.970 12.432099
55.975 12.904118
55.980 12.622896
55.985 12.382885
55.990 12.383636
55.995 12.014639
56.000 12.116463
56.005 11.521939
56.010 11.005507
56.015 11.137591
56.020 11.100035
56.025 11.033218
56.030 11.587237
56.035 11.512964
56.040 11.872245
56.045 12.105569
56.050 12.359367
56.055 12.584249
56.060 12.729698
56.065 12.35265
56.070 12.36456
56.075 11.682941
56.080 11.268889
56.085 10.763291
56.090 10.910618
56.095 10.852093
56.100 10.324718
56.105 10.214026
56.110 11.018325
56.115 11.03223
56.120 10.93627
56.125 10.56379
56.130 10.660986
56.135 11.122432
56.140 11.459589
56.145 11.407491
56.150 11.477533
56.155 11.659015
56.160 11.489993
56.165 11.359038
56.170 11.743767
56.175 11.545863
56.180 11.216256
56.185 11.298996
56.190 11.39519
56.195 11.398676
56.200 11.254464
56.205 10.510855
56.210 10.534936
56.215 10.604875
56.220 10.353806
56.225 10.878947
56.230 11.471086
56.235 11.821365
56.240 12.442886
56.245 12.507642
56.250 12.587382
56.255 12.963428
56.260 12.349091
56.265 11.910153
56.270 11.647819
56.275 11.552255
56.280 11.602585
56.285 11.607027
56.290 11.472996
56.295 11.587716
56.300 11.771386
56.305 11.845623
56.310 11.0933
56.315 10.931539
56.320 10.86884
56.325 10.6484
56.330 11.01952
56.335 10.900909
56.340 10.90555
56.345 11.045171
56.350 11.164862
56.355 11.332176
56.360 12.055068
56.365 12.129323
56.370 12.512198
56.375 13.133598
56.380 13.651054
56.385 13.732356
56.390 13.336762
56.395 13.066012
56.400 13.222044
56.405 12.625499
56.410 12.409934
56.415 12.473584
56.420 12.727007
56.425 12.974902
56.430 12.83972
56.435 12.537084
56.440 12.946288
56.445 12.873463
56.450 12.277194
56.455 12.402802
56.460 13.023257
56.465 13.445498
56.470 13.815944
56.475 13.480356
56.480 13.614553
56.485 13.614554
56.490 13.452922
56.495 13.108894
56.500 12.647553
56.505 12.539027
56.510 12.850996
56.515 12.870584
56.520 13.01194
56.525 12.768894
56.530 12.502645
56.535 12.653451
56.540 12.848196
56.545 13.064127
56.550 12.858322
56.555 12.954072
56.560 12.803956
56.565 13.168141
56.570 13.301544
56.575 13.024894
56.580 13.192709
56.585 13.933527
56.590 14.069231
56.595 14.679735
56.600 14.080701
56.605 14.121192
56.610 14.272899
56.615 13.706307
56.620 13.121612
56.625 12.727753
56.630 12.395595
56.635 12.375498
56.640 11.842534
56.645 11.5613
56.650 11.708135
56.655 12.290925
56.660 12.409504
56.665 12.244865
56.670 12.015879
56.675 12.145774
56.680 12.561725
56.685 12.699494
56.690 12.488109
56.695 12.46597
56.700 12.360778
56.705 12.680704
56.710 12.44579
56.715 12.355015
56.720 12.368141
56.725 12.761769
56.730 12.944733
56.735 13.339144
56.740 13.539874
56.745 13.573553
56.750 13.061044
56.755 12.800311
56.760 12.251273
56.765 12.536442
56.770 12.616521
56.775 12.528308
56.780 13.008993
56.785 13.124562
56.790 13.40189
56.795 13.818645
56.800 13.608338
56.805 13.461257
56.810 13.308187
56.815 13.10001
56.820 13.288229
56.825 13.126059
56.830 13.216308
56.835 13.305653
56.840 13.298763
56.845 13.309417
56.850 13.018058
56.855 12.939293
56.860 12.741639
56.865 13.072812
56.870 13.074928
56.875 13.317175
56.880 12.988593
56.885 13.279174
56.890 13.131263
56.895 13.258289
56.900 12.762483
56.905 12.670091
56.910 12.959628
56.915 13.355457
56.920 12.945236
56.925 13.224961
56.930 13.047909
56.935 13.054966
56.940 12.954947
56.945 12.180166
56.950 12.182293
56.955 13.062363
56.960 13.42502
56.965 13.400022
56.970 13.493912
56.975 13.592676
56.980 13.801789
56.985 13.501829
56.990 12.938655
56.995 12.783632
57.000 13.115416
57.005 12.872701
57.010 12.668733
57.015 12.861295
57.020 13.302305
57.025 13.422986
57.030 13.190388
57.035 12.788636
57.040 12.471004
57.045 12.698106
57.050 12.214379
57.055 11.894314
57.060 11.678975
57.065 11.087292
57.070 10.988081
57.075 11.260804
57.080 11.076082
57.085 11.303972
57.090 11.210007
57.095 11.328755
57.100 11.838496
57.105 12.170012
57.110 12.08124
57.115 12.397943
57.120 12.55604
57.125 12.64891
57.130 13.071573
57.135 13.224271
57.140 13.092834
57.145 13.411631
57.150 13.439975
57.155 13.384534
57.160 12.923625
57.165 12.543952
57.170 12.89327
57.175 12.79372
57.180 12.346663
57.185 12.266268
57.190 12.199904
57.195 12.441
57.200 12.469049
57.205 12.266425
57.210 12.636619
57.215 13.057859
57.220 13.464374
57.225 13.857196
57.230 13.637405
57.235 13.546002
57.240 13.785763
57.245 13.298537
57.250 13.194145
57.255 12.905093
57.260 13.009038
57.265 13.409016
57.270 13.362401
57.275 13.022862
57.280 13.135739
57.285 12.792298
57.290 12.694765
57.295 12.510054
57.300 12.249326
57.305 12.141124
57.310 12.129587
57.315 12.772273
57.320 13.025418
57.325 13.031747
57.330 13.111955
57.335 12.901664
57.340 12.735728
57.345 12.612198
57.350 12.198717
57.355 12.014582
57.360 11.995544
57.365 11.896076
57.370 12.544467
57.375 12.701682
57.380 12.603971
57.385 12.600657
57.390 12.305767
57.395 12.422571
57.400 12.386777
57.405 11.981888
57.410 11.750075
57.415 11.939343
57.420 12.446538
57.425 12.569902
57.430 12.580584
57.435 12.624144
57.440 12.699121
57.445 13.100664
57.450 13.376689
57.455 13.151518
57.460 13.607964
57.465 14.041242
57.470 14.304615
57.475 14.424367
57.480 14.16467
57.485 13.879774
57.490 13.436467
57.495 12.876003
57.500 12.624661
57.505 12.826674
57.510 12.738707
57.515 12.751267
57.520 12.828024
57.525 13.289016
57.530 13.615679
57.535 13.601443
57.540 13.058707
57.545 12.963737
57.550 13.230913
57.555 13.32505
57.560 13.487268
57.565 12.974027
57.570 12.860407
57.575 13.081676
57.580 13.287574
57.585 13.489915
57.590 13.885737
57.595 14.157476
57.600 14.362513
57.605 14.138658
57.610 14.260028
57.615 14.251768
57.620 13.541297
57.625 13.262218
57.630 13.144644
57.635 13.882682
57.640 14.001194
57.645 13.670076
57.650 13.394374
57.655 14.011629
57.660 14.545252
57.665 14.066835
57.670 13.269098
57.675 13.336014
57.680 13.444818
57.685 13.58597
57.690 12.977951
57.695 12.684121
57.700 13.025197
57.705 13.347792
57.710 13.864603
57.715 13.955977
57.720 14.133517
57.725 14.474715
57.730 14.722028
57.735 14.768874
57.740 14.879219
57.745 14.73762
57.750 14.663777
57.755 14.857631
57.760 14.459683
57.765 14.697894
57.770 14.569335
57.775 14.685322
57.780 14.680348
57.785 14.975938
57.790 15.009562
57.795 15.194756
57.800 14.818596
57.805 14.640853
57.810 14.19994
57.815 14.403956
57.820 14.44916
57.825 14.365797
57.830 14.458838
57.835 14.562608
57.840 14.929985
57.845 15.359462
57.850 15.337407
57.855 15.338858
57.860 15.305002
57.865 15.157216
57.870 14.95269
57.875 15.019273
57.880 14.865804
57.885 14.952148
57.890 15.226912
57.895 15.211679
57.900 15.050254
57.905 15.579491
57.910 15.844994
57.915 16.059614
57.920 15.611765
57.925 15.258483
57.930 15.33438
57.935 15.865396
57.940 15.891131
57.945 15.165335
57.950 14.974563
57.955 14.840845
57.960 14.68766
57.965 14.432816
57.970 14.222795
57.975 13.653244
57.980 14.029815
57.985 14.266334
57.990 14.831268
57.995 14.940079
58.000 15.179273
58.005 14.913183
58.010 14.633143
58.015 14.039667
58.020 13.844675
58.025 13.673022
58.030 13.526373
58.035 13.524158
58.040 13.274143
58.045 13.677516
58.050 13.858044
58.055 13.828629
58.060 14.239208
58.065 14.801545
58.070 14.827747
58.075 15.442311
58.080 15.55328
58.085 15.808778
58.090 16.049828
58.095 16.105051
58.100 15.711346
58.105 15.505505
58.110 15.288996
58.115 14.75123
58.120 14.529643
58.125 14.058804
58.130 13.73502
58.135 14.346633
58.140 14.813469
58.145 15.479535
58.150 15.837943
58.155 17.015997
58.160 17.906809
58.165 17.38652
58.170 16.750307
58.175 15.929628
58.180 15.58129
58.185 15.79621
58.190 14.858081
58.195 14.243916
58.200 15.025422
58.205 15.707949
58.210 16.094105
58.215 15.682377
58.220 15.202263
58.225 15.630599
58.230 16.231724
58.235 16.025164
58.240 15.755185
58.245 15.797995
58.250 16.157404
58.255 16.510366
58.260 16.234978
58.265 16.084486
58.270 15.67137
58.275 15.971737
58.280 16.368599
58.285 16.702316
58.290 16.977343
58.295 17.194239
58.300 17.82032
58.305 18.843893
58.310 19.334345
58.315 19.419558
58.320 19.444744
58.325 19.545671
58.330 19.372908
58.335 19.529842
58.340 19.737595
58.345 19.406368
58.350 20.274666
58.355 20.41729
58.360 20.574194
58.365 20.622967
58.370 20.221525
58.375 19.950911
58.380 19.971067
58.385 20.362022
58.390 21.212982
58.395 21.685392
58.400 22.117937
58.405 22.287064
58.410 22.90769
58.415 23.306931
58.420 23.614922
58.425 23.772387
58.430 24.502319
58.435 24.760904
58.440 24.874907
58.445 24.793772
58.450 24.631769
58.455 24.546619
58.460 24.247036
58.465 23.388611
58.470 23.717642
58.475 23.756615
58.480 24.55838
58.485 25.385286
58.490 25.590618
58.495 26.39641
58.500 27.086319
58.505 27.475368
58.510 27.773149
58.515 27.534098
58.520 27.236277
58.525 27.274586
58.530 27.464893
58.535 28.441257
58.540 28.589697
58.545 28.587633
