!@!!GADDS PLOTSO FILE: Chi integration type
!@!!Title/SampleName: map-135
!@!!Comment: ?
!@!!User: Bruker Instrument Administrator
!@!!Site: University of Illinois Chicago
!@!!Frame: map-135_01_000.gfrm
!@!!Wavelengths    1.54184   1.54056   1.54439
!@!!Frame angles: 2Theta: 63.000 Omega: 50.000 Phi: 0.000 Chi: 90.000
!@!!Integration range: 2Theta: 53.000 to 73.000  Gamma: -105.000 to -75.000
!@!!Integration method: bin normalized
!@!N
!@!SS
!@!M
!@!L 0.0 0.0 0.0 0.0
!@!XDegrees
!@!YCounts
53.000 3.87803
53.005 3.509312
53.010 3.375474
53.015 3.396254
53.020 3.260107
53.025 2.952961
53.030 3.201251
53.035 3.388749
53.040 3.371899
53.045 3.482395
53.050 3.746793
53.055 4.07029
53.060 3.9576
53.065 3.669113
53.070 3.479702
53.075 3.953281
53.080 4.096628
53.085 4.187734
53.090 4.0767
53.095 4.229978
53.100 4.377297
53.105 4.444206
53.110 4.344013
53.115 4.415433
53.120 4.220871
53.125 4.340806
53.130 4.300346
53.135 4.481325
53.140 4.828174
53.145 4.653818
53.150 5.021956
53.155 5.331024
53.160 5.039782
53.165 5.067824
53.170 4.95548
53.175 4.73402
53.180 4.924347
53.185 4.690919
53.190 4.718313
53.195 4.956054
53.200 4.812228
53.205 4.831515
53.210 4.68402
53.215 4.292206
53.220 4.208667
53.225 4.449929
53.230 4.755831
53.235 5.040642
53.240 5.146661
53.245 5.069166
53.250 4.924009
53.255 5.01152
53.260 5.058164
53.265 4.460073
53.270 4.026348
53.275 4.302927
53.280 4.382202
53.285 4.596027
53.290 4.246822
53.295 4.329883
53.300 5.069339
53.305 5.411892
53.310 5.115753
53.315 4.923554
53.320 4.729884
53.325 4.654698
53.330 4.428745
53.335 3.875865
53.340 3.704573
53.345 3.935478
53.350 4.20435
53.355 4.319693
53.360 4.243999
53.365 4.246757
53.370 4.398924
53.375 4.393945
53.380 4.144989
53.385 4.352089
53.390 4.528056
53.395 4.548609
53.400 4.571526
53.405 4.401633
53.410 4.388829
53.415 4.409371
53.420 3.995261
53.425 4.015893
53.430 4.023506
53.435 4.151179
53.440 4.537842
53.445 4.50394
53.450 5.116908
53.455 5.144691
53.460 5.015323
53.465 5.212052
53.470 5.333316
53.475 5.37547
53.480 5.305579
53.485 5.204237
53.490 5.539689
53.495 5.670135
53.500 5.728606
53.505 5.742828
53.510 5.928106
53.515 5.689262
53.520 5.422901
53.525 5.334157
53.530 5.51333
53.535 5.546305
53.540 5.187072
53.545 4.810435
53.550 5.125049
53.555 5.137304
53.560 5.031071
53.565 4.797174
53.570 4.735775
53.575 4.957165
53.580 5.031502
53.585 4.728385
53.590 4.939752
53.595 4.920571
53.600 4.727255
53.605 5.069934
53.610 4.96071
53.615 4.980232
53.620 5.21063
53.625 5.176478
53.630 5.439641
53.635 5.312419
53.640 5.236815
53.645 5.491954
53.650 5.560219
53.655 5.766198
53.660 5.623833
53.665 5.57362
53.670 5.530787
53.675 5.429553
53.680 5.224438
53.685 5.02211
53.690 4.843906
53.695 4.8205
53.700 4.519422
53.705 4.534291
53.710 4.339362
53.715 4.417572
53.720 4.483008
53.725 4.613972
53.730 4.783353
53.735 4.973754
53.740 5.177955
53.745 5.628622
53.750 5.721043
53.755 5.508124
53.760 5.261592
53.765 5.084083
53.770 5.052171
53.775 4.867286
53.780 5.025168
53.785 5.199448
53.790 5.252285
53.795 5.416075
53.800 5.528199
53.805 5.47099
53.810 5.006621
53.815 4.624034
53.820 4.46659
53.825 4.531973
53.830 4.497931
53.835 4.481873
53.840 4.505795
53.845 4.548898
53.850 4.614282
53.855 4.342017
53.860 3.893155
53.865 3.718657
53.870 3.70401
53.875 3.673507
53.880 3.557583
53.885 3.728768
53.890 4.112844
53.895 4.330385
53.900 4.670504
53.905 5.257024
53.910 5.669656
53.915 5.785141
53.920 5.746547
53.925 5.527164
53.930 5.269172
53.935 5.149055
53.940 5.070045
53.945 4.742352
53.950 4.73901
53.955 4.906038
53.960 4.936422
53.965 4.899121
53.970 4.344066
53.975 4.224944
53.980 4.334968
53.985 4.351449
53.990 4.074917
53.995 4.459898
54.000 4.617682
54.005 4.817364
54.010 4.797341
54.015 4.681085
54.020 4.552159
54.025 4.483486
54.030 4.210495
54.035 4.097277
54.040 3.839457
54.045 3.943728
54.050 4.232721
54.055 4.495202
54.060 4.66713
54.065 4.801237
54.070 5.04735
54.075 5.189161
54.080 4.850107
54.085 4.860611
54.090 4.965459
54.095 5.116969
54.100 5.130663
54.105 5.22492
54.110 5.466643
54.115 5.733238
54.120 5.508805
54.125 5.284149
54.130 5.121131
54.135 5.061824
54.140 4.901488
54.145 4.939452
54.150 4.679555
54.155 4.735047
54.160 4.953762
54.165 5.525727
54.170 5.728618
54.175 5.672071
54.180 5.538384
54.185 5.631112
54.190 5.566527
54.195 5.664695
54.200 5.451469
54.205 5.16183
54.210 4.780515
54.215 4.689981
54.220 4.898042
54.225 4.724535
54.230 4.353374
54.235 4.226587
54.240 4.496852
54.245 4.642562
54.250 4.753087
54.255 4.935359
54.260 5.189425
54.265 5.333826
54.270 5.449476
54.275 5.667031
54.280 5.712813
54.285 5.517182
54.290 5.451156
54.295 5.392704
54.300 5.106798
54.305 4.899581
54.310 4.518598
54.315 4.587821
54.320 4.815434
54.325 4.8958
54.330 4.775964
54.335 4.587192
54.340 4.662922
54.345 4.828129
54.350 4.691869
54.355 4.452153
54.360 4.337168
54.365 4.413218
54.370 4.587546
54.375 4.398191
54.380 4.315211
54.385 4.022098
54.390 4.092197
54.395 4.259513
54.400 4.351274
54.405 4.616254
54.410 4.798411
54.415 4.962406
54.420 5.300958
54.425 5.271315
54.430 4.916179
54.435 4.752783
54.440 4.281716
54.445 4.371429
54.450 4.491183
54.455 4.362433
54.460 4.600408
54.465 4.788249
54.470 5.197443
54.475 5.703373
54.480 5.628668
54.485 5.617359
54.490 5.727861
54.495 5.871672
54.500 6.134431
54.505 5.751727
54.510 5.6566
54.515 5.56975
54.520 5.424884
54.525 5.315532
54.530 5.008406
54.535 4.831144
54.540 4.985352
54.545 5.004287
54.550 5.151303
54.555 5.005154
54.560 4.834888
54.565 4.72685
54.570 4.596856
54.575 4.456998
54.580 4.059599
54.585 3.995103
54.590 4.113129
54.595 4.168528
54.600 4.321126
54.605 4.412383
54.610 4.480642
54.615 4.954941
54.620 4.854752
54.625 4.651495
54.630 4.257791
54.635 4.175777
54.640 4.346573
54.645 4.564602
54.650 4.604366
54.655 4.733884
54.660 5.094073
54.665 5.430973
54.670 5.610427
54.675 5.123634
54.680 4.998576
54.685 4.901094
54.690 4.955067
54.695 5.003278
54.700 5.234674
54.705 5.366396
54.710 5.712575
54.715 5.467659
54.720 5.645876
54.725 5.781007
54.730 5.778842
54.735 5.681053
54.740 5.643644
54.745 5.618912
54.750 5.69713
54.755 5.315616
54.760 5.019729
54.765 4.81781
54.770 4.874461
54.775 4.858226
54.780 4.907579
54.785 5.069084
54.790 5.20477
54.795 5.182317
54.800 5.438277
54.805 5.122869
54.810 5.141025
54.815 5.245266
54.820 5.148757
54.825 5.680129
54.830 5.753568
54.835 5.348319
54.840 5.514484
54.845 5.403957
54.850 5.425949
54.855 5.080572
54.860 4.680267
54.865 4.775759
54.870 4.749218
54.875 4.268816
54.880 4.058324
54.885 4.100482
54.890 4.428602
54.895 4.539312
54.900 4.742505
54.905 4.751899
54.910 4.962419
54.915 5.06125
54.920 5.298983
54.925 5.116505
54.930 4.584786
54.935 4.358626
54.940 4.503447
54.945 4.330385
54.950 4.040461
54.955 3.670024
54.960 3.937165
54.965 4.38134
54.970 4.434063
54.975 4.409503
54.980 4.590789
54.985 4.783289
54.990 4.732314
54.995 4.608183
55.000 4.540251
55.005 4.482974
55.010 4.760016
55.015 5.009155
55.020 5.18189
55.025 5.588723
55.030 5.721425
55.035 6.048304
55.040 6.103082
55.045 5.892879
55.050 6.044151
55.055 6.107579
55.060 6.09271
55.065 6.053278
55.070 5.56808
55.075 5.557214
55.080 5.876436
55.085 5.546693
55.090 5.199409
55.095 5.098576
55.100 5.702631
55.105 6.145268
55.110 6.170743
55.115 5.563995
55.120 5.597547
55.125 5.656325
55.130 5.287669
55.135 4.893592
55.140 5.064438
55.145 5.227665
55.150 5.421665
55.155 5.314038
55.160 5.722923
55.165 6.053482
55.170 5.999304
55.175 5.930182
55.180 5.953699
55.185 6.067211
55.190 6.07627
55.195 5.696877
55.200 5.542115
55.205 5.34134
55.210 5.222015
55.215 5.260146
55.220 5.371373
55.225 5.291339
55.230 5.002253
55.235 4.68972
55.240 4.997697
55.245 5.425434
55.250 5.341563
55.255 5.405891
55.260 5.594938
55.265 6.033936
55.270 6.238834
55.275 5.893552
55.280 5.595969
55.285 5.497936
55.290 5.32643
55.295 4.958547
55.300 4.899702
55.305 4.730296
55.310 4.37879
55.315 4.326859
55.320 4.279747
55.325 4.442254
55.330 4.677097
55.335 4.900354
55.340 5.16048
55.345 5.510491
55.350 5.51292
55.355 5.433005
55.360 5.300431
55.365 5.26505
55.370 4.805291
55.375 4.694944
55.380 4.707484
55.385 4.99659
55.390 5.240559
55.395 5.740305
55.400 6.194637
55.405 6.375142
55.410 6.253926
55.415 6.115109
55.420 6.146464
55.425 6.269573
55.430 5.944583
55.435 5.696023
55.440 5.748775
55.445 6.315851
55.450 6.425493
55.455 6.420182
55.460 6.263028
55.465 6.163008
55.470 6.145467
55.475 6.152126
55.480 6.071839
55.485 6.065252
55.490 6.046156
55.495 6.028206
55.500 6.506303
55.505 6.28838
55.510 5.752261
55.515 5.454361
55.520 5.182994
55.525 5.312027
55.530 5.403669
55.535 5.479986
55.540 5.740274
55.545 6.207151
55.550 6.33088
55.555 6.520136
55.560 6.335656
55.565 6.122056
55.570 5.612808
55.575 5.394548
55.580 5.446372
55.585 5.664453
55.590 5.922665
55.595 5.90761
55.600 5.631392
55.605 5.726013
55.610 5.568953
55.615 5.243616
55.620 5.009583
55.625 4.97041
55.630 5.132823
55.635 5.229914
55.640 5.416049
55.645 5.874842
55.650 6.017831
55.655 6.098532
55.660 5.984483
55.665 6.208064
55.670 6.051102
55.675 6.062055
55.680 5.927923
55.685 5.814603
55.690 5.623034
55.695 5.500123
55.700 5.370409
55.705 5.351893
55.710 4.936483
55.715 4.879678
55.720 4.920834
55.725 4.888568
55.730 4.752491
55.735 4.829523
55.740 5.195457
55.745 5.487086
55.750 5.656559
55.755 5.890574
55.760 6.012597
55.765 5.897892
55.770 6.279442
55.775 6.210646
55.780 5.929743
55.785 6.087237
55.790 6.087735
55.795 6.259678
55.800 6.30703
55.805 5.786674
55.810 5.894226
55.815 5.732506
55.820 5.413268
55.825 5.579567
55.830 5.333341
55.835 5.529874
55.840 5.823831
55.845 6.014876
55.850 6.538552
55.855 6.682009
55.860 6.447672
55.865 6.539858
55.870 6.246895
55.875 6.385584
55.880 6.368149
55.885 6.096442
55.890 5.739597
55.895 5.488077
55.900 5.459163
55.905 5.319346
55.910 4.795155
55.915 4.732691
55.920 4.637527
55.925 4.813719
55.930 5.120667
55.935 5.151258
55.940 5.313065
55.945 5.871019
55.950 5.894125
55.955 6.160277
55.960 6.405154
55.965 6.44581
55.970 6.508481
55.975 6.4634
55.980 6.446043
55.985 6.580608
55.990 6.566892
55.995 6.433635
56.000 6.445832
56.005 6.261463
56.010 6.348194
56.015 5.995121
56.020 5.980173
56.025 6.075572
56.030 6.442278
56.035 6.587715
56.040 6.843449
56.045 6.773392
56.050 6.926452
56.055 6.98399
56.060 6.668436
56.065 6.267681
56.070 6.399124
56.075 6.360476
56.080 6.380192
56.085 6.422381
56.090 6.181463
56.095 6.064092
56.100 5.843048
56.105 5.79108
56.110 6.136572
56.115 6.396973
56.120 6.231297
56.125 6.313585
56.130 6.565587
56.135 6.798725
56.140 6.841867
56.145 6.359849
56.150 6.156747
56.155 6.458997
56.160 6.57653
56.165 6.350044
56.170 6.333305
56.175 6.358164
56.180 6.386382
56.185 6.187805
56.190 5.945856
56.195 5.807059
56.200 6.282928
56.205 6.150372
56.210 5.820758
56.215 5.82833
56.220 5.811671
56.225 5.781095
56.230 5.805714
56.235 5.342638
56.240 5.304039
56.245 5.473899
56.250 5.746547
56.255 5.725274
56.260 5.9081
56.265 6.028052
56.270 6.25694
56.275 6.127543
56.280 5.825113
56.285 5.627607
56.290 5.60251
56.295 5.328205
56.300 5.577468
56.305 5.670912
56.310 5.955875
56.315 6.718255
56.320 6.828211
56.325 7.198997
56.330 7.032264
56.335 6.529666
56.340 6.153968
56.345 6.09894
56.350 5.526921
56.355 5.312525
56.360 5.325385
56.365 5.571573
56.370 5.739885
56.375 6.293688
56.380 6.27097
56.385 6.170769
56.390 6.129892
56.395 6.043842
56.400 6.068284
56.405 6.339727
56.410 5.977733
56.415 6.232885
56.420 6.858321
56.425 6.927992
56.430 6.922273
56.435 6.877572
56.440 6.922381
56.445 6.89011
56.450 6.582637
56.455 6.357761
56.460 6.214847
56.465 6.070342
56.470 5.985638
56.475 5.815481
56.480 6.055021
56.485 6.149173
56.490 6.515267
56.495 6.862617
56.500 7.06448
56.505 6.789299
56.510 6.5602
56.515 6.344838
56.520 6.493109
56.525 5.990142
56.530 5.809533
56.535 5.806458
56.540 6.10945
56.545 6.639122
56.550 6.568606
56.555 6.357012
56.560 6.466175
56.565 6.2054
56.570 6.326766
56.575 6.227958
56.580 5.919635
56.585 5.936784
56.590 5.824676
56.595 5.627052
56.600 5.408305
56.605 5.226153
56.610 5.215279
56.615 5.435353
56.620 5.625905
56.625 6.221094
56.630 7.036174
56.635 7.411527
56.640 7.548139
56.645 7.189206
56.650 6.856558
56.655 6.942111
56.660 6.705041
56.665 6.445852
56.670 6.193932
56.675 6.170121
56.680 6.531554
56.685 6.710994
56.690 6.51485
56.695 6.44168
56.700 6.460343
56.705 6.60977
56.710 6.602791
56.715 6.532078
56.720 6.506543
56.725 6.24272
56.730 5.984216
56.735 5.954499
56.740 6.308547
56.745 6.371888
56.750 6.188177
56.755 6.213704
56.760 6.531544
56.765 6.518755
56.770 6.524214
56.775 6.450853
56.780 6.773831
56.785 7.352642
56.790 7.441421
56.795 7.480363
56.800 7.625147
56.805 7.599119
56.810 7.457923
56.815 7.017838
56.820 6.539514
56.825 6.51333
56.830 6.490799
56.835 6.632826
56.840 6.519317
56.845 6.600871
56.850 6.826956
56.855 7.042378
56.860 7.136106
56.865 7.338222
56.870 7.360091
56.875 7.297197
56.880 7.349274
56.885 7.252861
56.890 7.340357
56.895 7.597375
56.900 7.56368
56.905 7.439447
56.910 7.043694
56.915 6.714614
56.920 6.494231
56.925 6.127549
56.930 5.83981
56.935 5.913652
56.940 6.342936
56.945 6.874585
56.950 7.252516
56.955 7.295774
56.960 7.284544
56.965 7.130942
56.970 6.437628
56.975 6.232041
56.980 5.84055
56.985 5.671718
56.990 5.549292
56.995 5.215897
57.000 4.992113
57.005 5.390674
57.010 5.477583
57.015 5.91729
57.020 6.009047
57.025 6.158338
57.030 6.697474
57.035 6.968646
57.040 7.049897
57.045 6.976772
57.050 6.851668
57.055 7.104425
57.060 7.205186
57.065 7.390154
57.070 7.52023
57.075 7.477369
57.080 7.514907
57.085 7.524984
57.090 7.361327
57.095 6.909175
57.100 6.763192
57.105 6.338871
57.110 6.127547
57.115 6.008602
57.120 6.398943
57.125 6.834524
57.130 7.015431
57.135 6.982169
57.140 7.520145
57.145 7.855915
57.150 7.956393
57.155 7.311204
57.160 6.857832
57.165 6.681192
57.170 6.694306
57.175 6.519292
57.180 6.466909
57.185 6.145572
57.190 6.358873
57.195 6.731856
57.200 6.961223
57.205 6.998523
57.210 6.577984
57.215 6.619633
57.220 7.023659
57.225 7.03625
57.230 6.941156
57.235 6.872636
57.240 6.717622
57.245 6.570192
57.250 6.227211
57.255 6.221372
57.260 6.392991
57.265 6.606624
57.270 6.67861
57.275 6.957568
57.280 7.345191
57.285 7.433672
57.290 7.146656
57.295 6.706866
57.300 6.449409
57.305 6.214033
57.310 6.310168
57.315 6.258372
57.320 6.381854
57.325 6.589905
57.330 6.875755
57.335 7.049913
57.340 7.111801
57.345 7.170594
57.350 7.427085
57.355 7.656872
57.360 7.624164
57.365 7.702636
57.370 7.643293
57.375 7.98875
57.380 8.149418
57.385 7.888001
57.390 7.764741
57.395 7.58003
57.400 7.458518
57.405 7.632567
57.410 7.414374
57.415 7.155796
57.420 6.855432
57.425 6.94011
57.430 7.168622
57.435 6.883439
57.440 6.80699
57.445 6.563379
57.450 6.917515
57.455 7.299734
57.460 7.077965
57.465 7.054517
57.470 6.902547
57.475 6.753273
57.480 6.932345
57.485 6.567296
57.490 6.465061
57.495 6.46659
57.500 6.566813
57.505 6.820952
57.510 6.754654
57.515 6.515918
57.520 6.557205
57.525 6.872114
57.530 6.42801
57.535 6.182485
57.540 6.152864
57.545 6.300863
57.550 6.323572
57.555 6.13785
57.560 5.976961
57.565 6.471653
57.570 6.515146
57.575 6.631811
57.580 6.745224
57.585 6.873838
57.590 6.990838
57.595 7.293003
57.600 7.238473
57.605 7.245766
57.610 7.28252
57.615 7.222891
57.620 7.381156
57.625 7.198144
57.630 6.777154
57.635 6.573274
57.640 6.610941
57.645 6.750361
57.650 6.799709
57.655 6.576231
57.660 6.597965
57.665 6.59234
57.670 6.431907
57.675 6.353703
57.680 5.954781
57.685 5.941578
57.690 6.483801
57.695 7.078759
57.700 7.585962
57.705 8.011164
57.710 7.978323
57.715 7.646336
57.720 7.50123
57.725 7.231193
57.730 6.935174
57.735 6.395944
57.740 6.525421
57.745 6.836579
57.750 7.031169
57.755 7.225276
57.760 7.313281
57.765 7.288361
57.770 7.25156
57.775 7.164782
57.780 7.267206
57.785 7.406836
57.790 6.714246
57.795 6.232747
57.800 6.367427
57.805 6.665709
57.810 6.353764
57.815 6.085473
57.820 6.038621
57.825 6.664193
57.830 7.250184
57.835 7.311776
57.840 7.246229
57.845 7.397745
57.850 7.965798
57.855 8.095366
57.860 7.966859
57.865 7.535794
57.870 7.278587
57.875 7.203777
57.880 7.145404
57.885 6.955296
57.890 6.891727
57.895 6.995334
57.900 6.866517
57.905 6.706123
57.910 6.83127
57.915 6.731133
57.920 6.900025
57.925 6.8757
57.930 6.322278
57.935 6.371362
57.940 6.389078
57.945 6.483984
57.950 5.910693
57.955 5.672395
57.960 5.801313
57.965 6.315849
57.970 6.487825
57.975 6.8268
57.980 6.915596
57.985 7.599686
57.990 7.626612
57.995 7.834605
58.000 7.869979
58.005 7.927641
58.010 7.493176
58.015 7.712146
58.020 7.504035
58.025 7.212628
58.030 7.059874
58.035 7.285635
58.040 7.427233
58.045 7.559652
58.050 7.53407
58.055 7.558123
58.060 7.766423
58.065 7.620187
58.070 7.164268
58.075 7.284435
58.080 7.162272
58.085 6.656147
58.090 6.583726
58.095 6.55007
58.100 6.872056
58.105 6.925929
58.110 6.725586
58.115 6.829345
58.120 6.972185
58.125 7.175314
58.130 7.053958
58.135 7.114641
58.140 7.223201
58.145 7.181624
58.150 7.140874
58.155 7.312847
58.160 7.434117
58.165 7.521759
58.170 6.98927
58.175 6.954183
58.180 7.082682
58.185 7.291963
58.190 7.291089
58.195 7.384464
58.200 7.953245
58.205 8.347235
58.210 8.244413
58.215 8.080816
58.220 8.612634
58.225 8.81151
58.230 8.517528
58.235 7.919641
58.240 8.177493
58.245 8.006454
58.250 7.86624
58.255 7.377694
58.260 6.878437
58.265 6.963392
58.270 7.168218
58.275 7.262197
58.280 7.601084
58.285 7.584996
58.290 7.421933
58.295 7.592317
58.300 7.791407
58.305 7.53955
58.310 7.266907
58.315 7.352396
58.320 7.504763
58.325 7.856209
58.330 7.512621
58.335 7.462984
58.340 7.629024
58.345 7.499063
58.350 7.575049
58.355 7.881505
58.360 7.958657
58.365 8.452808
58.370 8.27657
58.375 8.60752
58.380 9.218931
58.385 9.116341
58.390 8.581748
58.395 8.070834
58.400 7.709374
58.405 7.697515
58.410 7.564201
58.415 6.964764
58.420 7.167982
58.425 7.459295
58.430 8.2658
58.435 8.589645
58.440 8.683528
58.445 8.527536
58.450 8.90329
58.455 9.248893
58.460 9.11915
58.465 8.646387
58.470 8.757727
58.475 9.197861
58.480 9.609668
58.485 9.824414
58.490 10.239942
58.495 10.827465
58.500 11.021692
58.505 10.997006
58.510 10.757238
58.515 10.797675
58.520 10.776674
58.525 10.547494
58.530 10.391299
58.535 11.018113
58.540 11.666086
58.545 11.716123
58.550 11.737258
58.555 11.646953
58.560 11.889749
58.565 11.998742
58.570 11.900219
58.575 12.086244
58.580 11.915173
58.585 11.914552
58.590 11.77871
58.595 11.952502
58.600 12.369169
58.605 12.148537
58.610 11.964536
58.615 12.041652
58.620 12.045362
58.625 12.339687
58.630 13.21519
58.635 13.339874
58.640 13.394753
58.645 13.699339
58.650 14.594437
58.655 15.121755
58.660 15.163211
58.665 14.099101
58.670 13.626811
58.675 14.063551
58.680 13.715564
58.685 13.277462
58.690 13.381366
58.695 13.746497
58.700 13.821883
58.705 13.687816
58.710 13.377441
58.715 13.816104
58.720 13.881018
58.725 13.673382
58.730 13.165742
58.735 13.023102
58.740 13.525016
58.745 13.561242
