!@!!GADDS PLOTSO FILE: Chi integration type
!@!!Title/SampleName: map-95
!@!!Comment: ?
!@!!User: Bruker Instrument Administrator
!@!!Site: University of Illinois Chicago
!@!!Frame: map-95_01_000.gfrm
!@!!Wavelengths    1.54184   1.54056   1.54439
!@!!Frame angles: 2Theta: 63.000 Omega: 50.000 Phi: 0.000 Chi: 90.000
!@!!Integration range: 2Theta: 53.000 to 73.000  Gamma: -105.000 to -75.000
!@!!Integration method: bin normalized
!@!N
!@!SS
!@!M
!@!L 0.0 0.0 0.0 0.0
!@!XDegrees
!@!YCounts
53.000 9.984854
53.005 10.687374
53.010 11.029393
53.015 10.699399
53.020 10.833388
53.025 11.191452
53.030 10.82626
53.035 10.713078
53.040 10.368459
53.045 10.256115
53.050 10.28268
53.055 10.374699
53.060 10.101612
53.065 9.879175
53.070 9.103021
53.075 8.568359
53.080 8.670863
53.085 8.536822
53.090 8.517159
53.095 8.260445
53.100 8.338933
53.105 8.614199
53.110 9.062248
53.115 9.361057
53.120 10.053526
53.125 10.075423
53.130 10.490336
53.135 10.545079
53.140 10.455079
53.145 10.267195
53.150 10.043548
53.155 9.310364
53.160 9.365876
53.165 9.160453
53.170 9.193124
53.175 8.894098
53.180 8.864696
53.185 9.054221
53.190 9.361043
53.195 9.43847
53.200 9.390041
53.205 9.448044
53.210 9.631947
53.215 9.460419
53.220 9.044517
53.225 8.744066
53.230 8.279797
53.235 8.746662
53.240 9.071863
53.245 9.201762
53.250 9.163013
53.255 9.247366
53.260 9.554158
53.265 9.687182
53.270 9.764495
53.275 9.877891
53.280 10.235633
53.285 10.565635
53.290 10.491754
53.295 10.573229
53.300 10.274684
53.305 9.868417
53.310 9.634628
53.315 9.095204
53.320 8.627692
53.325 8.225714
53.330 7.939195
53.335 7.651376
53.340 7.621414
53.345 7.658918
53.350 7.971811
53.355 8.910139
53.360 8.995886
53.365 9.134842
53.370 9.676031
53.375 9.973436
53.380 10.299264
53.385 9.821816
53.390 9.627982
53.395 10.017137
53.400 10.130245
53.405 10.187479
53.410 10.344317
53.415 10.404883
53.420 10.339046
53.425 10.121651
53.430 10.104717
53.435 9.938304
53.440 9.979386
53.445 9.70645
53.450 9.410307
53.455 9.381663
53.460 9.743343
53.465 9.489573
53.470 9.518866
53.475 9.395304
53.480 9.376534
53.485 9.631098
53.490 9.68418
53.495 9.378925
53.500 9.529948
53.505 9.346567
53.510 9.378373
53.515 9.611226
53.520 10.36362
53.525 10.917349
53.530 10.777221
53.535 10.577705
53.540 10.544842
53.545 10.724626
53.550 10.499828
53.555 9.475196
53.560 9.038733
53.565 9.340452
53.570 9.271928
53.575 9.419606
53.580 9.526035
53.585 9.954628
53.590 10.405868
53.595 10.387278
53.600 10.628148
53.605 11.294927
53.610 11.08844
53.615 10.361209
53.620 10.352184
53.625 10.191701
53.630 10.724699
53.635 10.849282
53.640 10.683627
53.645 11.298452
53.650 11.653459
53.655 11.70128
53.660 12.125255
53.665 11.780101
53.670 11.380336
53.675 11.228215
53.680 11.036939
53.685 11.191558
53.690 11.003631
53.695 11.152033
53.700 11.284307
53.705 11.740086
53.710 11.807858
53.715 12.045917
53.720 12.311129
53.725 12.872849
53.730 12.678151
53.735 12.744995
53.740 12.302588
53.745 12.253695
53.750 11.765699
53.755 11.165813
53.760 10.80688
53.765 11.486367
53.770 11.860607
53.775 11.896527
53.780 11.80951
53.785 12.137074
53.790 11.91498
53.795 11.492992
53.800 11.055971
53.805 11.084629
53.810 10.968224
53.815 10.435798
53.820 9.998202
53.825 10.000853
53.830 9.955919
53.835 9.510003
53.840 9.520329
53.845 10.054465
53.850 10.70093
53.855 10.780309
53.860 11.017794
53.865 11.136489
53.870 11.104322
53.875 11.055269
53.880 10.991803
53.885 10.983512
53.890 10.937017
53.895 10.835034
53.900 11.010392
53.905 11.005429
53.910 10.979832
53.915 10.773559
53.920 10.629261
53.925 11.124303
53.930 10.883087
53.935 10.329933
53.940 10.168431
53.945 10.147506
53.950 10.519745
53.955 10.514973
53.960 10.75143
53.965 10.745232
53.970 11.083579
53.975 11.460174
53.980 11.106181
53.985 10.686625
53.990 10.339971
53.995 9.979258
54.000 10.06102
54.005 9.469652
54.010 9.198777
54.015 9.415472
54.020 9.743812
54.025 9.851005
54.030 10.376482
54.035 10.754924
54.040 10.998178
54.045 10.696164
54.050 11.05946
54.055 10.637585
54.060 10.63929
54.065 10.286441
54.070 9.949612
54.075 9.962565
54.080 10.336128
54.085 10.203218
54.090 10.267387
54.095 10.445179
54.100 10.47025
54.105 11.211916
54.110 11.204941
54.115 10.99918
54.120 11.013185
54.125 11.05046
54.130 10.787118
54.135 10.668006
54.140 10.181307
54.145 9.85373
54.150 9.83954
54.155 9.822614
54.160 9.895339
54.165 10.673109
54.170 11.176897
54.175 11.754588
54.180 12.043886
54.185 11.644793
54.190 11.426614
54.195 10.761219
54.200 10.02381
54.205 9.485401
54.210 9.62596
54.215 9.939154
54.220 10.535017
54.225 11.306172
54.230 12.002486
54.235 12.148664
54.240 12.333078
54.245 12.185696
54.250 12.104762
54.255 11.759575
54.260 11.368944
54.265 11.280544
54.270 11.170068
54.275 10.957847
54.280 10.939098
54.285 11.416933
54.290 11.574017
54.295 11.589208
54.300 11.608727
54.305 11.929262
54.310 12.274594
54.315 11.818458
54.320 11.242762
54.325 11.215605
54.330 10.886724
54.335 10.621214
54.340 10.174618
54.345 10.255052
54.350 10.271772
54.355 10.38513
54.360 10.767426
54.365 11.221293
54.370 11.416075
54.375 11.320407
54.380 11.015096
54.385 11.096848
54.390 11.182802
54.395 11.129706
54.400 11.147551
54.405 11.276523
54.410 11.94872
54.415 12.156935
54.420 12.414137
54.425 12.017156
54.430 12.163396
54.435 12.150325
54.440 12.49193
54.445 12.46928
54.450 12.55358
54.455 12.172482
54.460 11.939625
54.465 11.454904
54.470 11.39416
54.475 10.868291
54.480 10.382113
54.485 10.160945
54.490 10.21495
54.495 10.262083
54.500 10.105077
54.505 9.738802
54.510 9.569112
54.515 9.821687
54.520 9.865532
54.525 9.734937
54.530 9.791162
54.535 10.508883
54.540 10.585733
54.545 10.721005
54.550 10.803307
54.555 11.058021
54.560 11.411797
54.565 11.442465
54.570 11.371623
54.575 11.833486
54.580 11.45745
54.585 11.183304
54.590 10.704298
54.595 10.414948
54.600 10.14332
54.605 9.438874
54.610 9.353375
54.615 9.407468
54.620 10.110875
54.625 10.690568
54.630 10.945916
54.635 10.785084
54.640 10.879035
54.645 10.856138
54.650 11.316618
54.655 10.983272
54.660 10.83889
54.665 10.610239
54.670 10.745582
54.675 10.703403
54.680 10.560259
54.685 9.893004
54.690 9.804512
54.695 9.734002
54.700 9.98732
54.705 9.999786
54.710 10.360775
54.715 10.78305
54.720 10.962124
54.725 11.182633
54.730 11.273228
54.735 11.262313
54.740 11.552872
54.745 11.660389
54.750 11.439297
54.755 11.106199
54.760 10.957462
54.765 11.274884
54.770 11.454834
54.775 10.721348
54.780 10.497178
54.785 10.215243
54.790 10.362115
54.795 10.480812
54.800 10.246949
54.805 10.439818
54.810 10.824556
54.815 11.358672
54.820 11.988152
54.825 11.830184
54.830 11.421121
54.835 11.555204
54.840 11.491933
54.845 11.332404
54.850 11.172045
54.855 11.049617
54.860 11.263955
54.865 11.880918
54.870 12.500131
54.875 13.235814
54.880 13.511628
54.885 13.818976
54.890 14.258583
54.895 14.447738
54.900 14.230778
54.905 13.811023
54.910 13.744839
54.915 13.923531
54.920 13.554746
54.925 13.306953
54.930 13.455043
54.935 13.19917
54.940 12.852287
54.945 12.612834
54.950 12.426359
54.955 12.696584
54.960 12.30985
54.965 12.006467
54.970 12.139262
54.975 12.058443
54.980 11.649913
54.985 11.542844
54.990 11.063658
54.995 10.809855
55.000 10.050584
55.005 9.760393
55.010 9.720967
55.015 9.783271
55.020 9.793441
55.025 10.300359
55.030 10.727418
55.035 11.16338
55.040 11.092175
55.045 11.330528
55.050 11.533883
55.055 11.586692
55.060 11.092738
55.065 11.015809
55.070 11.367693
55.075 11.650471
55.080 11.395432
55.085 10.98833
55.090 11.600726
55.095 12.186318
55.100 12.584042
55.105 12.715919
55.110 12.778514
55.115 12.82443
55.120 12.974207
55.125 12.402575
55.130 12.432439
55.135 12.382718
55.140 12.160406
55.145 12.094605
55.150 12.240281
55.155 12.389926
55.160 12.744646
55.165 12.484154
55.170 12.315258
55.175 12.740087
55.180 13.042787
55.185 12.706932
55.190 12.162893
55.195 11.985295
55.200 11.993076
55.205 11.880396
55.210 11.1846
55.215 11.195623
55.220 10.976222
55.225 11.497295
55.230 11.368891
55.235 11.55517
55.240 11.266575
55.245 10.828099
55.250 10.971119
55.255 11.306018
55.260 10.700368
55.265 10.742398
55.270 10.556623
55.275 10.853077
55.280 11.266505
55.285 11.056703
55.290 11.418243
55.295 11.707364
55.300 11.571027
55.305 11.870212
55.310 11.908641
55.315 11.717979
55.320 11.647173
55.325 11.225623
55.330 11.244423
55.335 11.096185
55.340 10.997231
55.345 10.591662
55.350 10.751972
55.355 11.044019
55.360 11.382401
55.365 11.355632
55.370 11.163074
55.375 11.296361
55.380 11.592789
55.385 11.176507
55.390 10.873138
55.395 10.615935
55.400 11.20814
55.405 11.572443
55.410 11.354578
55.415 11.556409
55.420 11.884233
55.425 12.045158
55.430 12.206391
55.435 11.799099
55.440 11.960947
55.445 12.031979
55.450 11.6316
55.455 11.09202
55.460 11.310791
55.465 11.461281
55.470 11.152601
55.475 11.039194
55.480 11.252355
55.485 11.562123
55.490 11.942499
55.495 11.779315
55.500 11.950358
55.505 11.938151
55.510 11.735492
55.515 11.374228
55.520 11.430056
55.525 10.779444
55.530 10.365408
55.535 10.416231
55.540 10.808946
55.545 11.056583
55.550 12.249379
55.555 12.943931
55.560 13.426659
55.565 13.650057
55.570 13.789526
55.575 13.48228
55.580 13.500525
55.585 12.786157
55.590 12.605906
55.595 13.312059
55.600 13.335694
55.605 12.715117
55.610 12.88108
55.615 12.697751
55.620 12.326298
55.625 12.298503
55.630 11.56483
55.635 11.478738
55.640 11.705666
55.645 11.813231
55.650 12.07219
55.655 12.221807
55.660 12.097747
55.665 12.427517
55.670 12.35855
55.675 12.359479
55.680 12.071612
55.685 12.389211
55.690 12.745479
55.695 12.81813
55.700 12.660369
55.705 12.753258
55.710 12.797805
55.715 12.713422
55.720 12.214432
55.725 11.883114
55.730 11.940058
55.735 12.068343
55.740 12.297789
55.745 12.462708
55.750 12.629745
55.755 13.170698
55.760 13.105202
55.765 13.501682
55.770 13.627696
55.775 13.458135
55.780 13.779721
55.785 13.920168
55.790 13.631834
55.795 13.406667
55.800 12.600859
55.805 12.524048
55.810 12.611605
55.815 12.56539
55.820 12.353948
55.825 12.393428
55.830 12.589267
55.835 13.267674
55.840 13.247842
55.845 13.088743
55.850 13.219046
55.855 13.182492
55.860 12.919649
55.865 12.741281
55.870 12.034771
55.875 11.740517
55.880 11.413497
55.885 11.430483
55.890 11.529494
55.895 12.210979
55.900 12.233718
55.905 12.302657
55.910 12.544456
55.915 12.412882
55.920 12.019113
55.925 11.762267
55.930 11.37503
55.935 11.300372
55.940 11.708522
55.945 12.311818
55.950 12.620619
55.955 12.995973
55.960 13.128576
55.965 12.821987
55.970 12.917747
55.975 12.859723
55.980 12.766057
55.985 12.826565
55.990 12.812558
55.995 12.993768
56.000 13.232005
56.005 13.185762
56.010 12.623956
56.015 12.006978
56.020 11.510815
56.025 11.612437
56.030 11.738452
56.035 11.572603
56.040 11.663466
56.045 11.908486
56.050 12.537611
56.055 12.447919
56.060 11.877103
56.065 11.591754
56.070 11.394531
56.075 11.608435
56.080 11.690667
56.085 11.435786
56.090 11.729656
56.095 12.36869
56.100 12.559456
56.105 12.861256
56.110 12.911956
56.115 13.126191
56.120 12.895273
56.125 12.819596
56.130 12.788102
56.135 12.951896
56.140 13.059779
56.145 13.019367
56.150 12.377382
56.155 12.393677
56.160 12.384731
56.165 11.887326
56.170 11.443446
56.175 10.939333
56.180 10.87382
56.185 11.393138
56.190 11.610743
56.195 11.695903
56.200 12.034857
56.205 12.254886
56.210 12.28369
56.215 12.896991
56.220 13.092857
56.225 13.171204
56.230 13.404774
56.235 13.819302
56.240 14.070024
56.245 14.943363
56.250 14.784678
56.255 14.952128
56.260 14.881032
56.265 14.794183
56.270 14.393836
56.275 14.297043
56.280 13.60164
56.285 13.577418
56.290 13.945555
56.295 13.740102
56.300 13.714551
56.305 14.106822
56.310 14.318348
56.315 14.532139
56.320 14.701737
56.325 14.364489
56.330 14.145828
56.335 14.293923
56.340 14.130783
56.345 13.389374
56.350 12.643245
56.355 12.070367
56.360 11.915709
56.365 11.756621
56.370 11.598939
56.375 11.707631
56.380 12.417147
56.385 12.7414
56.390 12.461384
56.395 12.604759
56.400 12.770947
56.405 12.424185
56.410 12.262345
56.415 11.707956
56.420 11.943668
56.425 11.85943
56.430 12.603668
56.435 13.045071
56.440 12.885479
56.445 13.208185
56.450 13.720195
56.455 14.520382
56.460 14.77842
56.465 14.365689
56.470 14.581096
56.475 15.190469
56.480 15.255013
56.485 15.289863
56.490 15.253182
56.495 15.124232
56.500 14.710666
56.505 14.459382
56.510 14.042198
56.515 13.920913
56.520 13.349698
56.525 12.688554
56.530 12.534087
56.535 12.586047
56.540 13.257667
56.545 13.364984
56.550 13.088127
56.555 12.927575
56.560 12.913369
56.565 12.918686
56.570 12.70176
56.575 12.017338
56.580 12.165109
56.585 12.628001
56.590 12.491527
56.595 12.480919
56.600 12.636366
56.605 12.585659
56.610 12.744964
56.615 12.047462
56.620 11.504864
56.625 11.830997
56.630 12.234812
56.635 12.257266
56.640 12.393724
56.645 12.700567
56.650 13.259079
56.655 13.584729
56.660 13.847791
56.665 13.983859
56.670 13.777185
56.675 13.414655
56.680 13.302364
56.685 13.346465
56.690 13.015107
56.695 12.577226
56.700 12.740522
56.705 12.845095
56.710 12.725021
56.715 12.901474
56.720 12.969392
56.725 13.291841
56.730 13.534651
56.735 13.886936
56.740 14.379441
56.745 14.765756
56.750 14.260972
56.755 14.131612
56.760 14.307583
56.765 13.940499
56.770 13.682299
56.775 13.463014
56.780 13.261848
56.785 13.9404
56.790 14.309285
56.795 14.044597
56.800 14.083686
56.805 13.926794
56.810 14.047003
56.815 14.132268
56.820 13.506255
56.825 13.16618
56.830 13.001938
56.835 13.371092
56.840 13.658256
56.845 13.472815
56.850 13.34821
56.855 13.783704
56.860 14.034415
56.865 13.873529
56.870 13.271635
56.875 12.863971
56.880 12.894848
56.885 13.620371
56.890 13.375551
56.895 13.520639
56.900 14.105448
56.905 14.246912
56.910 14.631883
56.915 14.345922
56.920 13.287066
56.925 13.224538
56.930 13.057034
56.935 13.566866
56.940 13.530896
56.945 13.43608
56.950 13.75215
56.955 14.185649
56.960 14.019876
56.965 13.856642
56.970 13.09576
56.975 13.493416
56.980 13.424885
56.985 13.175907
56.990 13.388863
56.995 13.24007
57.000 13.229104
57.005 13.354316
57.010 13.125665
57.015 13.002135
57.020 12.840837
57.025 12.720713
57.030 12.663012
57.035 12.428856
57.040 12.341994
57.045 12.501667
57.050 12.574587
57.055 12.354831
57.060 12.721239
57.065 12.886436
57.070 12.683809
57.075 13.005663
57.080 13.546144
57.085 14.057196
57.090 14.630778
57.095 14.82663
57.100 14.896086
57.105 15.298835
57.110 15.055211
57.115 14.863935
57.120 15.016313
57.125 15.251327
57.130 15.240908
57.135 15.303246
57.140 15.605463
57.145 15.331762
57.150 15.03056
57.155 14.475373
57.160 14.101175
57.165 14.164803
57.170 14.025562
57.175 13.178079
57.180 13.004227
57.185 12.703553
57.190 12.688386
57.195 12.347466
57.200 12.455239
57.205 12.876653
57.210 13.476143
57.215 13.923752
57.220 13.989158
57.225 14.101594
57.230 13.965048
57.235 13.639259
57.240 13.689195
57.245 13.788449
57.250 13.525712
57.255 13.68076
57.260 14.015938
57.265 14.119099
57.270 14.120726
57.275 13.851757
57.280 13.983356
57.285 14.030834
57.290 14.119238
57.295 13.73274
57.300 13.58278
57.305 13.845188
57.310 13.975702
57.315 14.312195
57.320 14.645096
57.325 14.419729
57.330 14.387066
57.335 14.565093
57.340 14.320557
57.345 14.220031
57.350 13.942557
57.355 14.047587
57.360 13.916691
57.365 14.106732
57.370 13.676192
57.375 14.015642
57.380 14.157741
57.385 14.397078
57.390 14.218316
57.395 14.253424
57.400 14.186322
57.405 14.461452
57.410 14.02321
57.415 13.951262
57.420 13.975295
57.425 14.179197
57.430 14.26588
57.435 14.128474
57.440 14.216351
57.445 14.428307
57.450 14.085543
57.455 13.512796
57.460 13.848272
57.465 14.156158
57.470 14.447773
57.475 13.984326
57.480 13.586197
57.485 13.350614
57.490 13.665022
57.495 13.285005
57.500 13.859907
57.505 13.956467
57.510 13.876063
57.515 14.035005
57.520 14.16151
57.525 13.931679
57.530 13.685598
57.535 13.326804
57.540 13.259021
57.545 13.526078
57.550 13.461405
57.555 13.756293
57.560 14.275284
57.565 14.606679
57.570 14.423738
57.575 14.398252
57.580 14.518115
57.585 14.884736
57.590 15.198086
57.595 14.774846
57.600 14.975571
57.605 15.474061
57.610 15.977489
57.615 15.765801
57.620 15.591056
57.625 15.603081
57.630 15.372822
57.635 14.909707
57.640 14.296397
57.645 13.872535
57.650 13.794625
57.655 13.787082
57.660 13.789604
57.665 14.096813
57.670 14.156877
57.675 14.655051
57.680 14.785922
57.685 14.950502
57.690 15.084538
57.695 15.545217
57.700 15.536243
57.705 15.723254
57.710 15.245067
57.715 15.780704
57.720 16.086315
57.725 15.95916
57.730 15.730469
57.735 15.307021
57.740 14.846921
57.745 15.331352
57.750 14.992384
57.755 14.618006
57.760 14.532755
57.765 14.912724
57.770 15.27623
57.775 15.688764
57.780 15.480278
57.785 16.061352
57.790 16.4063
57.795 16.576805
57.800 16.72064
57.805 17.504288
57.810 17.370605
57.815 17.154318
57.820 16.677786
57.825 16.790987
57.830 16.891548
57.835 16.540646
57.840 16.048084
57.845 16.034948
57.850 15.975927
57.855 16.007648
57.860 15.516847
57.865 14.568412
57.870 14.626369
57.875 14.603703
57.880 14.690481
57.885 14.017273
57.890 13.655499
57.895 14.116756
57.900 14.833689
57.905 14.965446
57.910 15.258766
57.915 15.547907
57.920 15.770679
57.925 15.862443
57.930 15.680457
57.935 16.063606
57.940 15.935351
57.945 16.422672
57.950 17.081516
57.955 17.569132
57.960 18.060692
57.965 18.430216
57.970 18.187309
57.975 17.702944
57.980 16.913534
57.985 16.454872
57.990 16.706549
57.995 16.504171
58.000 15.988573
58.005 15.969637
58.010 16.140356
58.015 16.165152
58.020 15.809627
58.025 15.841318
58.030 15.863503
58.035 15.93553
58.040 16.012951
58.045 16.515093
58.050 16.532089
58.055 17.345776
58.060 17.450617
58.065 17.160835
58.070 17.230942
58.075 17.060328
58.080 16.701134
58.085 16.935432
58.090 16.582596
58.095 16.659479
58.100 17.060371
58.105 17.040287
58.110 16.881964
58.115 16.787245
58.120 16.909348
58.125 16.717396
58.130 16.888731
58.135 17.202364
58.140 17.192467
58.145 17.461803
58.150 17.787395
58.155 17.46933
58.160 17.599308
58.165 17.23815
58.170 17.171522
58.175 17.735838
58.180 18.172331
58.185 18.532368
58.190 18.623724
58.195 18.638384
58.200 18.221813
58.205 17.471764
58.210 17.092648
58.215 17.054235
58.220 16.58279
58.225 16.271297
58.230 16.532373
58.235 16.981647
58.240 17.568428
58.245 16.859444
58.250 16.714888
58.255 17.248209
58.260 17.080235
58.265 16.32423
58.270 15.754259
58.275 15.607157
58.280 16.072607
58.285 15.750622
58.290 15.492152
58.295 15.88875
58.300 17.324369
58.305 17.999222
58.310 18.1015
58.315 18.037718
58.320 17.746479
58.325 18.169411
58.330 18.036034
58.335 17.808588
58.340 18.291965
58.345 18.186604
58.350 18.100437
58.355 18.28359
58.360 17.91717
58.365 17.999258
58.370 17.875288
58.375 17.874981
58.380 17.96199
58.385 18.14226
58.390 18.508816
58.395 19.270308
58.400 20.031591
58.405 19.838243
58.410 19.588636
58.415 20.020876
58.420 20.481329
58.425 20.789982
58.430 20.769976
58.435 20.719011
58.440 21.186672
58.445 21.752043
58.450 22.201979
58.455 22.996235
58.460 23.409029
58.465 23.449554
