!@!!GADDS PLOTSO FILE: Chi integration type
!@!!Title/SampleName: map-159
!@!!Comment: ?
!@!!User: Bruker Instrument Administrator
!@!!Site: University of Illinois Chicago
!@!!Frame: map-159_01_000.gfrm
!@!!Wavelengths    1.54184   1.54056   1.54439
!@!!Frame angles: 2Theta: 63.000 Omega: 50.000 Phi: 0.000 Chi: 90.000
!@!!Integration range: 2Theta: 53.000 to 73.000  Gamma: -105.000 to -75.000
!@!!Integration method: bin normalized
!@!N
!@!SS
!@!M
!@!L 0.0 0.0 0.0 0.0
!@!XDegrees
!@!YCounts
53.000 7.55483
53.005 7.189745
53.010 7.009867
53.015 6.939617
53.020 7.059936
53.025 6.967041
53.030 6.667288
53.035 6.941626
53.040 7.02321
53.045 7.004958
53.050 7.218519
53.055 7.080729
53.060 6.905162
53.065 6.942101
53.070 7.095717
53.075 7.44086
53.080 7.350227
53.085 7.039181
53.090 7.456366
53.095 7.485775
53.100 7.328833
53.105 7.192374
53.110 7.007564
53.115 7.293562
53.120 7.115487
53.125 6.836086
53.130 6.844865
53.135 6.891384
53.140 6.968521
53.145 6.70886
53.150 6.594841
53.155 6.69418
53.160 6.509036
53.165 6.611044
53.170 6.874116
53.175 7.271005
53.180 7.706356
53.185 7.616507
53.190 7.717972
53.195 7.905868
53.200 7.880486
53.205 7.394979
53.210 7.152324
53.215 7.024996
53.220 6.924093
53.225 7.251787
53.230 7.716054
53.235 7.482259
53.240 7.4426
53.245 7.381779
53.250 7.331011
53.255 7.66362
53.260 7.367593
53.265 6.958827
53.270 7.261521
53.275 7.446525
53.280 7.252481
53.285 7.044072
53.290 6.695722
53.295 7.004563
53.300 7.260327
53.305 6.978953
53.310 6.786599
53.315 6.906242
53.320 7.161507
53.325 7.116874
53.330 7.041059
53.335 7.126031
53.340 7.546541
53.345 7.618083
53.350 7.61546
53.355 7.784237
53.360 7.818797
53.365 7.424072
53.370 7.424457
53.375 6.989211
53.380 6.934011
53.385 6.938945
53.390 6.8172
53.395 6.838242
53.400 6.717943
53.405 6.765912
53.410 7.250222
53.415 7.356839
53.420 7.19115
53.425 7.272885
53.430 7.466847
53.435 7.798608
53.440 7.827484
53.445 7.554604
53.450 7.189967
53.455 6.946311
53.460 6.637818
53.465 6.591031
53.470 6.250616
53.475 5.995368
53.480 6.285876
53.485 6.682943
53.490 7.034802
53.495 7.215616
53.500 7.395196
53.505 7.877112
53.510 8.240343
53.515 8.182474
53.520 8.478021
53.525 8.80004
53.530 8.758576
53.535 8.608364
53.540 8.167457
53.545 7.886003
53.550 7.812308
53.555 7.591953
53.560 6.970792
53.565 6.83982
53.570 7.148983
53.575 7.274917
53.580 7.605947
53.585 7.378973
53.590 7.506558
53.595 7.931856
53.600 7.831876
53.605 7.832719
53.610 7.917351
53.615 8.115063
53.620 8.503819
53.625 8.872746
53.630 8.996329
53.635 9.132934
53.640 8.902318
53.645 8.927233
53.650 8.624452
53.655 8.274745
53.660 8.020669
53.665 7.905627
53.670 8.001956
53.675 7.936076
53.680 7.865546
53.685 8.15607
53.690 8.331032
53.695 7.919257
53.700 7.730217
53.705 7.546744
53.710 7.630584
53.715 7.753673
53.720 7.313858
53.725 7.306861
53.730 7.846817
53.735 8.287466
53.740 8.623034
53.745 8.5514
53.750 8.837852
53.755 8.609673
53.760 8.163782
53.765 7.968185
53.770 8.098722
53.775 8.105928
53.780 8.197765
53.785 7.991749
53.790 8.374542
53.795 8.657771
53.800 8.408102
53.805 8.429893
53.810 8.165268
53.815 7.927794
53.820 7.991367
53.825 8.144781
53.830 7.840017
53.835 7.77143
53.840 7.427225
53.845 7.467694
53.850 7.563607
53.855 7.452359
53.860 7.160084
53.865 7.340542
53.870 7.14145
53.875 7.309306
53.880 7.534518
53.885 7.741506
53.890 7.786066
53.895 7.978015
53.900 8.002533
53.905 8.360943
53.910 8.203477
53.915 7.816007
53.920 7.850003
53.925 7.732029
53.930 7.937396
53.935 7.873202
53.940 7.571176
53.945 7.522248
53.950 7.561708
53.955 7.892673
53.960 7.715371
53.965 7.521315
53.970 7.667301
53.975 7.847571
53.980 7.824034
53.985 7.74254
53.990 7.21529
53.995 7.187675
54.000 7.365083
54.005 7.001417
54.010 6.939659
54.015 7.064711
54.020 7.267639
54.025 7.720963
54.030 7.922055
54.035 8.114171
54.040 8.342928
54.045 8.395426
54.050 8.005384
54.055 7.709808
54.060 7.628776
54.065 7.65104
54.070 7.62732
54.075 7.62226
54.080 8.107985
54.085 8.765363
54.090 9.215452
54.095 8.973085
54.100 8.922521
54.105 8.566412
54.110 8.437047
54.115 8.044069
54.120 7.826811
54.125 7.573501
54.130 7.542901
54.135 7.398407
54.140 7.682879
54.145 7.976652
54.150 7.793513
54.155 7.325949
54.160 7.172571
54.165 6.993412
54.170 6.884773
54.175 6.599607
54.180 6.361793
54.185 6.167876
54.190 6.990678
54.195 7.33253
54.200 7.620676
54.205 7.702568
54.210 7.583922
54.215 7.761987
54.220 8.009923
54.225 7.578263
54.230 7.751266
54.235 7.662992
54.240 7.880793
54.245 8.179828
54.250 8.219872
54.255 8.258268
54.260 8.268883
54.265 8.057528
54.270 8.101606
54.275 8.201066
54.280 8.362844
54.285 8.401845
54.290 8.612794
54.295 9.010948
54.300 9.383135
54.305 9.797462
54.310 10.014113
54.315 9.956535
54.320 9.928325
54.325 9.536385
54.330 8.972952
54.335 8.803942
54.340 8.277683
54.345 7.747778
54.350 7.491278
54.355 7.394724
54.360 7.267156
54.365 7.100339
54.370 7.261223
54.375 7.455206
54.380 7.643771
54.385 7.594167
54.390 7.746464
54.395 7.707745
54.400 7.58497
54.405 7.1547
54.410 7.091085
54.415 7.162361
54.420 7.193932
54.425 7.414728
54.430 7.418003
54.435 7.734141
54.440 7.858495
54.445 7.477271
54.450 7.37602
54.455 7.172253
54.460 6.977125
54.465 7.232117
54.470 7.260105
54.475 7.692878
54.480 8.574983
54.485 8.677294
54.490 9.068734
54.495 9.303008
54.500 9.190405
54.505 8.774629
54.510 8.191517
54.515 7.766098
54.520 7.667481
54.525 7.545725
54.530 7.446731
54.535 7.024681
54.540 7.361603
54.545 7.658698
54.550 7.680536
54.555 7.6624
54.560 7.731263
54.565 7.736656
54.570 7.969509
54.575 7.814575
54.580 8.167885
54.585 8.618324
54.590 8.653326
54.595 8.270379
54.600 8.438136
54.605 8.418352
54.610 8.35684
54.615 7.712636
54.620 7.151779
54.625 6.981713
54.630 7.577776
54.635 7.61201
54.640 7.511688
54.645 7.601105
54.650 7.808044
54.655 7.948527
54.660 8.260636
54.665 8.019469
54.670 8.124859
54.675 8.124547
54.680 8.477687
54.685 8.886569
54.690 8.81471
54.695 8.578245
54.700 8.713662
54.705 8.841086
54.710 8.835958
54.715 8.63776
54.720 8.151217
54.725 8.191788
54.730 8.457708
54.735 8.265513
54.740 8.671251
54.745 8.65292
54.750 8.785295
54.755 9.548591
54.760 9.512305
54.765 9.119113
54.770 8.925529
54.775 8.30575
54.780 8.108727
54.785 7.747793
54.790 7.342334
54.795 6.794545
54.800 6.966405
54.805 7.252827
54.810 7.598966
54.815 8.03905
54.820 8.076468
54.825 8.31141
54.830 8.644045
54.835 8.622218
54.840 8.696267
54.845 8.494102
54.850 8.171974
54.855 8.557052
54.860 8.694894
54.865 8.752725
54.870 8.624229
54.875 8.700613
54.880 9.256884
54.885 9.22304
54.890 8.661552
54.895 8.508887
54.900 8.115788
54.905 8.042316
54.910 8.109404
54.915 7.709793
54.920 7.702484
54.925 7.871219
54.930 8.074384
54.935 8.423856
54.940 8.589379
54.945 8.762006
54.950 8.961148
54.955 9.149334
54.960 9.497458
54.965 9.642004
54.970 9.855356
54.975 9.411242
54.980 9.403288
54.985 9.521056
54.990 9.81677
54.995 9.950188
55.000 9.802917
55.005 9.943522
55.010 10.036002
55.015 9.895573
55.020 9.691148
55.025 9.202208
55.030 8.795449
55.035 8.597538
55.040 8.409445
55.045 8.251645
55.050 8.365924
55.055 8.359302
55.060 8.694061
55.065 9.012537
55.070 9.121589
55.075 9.031896
55.080 9.198182
55.085 8.817381
55.090 8.779464
55.095 8.538944
55.100 8.453207
55.105 8.545558
55.110 8.465854
55.115 8.594822
55.120 9.133446
55.125 9.257397
55.130 9.45794
55.135 9.638288
55.140 9.789904
55.145 9.857158
55.150 9.771576
55.155 9.049597
55.160 9.012309
55.165 8.493287
55.170 7.928941
55.175 7.859579
55.180 7.798512
55.185 7.714578
55.190 8.019448
55.195 7.843606
55.200 8.182834
55.205 8.654897
55.210 8.855054
55.215 8.639127
55.220 8.480605
55.225 8.317007
55.230 8.254923
55.235 8.149154
55.240 8.313302
55.245 8.467707
55.250 8.630834
55.255 8.392816
55.260 8.444564
55.265 8.84985
55.270 8.658111
55.275 8.471911
55.280 8.425485
55.285 8.424718
55.290 8.718874
55.295 9.104152
55.300 8.759089
55.305 8.398642
55.310 8.121386
55.315 7.951502
55.320 7.869317
55.325 7.606061
55.330 6.90059
55.335 6.791049
55.340 7.024791
55.345 7.052534
55.350 7.27012
55.355 7.698116
55.360 7.874958
55.365 8.154905
55.370 8.304938
55.375 8.438313
55.380 8.402519
55.385 8.298583
55.390 8.077037
55.395 7.85886
55.400 8.324447
55.405 8.476198
55.410 8.442251
55.415 8.395586
55.420 8.149154
55.425 8.023398
55.430 7.808568
55.435 7.147662
55.440 7.150711
55.445 7.001973
55.450 7.132707
55.455 7.556496
55.460 7.859683
55.465 7.983507
55.470 8.028709
55.475 7.607872
55.480 7.721864
55.485 7.798777
55.490 8.146729
55.495 8.493721
55.500 8.587481
55.505 8.791028
55.510 8.90101
55.515 9.068953
55.520 8.880475
55.525 8.240315
55.530 8.25386
55.535 8.581648
55.540 8.326773
55.545 8.187814
55.550 7.834564
55.555 7.627359
55.560 7.636126
55.565 7.467547
55.570 6.952169
55.575 6.825744
55.580 6.803362
55.585 7.247223
55.590 7.327281
55.595 7.279748
55.600 7.346231
55.605 7.599611
55.610 7.843977
55.615 7.391705
55.620 6.673451
55.625 6.452202
55.630 6.424195
55.635 6.967236
55.640 7.668624
55.645 7.800204
55.650 8.549685
55.655 8.960922
55.660 8.896361
55.665 8.468074
55.670 7.738637
55.675 7.63986
55.680 7.956371
55.685 8.059389
55.690 8.121397
55.695 8.445705
55.700 8.762286
55.705 8.814305
55.710 8.615443
55.715 8.680735
55.720 8.701638
55.725 8.859759
55.730 8.845034
55.735 9.025092
55.740 9.082756
55.745 8.635645
55.750 8.452574
55.755 8.263137
55.760 8.469357
55.765 8.482199
55.770 8.009491
55.775 8.041549
55.780 8.134698
55.785 8.20092
55.790 8.084004
55.795 8.116205
55.800 8.149719
55.805 8.145045
55.810 8.292626
55.815 8.488189
55.820 8.380006
55.825 8.282499
55.830 7.846961
55.835 8.024998
55.840 8.162735
55.845 8.451203
55.850 8.640926
55.855 8.663651
55.860 8.888358
55.865 9.133478
55.870 8.872919
55.875 8.800797
55.880 8.134495
55.885 7.771054
55.890 7.627327
55.895 7.679399
55.900 7.561657
55.905 8.120367
55.910 8.74192
55.915 8.983566
55.920 9.526275
55.925 9.712939
55.930 9.66094
55.935 9.693061
55.940 9.307306
55.945 9.06282
55.950 9.28566
55.955 8.722049
55.960 8.454002
55.965 7.997623
55.970 7.906193
55.975 8.224862
55.980 8.111491
55.985 7.888162
55.990 7.948539
55.995 8.063096
56.000 8.376236
56.005 8.099913
56.010 7.678335
56.015 7.101613
56.020 6.693774
56.025 6.570084
56.030 6.340909
56.035 6.25718
56.040 6.745145
56.045 6.767839
56.050 7.238914
56.055 8.053188
56.060 7.949056
56.065 8.198355
56.070 7.969557
56.075 7.6846
56.080 8.074228
56.085 7.980632
56.090 7.638522
56.095 7.51045
56.100 7.4895
56.105 7.806988
56.110 7.804577
56.115 7.623016
56.120 7.58204
56.125 7.663319
56.130 7.871531
56.135 8.092271
56.140 7.816385
56.145 7.836413
56.150 8.163253
56.155 8.183521
56.160 8.093668
56.165 8.411947
56.170 8.587112
56.175 8.620059
56.180 8.510304
56.185 8.437032
56.190 8.559888
56.195 8.635308
56.200 8.64536
56.205 8.420362
56.210 8.704551
56.215 8.315014
56.220 7.854007
56.225 7.952821
56.230 8.152754
56.235 8.447614
56.240 8.802962
56.245 8.785203
56.250 8.685365
56.255 8.507288
56.260 8.830489
56.265 8.81385
56.270 8.450534
56.275 8.560469
56.280 8.698418
56.285 9.145827
56.290 9.782511
56.295 9.778539
56.300 9.562708
56.305 9.641722
56.310 9.383136
56.315 9.10898
56.320 8.998079
56.325 8.427845
56.330 8.505154
56.335 8.480259
56.340 8.490413
56.345 8.581228
56.350 8.899835
56.355 9.07787
56.360 8.965151
56.365 8.72298
56.370 8.27925
56.375 8.441222
56.380 8.576323
56.385 8.782722
56.390 8.976332
56.395 9.142777
56.400 9.609812
56.405 9.805046
56.410 9.704473
56.415 9.472417
56.420 9.597627
56.425 9.590482
56.430 10.038851
56.435 10.549299
56.440 10.424339
56.445 10.377731
56.450 10.347301
56.455 10.468648
56.460 10.23864
56.465 9.85659
56.470 9.225999
56.475 9.223239
56.480 9.13375
56.485 9.416618
56.490 9.543966
56.495 10.198465
56.500 10.374298
56.505 10.490801
56.510 10.433638
56.515 10.332271
56.520 9.927511
56.525 9.630695
56.530 8.801444
56.535 8.564202
56.540 8.437888
56.545 8.530331
56.550 8.381412
56.555 8.607136
56.560 8.535528
56.565 8.83928
56.570 8.821443
56.575 8.962604
56.580 9.232557
56.585 9.494102
56.590 9.83268
56.595 9.743787
56.600 9.667066
56.605 9.738598
56.610 9.606988
56.615 9.540086
56.620 9.174673
56.625 8.927282
56.630 9.016829
56.635 9.454418
56.640 9.724353
56.645 9.806872
56.650 9.656264
56.655 10.189688
56.660 9.945195
56.665 9.980921
56.670 9.497875
56.675 9.117654
56.680 9.525313
56.685 9.543151
56.690 9.406409
56.695 9.818473
56.700 9.907855
56.705 10.142165
56.710 10.060462
56.715 9.566097
56.720 9.930479
56.725 9.787645
56.730 9.389905
56.735 9.37589
56.740 9.411772
56.745 9.761274
56.750 10.027681
56.755 9.89703
56.760 9.808254
56.765 9.661069
56.770 9.811184
56.775 9.491447
56.780 9.400267
56.785 9.002739
56.790 8.681816
56.795 8.992439
56.800 8.980696
56.805 8.866292
56.810 9.060114
56.815 9.002161
56.820 9.165199
56.825 9.107608
56.830 8.61212
56.835 8.254967
56.840 7.90728
56.845 7.524961
56.850 7.585467
56.855 7.608992
56.860 7.601341
56.865 8.408213
56.870 8.578105
56.875 8.804632
56.880 9.042071
56.885 8.769936
56.890 8.685252
56.895 8.804811
56.900 8.21823
56.905 8.267183
56.910 8.199851
56.915 8.308771
56.920 8.178717
56.925 7.779449
56.930 7.703821
56.935 7.810405
56.940 7.886655
56.945 7.675868
56.950 7.492409
56.955 7.648282
56.960 7.738461
56.965 7.863731
56.970 7.702278
56.975 7.45693
56.980 7.525216
56.985 7.790019
56.990 8.063095
56.995 8.061888
57.000 7.933249
57.005 8.099981
57.010 8.352956
57.015 8.383534
57.020 8.434575
57.025 8.240938
57.030 8.222322
57.035 8.091922
57.040 8.186439
57.045 8.389261
57.050 8.424772
57.055 8.092324
57.060 8.103559
57.065 8.268131
57.070 8.279447
57.075 8.28688
57.080 8.432634
57.085 8.413878
57.090 8.667954
57.095 8.92278
57.100 8.641462
57.105 8.690539
57.110 8.510627
57.115 8.004904
57.120 7.60494
57.125 7.296578
57.130 7.146912
57.135 6.985751
57.140 6.660011
57.145 6.520044
57.150 6.728661
57.155 7.197779
57.160 7.219473
57.165 7.061819
57.170 7.066072
57.175 7.26505
57.180 7.399887
57.185 7.434117
57.190 7.291971
57.195 7.502717
57.200 7.93183
57.205 8.495547
57.210 8.503631
57.215 8.918251
57.220 8.930927
57.225 9.265271
57.230 9.070045
57.235 9.068039
57.240 8.811007
57.245 8.931741
57.250 8.792903
57.255 8.531569
57.260 8.628421
57.265 8.578322
57.270 8.773117
57.275 8.612528
57.280 8.495563
57.285 8.517216
57.290 8.675735
57.295 8.697305
57.300 8.878795
57.305 8.92251
57.310 8.538936
57.315 8.08836
57.320 8.07319
57.325 8.35395
57.330 8.340359
57.335 8.450032
57.340 8.469674
57.345 8.743132
57.350 9.242297
57.355 8.73176
57.360 8.313919
57.365 7.910755
57.370 7.378489
57.375 7.132134
57.380 7.348004
57.385 7.050354
57.390 6.941398
57.395 6.681211
57.400 6.89485
57.405 7.511162
57.410 8.043662
57.415 8.301146
57.420 8.616874
57.425 9.309089
57.430 9.569002
57.435 9.55975
57.440 9.428418
57.445 9.316402
57.450 9.039683
57.455 8.473225
57.460 8.445638
57.465 8.531969
57.470 8.349312
57.475 7.970587
57.480 7.714501
57.485 8.043166
57.490 8.474115
57.495 8.199759
57.500 8.240457
57.505 8.398775
57.510 8.340019
57.515 8.09808
57.520 7.84861
57.525 7.690878
57.530 7.467247
57.535 7.427619
57.540 7.249881
57.545 7.627027
57.550 8.019808
57.555 8.897243
57.560 9.523102
57.565 10.090745
57.570 10.168819
57.575 10.410898
57.580 10.592322
57.585 10.327605
57.590 9.282592
57.595 9.245633
57.600 9.198277
57.605 8.887404
57.610 8.584834
57.615 8.55639
57.620 8.429898
57.625 8.619648
57.630 8.488034
57.635 8.328657
57.640 8.367759
57.645 8.613948
57.650 8.830696
57.655 9.122878
57.660 8.888384
57.665 8.398264
57.670 8.37075
57.675 8.22994
57.680 7.767384
57.685 7.269387
57.690 6.905532
57.695 7.237827
57.700 7.515975
57.705 7.851532
57.710 7.974299
57.715 8.003062
57.720 8.361488
57.725 8.836824
57.730 8.700247
57.735 8.732846
57.740 8.557446
57.745 8.611908
57.750 8.63951
57.755 8.468665
57.760 8.194282
57.765 8.240734
57.770 8.261487
57.775 8.235229
57.780 8.180434
57.785 8.143692
57.790 8.159731
57.795 8.244403
57.800 8.354664
57.805 8.223428
57.810 8.201229
57.815 8.654887
57.820 8.885593
57.825 8.865411
57.830 8.870175
57.835 8.710866
57.840 9.144315
57.845 9.093449
57.850 8.661836
57.855 8.345163
57.860 8.311159
57.865 7.983864
57.870 7.765769
57.875 7.358657
57.880 7.238402
57.885 7.415781
57.890 7.22583
57.895 7.219746
57.900 7.445358
57.905 7.326248
57.910 7.222416
57.915 7.204089
57.920 7.343183
57.925 7.615536
57.930 7.470856
57.935 7.71851
57.940 7.800672
57.945 7.901894
57.950 8.124005
57.955 7.795666
57.960 7.878086
57.965 8.190845
57.970 7.929274
57.975 7.927405
57.980 8.027681
57.985 7.988266
57.990 8.184703
57.995 8.101245
58.000 7.862493
58.005 7.675931
58.010 8.06508
58.015 8.212956
58.020 8.429186
58.025 8.706055
58.030 8.605175
58.035 8.87902
58.040 9.288157
58.045 9.123751
58.050 8.946145
58.055 8.93996
58.060 8.803813
58.065 9.239228
58.070 9.076515
58.075 8.749289
58.080 8.753634
58.085 8.439206
58.090 7.873929
58.095 7.603246
58.100 7.546514
58.105 7.9156
58.110 8.323798
58.115 8.388313
58.120 8.994874
58.125 9.83837
58.130 10.119098
58.135 10.460944
58.140 10.182565
58.145 9.786326
58.150 9.868811
58.155 9.803701
58.160 9.498747
58.165 9.2572
58.170 8.866329
58.175 9.132813
58.180 9.200973
58.185 9.320383
58.190 8.983574
58.195 8.56625
58.200 8.598433
58.205 8.704642
58.210 8.715226
58.215 8.785425
58.220 8.527726
58.225 8.207613
58.230 8.047353
58.235 7.578226
58.240 7.063963
58.245 6.990403
58.250 6.849364
58.255 6.885258
58.260 7.361344
58.265 8.174166
58.270 8.817243
58.275 8.957415
58.280 8.982884
58.285 8.944779
58.290 8.881801
58.295 8.763715
58.300 8.173886
58.305 7.988697
58.310 8.210778
58.315 8.103447
58.320 8.351197
58.325 8.592271
58.330 8.755507
58.335 9.029427
58.340 9.028802
58.345 9.086986
58.350 9.261909
58.355 9.373637
58.360 9.572604
58.365 9.535032
58.370 9.543918
58.375 9.509299
58.380 8.985937
58.385 8.395388
58.390 8.112945
58.395 8.277503
58.400 8.114302
58.405 7.971882
58.410 8.023155
58.415 8.331096
58.420 8.696119
58.425 8.987884
58.430 9.071179
58.435 9.242947
58.440 9.309829
58.445 9.409189
58.450 9.974616
58.455 10.022856
58.460 9.942271
58.465 9.697977
58.470 9.804691
58.475 9.76289
58.480 9.613914
58.485 9.649461
58.490 9.828636
58.495 9.749259
58.500 10.002805
58.505 10.152325
58.510 9.995232
58.515 9.719558
58.520 9.425641
58.525 9.524087
58.530 9.703452
58.535 9.630795
58.540 9.788165
58.545 10.395638
58.550 10.4734
58.555 10.241908
58.560 9.996175
58.565 9.7209
58.570 9.583029
58.575 9.26336
58.580 9.218449
58.585 9.418435
58.590 9.31873
58.595 8.779103
58.600 8.765625
58.605 8.659968
58.610 8.764977
58.615 9.036434
58.620 9.331133
58.625 9.959816
58.630 10.521017
58.635 10.438528
58.640 10.30474
58.645 10.365156
58.650 10.099633
58.655 9.781879
58.660 9.57785
58.665 9.793425
58.670 9.979996
58.675 9.615535
58.680 9.092838
58.685 9.091962
58.690 9.450795
58.695 9.626683
58.700 9.237611
58.705 9.103419
58.710 9.609788
58.715 9.925358
58.720 10.161454
58.725 9.671259
58.730 9.189548
58.735 9.262748
58.740 9.384788
58.745 9.479158
58.750 9.290956
