!@!!GADDS PLOTSO FILE: Chi integration type
!@!!Title/SampleName: map-123
!@!!Comment: ?
!@!!User: Bruker Instrument Administrator
!@!!Site: University of Illinois Chicago
!@!!Frame: map-123_01_000.gfrm
!@!!Wavelengths    1.54184   1.54056   1.54439
!@!!Frame angles: 2Theta: 63.000 Omega: 50.000 Phi: 0.000 Chi: 90.000
!@!!Integration range: 2Theta: 53.000 to 73.000  Gamma: -105.000 to -75.000
!@!!Integration method: bin normalized
!@!N
!@!SS
!@!M
!@!L 0.0 0.0 0.0 0.0
!@!XDegrees
!@!YCounts
53.000 4.894486
53.005 5.036344
53.010 4.961288
53.015 4.886245
53.020 4.850434
53.025 4.8788
53.030 5.013643
53.035 5.169794
53.040 5.343808
53.045 5.216722
53.050 5.058841
53.055 5.084866
53.060 5.37391
53.065 5.272775
53.070 4.749967
53.075 4.801036
53.080 5.530761
53.085 5.895132
53.090 5.827951
53.095 5.725629
53.100 5.842178
53.105 5.826902
53.110 5.485137
53.115 5.147604
53.120 5.487723
53.125 5.505437
53.130 5.543974
53.135 5.558854
53.140 5.503205
53.145 5.223667
53.150 4.816486
53.155 4.73178
53.160 4.817387
53.165 4.491536
53.170 4.718584
53.175 5.093666
53.180 5.297736
53.185 5.127245
53.190 4.642823
53.195 4.830231
53.200 4.940955
53.205 4.59026
53.210 4.613598
53.215 4.754041
53.220 5.10736
53.225 5.081508
53.230 4.972006
53.235 5.199275
53.240 5.275463
53.245 5.143424
53.250 5.365512
53.255 5.17219
53.260 5.304817
53.265 5.231825
53.270 5.313356
53.275 5.511916
53.280 5.303188
53.285 4.775363
53.290 4.819713
53.295 4.779134
53.300 4.789384
53.305 4.337409
53.310 3.910973
53.315 4.059499
53.320 4.275803
53.325 4.475413
53.330 4.541389
53.335 4.51516
53.340 4.57612
53.345 4.958388
53.350 4.938591
53.355 4.72733
53.360 4.510928
53.365 4.353969
53.370 4.224266
53.375 4.254268
53.380 4.16812
53.385 4.432551
53.390 4.506087
53.395 4.281999
53.400 4.19606
53.405 4.354249
53.410 4.568648
53.415 4.329771
53.420 4.211798
53.425 4.416149
53.430 4.578104
53.435 4.682772
53.440 4.637559
53.445 4.16261
53.450 4.162453
53.455 3.938426
53.460 3.958569
53.465 4.13374
53.470 4.172965
53.475 4.569365
53.480 4.827398
53.485 4.982754
53.490 5.14034
53.495 5.350003
53.500 5.640731
53.505 5.442419
53.510 5.311514
53.515 5.381185
53.520 5.139514
53.525 5.211703
53.530 4.659032
53.535 4.452276
53.540 4.526814
53.545 4.269136
53.550 4.531412
53.555 4.555392
53.560 4.480542
53.565 4.774111
53.570 4.747321
53.575 4.967886
53.580 5.056787
53.585 4.975589
53.590 5.222102
53.595 5.649256
53.600 5.734709
53.605 5.729361
53.610 5.540071
53.615 5.672043
53.620 5.550639
53.625 5.116229
53.630 4.825305
53.635 4.387765
53.640 4.26125
53.645 4.2019
53.650 4.274767
53.655 4.286288
53.660 4.366774
53.665 4.688074
53.670 4.957475
53.675 5.087795
53.680 5.102257
53.685 5.224075
53.690 5.542645
53.695 5.334558
53.700 5.145206
53.705 5.332261
53.710 5.411301
53.715 5.476348
53.720 5.226985
53.725 5.278738
53.730 5.347002
53.735 5.46171
53.740 5.500688
53.745 5.325809
53.750 5.234173
53.755 5.012535
53.760 5.074984
53.765 5.103515
53.770 5.282625
53.775 5.120925
53.780 5.095596
53.785 5.246346
53.790 5.576995
53.795 5.3178
53.800 4.978832
53.805 4.672588
53.810 4.730423
53.815 4.955488
53.820 4.734501
53.825 4.537912
53.830 4.485819
53.835 4.689664
53.840 4.723459
53.845 4.704908
53.850 4.606563
53.855 4.973425
53.860 5.475143
53.865 5.877834
53.870 6.045076
53.875 5.998685
53.880 6.085504
53.885 6.352476
53.890 5.916185
53.895 5.412063
53.900 5.172544
53.905 4.779956
53.910 4.789613
53.915 4.421565
53.920 4.047626
53.925 3.920111
53.930 4.036434
53.935 3.963135
53.940 4.175068
53.945 4.423897
53.950 4.545353
53.955 4.706306
53.960 4.882772
53.965 4.71028
53.970 4.76295
53.975 4.76925
53.980 4.605344
53.985 4.419922
53.990 4.356833
53.995 4.487415
54.000 4.662702
54.005 4.540365
54.010 4.619932
54.015 4.567054
54.020 4.909806
54.025 4.800109
54.030 4.94621
54.035 5.010087
54.040 4.820705
54.045 4.734654
54.050 5.121296
54.055 5.202271
54.060 5.299945
54.065 5.14192
54.070 5.40069
54.075 5.659643
54.080 6.102125
54.085 5.894605
54.090 5.935069
54.095 5.724478
54.100 5.614336
54.105 5.595158
54.110 5.828449
54.115 5.478605
54.120 5.449272
54.125 5.298022
54.130 5.083568
54.135 5.172866
54.140 5.015177
54.145 4.84095
54.150 4.453079
54.155 4.34367
54.160 4.477584
54.165 4.896789
54.170 4.641668
54.175 4.556192
54.180 4.607057
54.185 4.641168
54.190 4.438814
54.195 4.499824
54.200 4.582095
54.205 4.625765
54.210 4.469765
54.215 4.585628
54.220 4.798202
54.225 4.933582
54.230 4.745237
54.235 4.702151
54.240 4.733516
54.245 4.632479
54.250 4.622079
54.255 4.586034
54.260 4.622917
54.265 4.443839
54.270 4.492954
54.275 4.623703
54.280 4.756777
54.285 4.930192
54.290 4.828675
54.295 4.665651
54.300 4.914775
54.305 5.069399
54.310 5.261845
54.315 5.102408
54.320 4.854136
54.325 5.200874
54.330 5.494596
54.335 5.453947
54.340 5.40613
54.345 5.184988
54.350 5.685109
54.355 5.913706
54.360 5.567247
54.365 5.526224
54.370 5.64038
54.375 5.372542
54.380 5.404835
54.385 4.977408
54.390 4.910652
54.395 4.946071
54.400 4.491331
54.405 4.299753
54.410 4.645298
54.415 4.850929
54.420 5.179988
54.425 5.269949
54.430 5.569653
54.435 6.072478
54.440 6.013319
54.445 5.647112
54.450 5.533556
54.455 5.470019
54.460 5.792844
54.465 5.916913
54.470 6.099321
54.475 6.544642
54.480 6.545624
54.485 6.163707
54.490 6.237159
54.495 6.208557
54.500 6.046658
54.505 5.488389
54.510 5.184409
54.515 5.428185
54.520 5.527057
54.525 5.583711
54.530 5.594158
54.535 5.557619
54.540 5.808346
54.545 5.893274
54.550 5.917444
54.555 5.800337
54.560 5.440824
54.565 5.055205
54.570 5.054107
54.575 5.180296
54.580 4.961778
54.585 5.066781
54.590 5.055114
54.595 5.331804
54.600 5.573648
54.605 5.578682
54.610 5.441739
54.615 5.996347
54.620 6.376926
54.625 6.193246
54.630 5.84137
54.635 5.539091
54.640 5.20785
54.645 5.150596
54.650 4.753569
54.655 4.337065
54.660 4.441225
54.665 4.61882
54.670 5.004459
54.675 5.146805
54.680 4.796064
54.685 4.504727
54.690 4.402048
54.695 4.552647
54.700 4.46841
54.705 4.648335
54.710 4.832353
54.715 5.168217
54.720 5.319909
54.725 5.38951
54.730 5.292966
54.735 5.358378
54.740 5.206727
54.745 5.277648
54.750 5.227597
54.755 4.992685
54.760 5.361332
54.765 5.948573
54.770 5.849376
54.775 5.433105
54.780 5.57527
54.785 5.94304
54.790 6.305
54.795 6.139961
54.800 5.594021
54.805 5.671157
54.810 6.041585
54.815 5.553807
54.820 5.504147
54.825 5.580088
54.830 5.255976
54.835 5.413108
54.840 5.286344
54.845 5.613156
54.850 5.658404
54.855 5.322138
54.860 4.844953
54.865 4.913612
54.870 4.767509
54.875 4.781844
54.880 5.11796
54.885 5.438744
54.890 5.683608
54.895 6.155088
54.900 6.336868
54.905 6.371881
54.910 6.081735
54.915 5.190998
54.920 5.218735
54.925 5.120503
54.930 4.486678
54.935 4.223637
54.940 4.308056
54.945 4.90241
54.950 5.605288
54.955 5.553062
54.960 5.699631
54.965 6.169239
54.970 6.49474
54.975 6.452869
54.980 5.830791
54.985 5.235096
54.990 4.863206
54.995 4.782875
55.000 4.515914
55.005 4.634212
55.010 4.982174
55.015 4.767508
55.020 4.932339
55.025 5.219607
55.030 5.361195
55.035 5.505528
55.040 4.89468
55.045 4.895996
55.050 5.246781
55.055 5.321869
55.060 5.453897
55.065 5.432056
55.070 5.401692
55.075 5.616327
55.080 5.569969
55.085 5.66785
55.090 5.748677
55.095 5.742881
55.100 5.855991
55.105 6.202166
55.110 6.039491
55.115 5.92163
55.120 5.673192
55.125 5.052763
55.130 4.659847
55.135 4.169097
55.140 3.976428
55.145 3.947761
55.150 4.101013
55.155 4.241934
55.160 4.85085
55.165 5.22402
55.170 5.364773
55.175 5.257804
55.180 5.448983
55.185 5.614274
55.190 5.614384
55.195 5.478218
55.200 5.559066
55.205 5.732705
55.210 5.809589
55.215 5.69869
55.220 5.73149
55.225 5.536261
55.230 5.941291
55.235 6.299382
55.240 6.168956
55.245 6.142261
55.250 6.025228
55.255 5.497865
55.260 5.242002
55.265 4.774374
55.270 4.328993
55.275 4.612427
55.280 4.55832
55.285 4.727813
55.290 5.253426
55.295 5.497388
55.300 5.338383
55.305 5.619099
55.310 5.334353
55.315 5.214264
55.320 5.180507
55.325 5.06377
55.330 4.839015
55.335 5.071386
55.340 4.953481
55.345 4.969636
55.350 5.093983
55.355 4.950143
55.360 5.128028
55.365 5.765221
55.370 5.686934
55.375 5.433812
55.380 5.720653
55.385 5.84874
55.390 6.416891
55.395 6.531437
55.400 6.126227
55.405 6.135359
55.410 6.105068
55.415 5.933904
55.420 5.782135
55.425 5.300826
55.430 5.16815
55.435 4.89837
55.440 5.145631
55.445 5.489285
55.450 5.547849
55.455 5.604554
55.460 5.367046
55.465 5.729352
55.470 5.639417
55.475 5.379261
55.480 4.982817
55.485 4.568428
55.490 4.515629
55.495 4.694517
55.500 4.710815
55.505 4.841938
55.510 4.771245
55.515 4.960444
55.520 5.212223
55.525 5.272072
55.530 5.329337
55.535 5.646518
55.540 5.72426
55.545 5.762951
55.550 5.998412
55.555 5.939238
55.560 5.877941
55.565 5.781434
55.570 5.877896
55.575 6.132338
55.580 6.202548
55.585 5.956058
55.590 5.909129
55.595 6.174342
55.600 5.97987
55.605 5.326245
55.610 4.898924
55.615 5.087761
55.620 5.287652
55.625 5.594985
55.630 5.487866
55.635 5.417613
55.640 5.424968
55.645 5.570541
55.650 5.621649
55.655 5.548172
55.660 5.165729
55.665 4.610382
55.670 4.688108
55.675 4.7052
55.680 4.723297
55.685 4.993434
55.690 5.222028
55.695 5.412319
55.700 5.938016
55.705 6.175586
55.710 6.073007
55.715 5.94589
55.720 5.771079
55.725 5.717363
55.730 5.96568
55.735 5.812587
55.740 5.54414
55.745 5.68167
55.750 5.554135
55.755 5.177961
55.760 4.986098
55.765 4.706481
55.770 4.508522
55.775 4.820627
55.780 4.936591
55.785 4.774683
55.790 4.924915
55.795 4.609541
55.800 4.500014
55.805 4.312059
55.810 3.969463
55.815 3.980623
55.820 4.222035
55.825 4.549671
55.830 5.071045
55.835 5.68477
55.840 6.222987
55.845 6.617468
55.850 6.888348
55.855 6.725227
55.860 6.903834
55.865 6.611826
55.870 6.085106
55.875 6.091038
55.880 5.957656
55.885 6.001216
55.890 5.946612
55.895 5.864192
55.900 5.97985
55.905 5.866992
55.910 5.506685
55.915 5.518878
55.920 5.302365
55.925 5.184654
55.930 5.273758
55.935 5.613433
55.940 6.005765
55.945 6.012547
55.950 5.713281
55.955 5.808188
55.960 6.062021
55.965 5.928038
55.970 5.80965
55.975 5.695779
55.980 5.754083
55.985 6.079596
55.990 6.122369
55.995 5.712549
56.000 5.779263
56.005 5.584706
56.010 5.785572
56.015 5.7678
56.020 5.696958
56.025 5.873893
56.030 6.146109
56.035 5.993879
56.040 6.298877
56.045 6.470083
56.050 6.800272
56.055 6.867776
56.060 6.40821
56.065 5.79961
56.070 5.651673
56.075 5.323849
56.080 4.963574
56.085 4.414677
56.090 4.189738
56.095 4.425125
56.100 4.675982
56.105 4.740234
56.110 4.842381
56.115 5.129152
56.120 5.280437
56.125 5.198975
56.130 5.850053
56.135 6.092616
56.140 5.948441
56.145 5.736508
56.150 5.510246
56.155 5.743976
56.160 5.774647
56.165 5.154655
56.170 5.0315
56.175 5.733175
56.180 6.465165
56.185 6.786671
56.190 6.846026
56.195 6.846721
56.200 7.29522
56.205 7.284712
56.210 6.668672
56.215 6.414423
56.220 6.346467
56.225 6.650474
56.230 6.783667
56.235 6.87154
56.240 6.954509
56.245 7.044681
56.250 6.726179
56.255 6.482755
56.260 6.620446
56.265 6.482278
56.270 6.199852
56.275 6.157016
56.280 6.134459
56.285 6.180879
56.290 5.947294
56.295 5.642324
56.300 5.606258
56.305 5.645617
56.310 5.660049
56.315 5.36655
56.320 5.236652
56.325 5.305003
56.330 5.408867
56.335 5.267475
56.340 5.281044
56.345 5.330926
56.350 5.42316
56.355 5.507961
56.360 5.311452
56.365 5.20358
56.370 5.48646
56.375 5.63889
56.380 5.643401
56.385 5.868134
56.390 6.22999
56.395 6.438815
56.400 6.307395
56.405 6.38062
56.410 6.626919
56.415 6.396074
56.420 6.100274
56.425 5.839788
56.430 5.730848
56.435 6.031788
56.440 5.73964
56.445 5.496288
56.450 5.817349
56.455 6.141033
56.460 6.081297
56.465 5.904454
56.470 5.697573
56.475 5.81624
56.480 5.776729
56.485 5.54767
56.490 5.177533
56.495 5.328871
56.500 5.697865
56.505 5.704443
56.510 5.781491
56.515 5.65149
56.520 5.585268
56.525 5.892811
56.530 5.853332
56.535 5.761461
56.540 5.794353
56.545 5.963307
56.550 6.229705
56.555 6.641603
56.560 6.98724
56.565 7.214497
56.570 7.28006
56.575 7.469257
56.580 7.318812
56.585 6.965537
56.590 6.452994
56.595 6.030879
56.600 6.008318
56.605 5.680968
56.610 5.310877
56.615 5.504765
56.620 5.97183
56.625 6.26683
56.630 6.258448
56.635 5.968715
56.640 6.181697
56.645 6.266605
56.650 5.988248
56.655 5.603538
56.660 5.586083
56.665 5.726758
56.670 5.959885
56.675 6.085238
56.680 6.171932
56.685 6.419452
56.690 6.737066
56.695 6.657963
56.700 6.80675
56.705 6.570711
56.710 6.027427
56.715 5.782493
56.720 5.761281
56.725 5.905119
56.730 6.064147
56.735 5.984694
56.740 6.253253
56.745 6.915852
56.750 7.018152
56.755 7.011828
56.760 6.94977
56.765 6.716811
56.770 6.427035
56.775 6.171669
56.780 5.955884
56.785 5.99807
56.790 6.044673
56.795 6.12493
56.800 6.437767
56.805 6.980277
56.810 6.818866
56.815 6.573045
56.820 6.410402
56.825 6.16703
56.830 5.856854
56.835 5.614007
56.840 5.571877
56.845 5.858286
56.850 6.04765
56.855 6.269963
56.860 6.315244
56.865 6.516754
56.870 6.699672
56.875 6.43547
56.880 6.208685
56.885 5.973568
56.890 5.610938
56.895 5.717268
56.900 5.370485
56.905 4.90208
56.910 4.761498
56.915 4.882679
56.920 4.9718
56.925 4.871691
56.930 4.850666
56.935 4.997668
56.940 5.432706
56.945 5.549674
56.950 5.579385
56.955 5.615096
56.960 5.691204
56.965 5.785259
56.970 5.852664
56.975 5.93239
56.980 6.404783
56.985 6.470352
56.990 6.477231
56.995 6.4788
57.000 6.298253
57.005 6.009816
57.010 5.65819
57.015 5.232788
57.020 5.157629
57.025 5.046767
57.030 5.050469
57.035 5.408745
57.040 5.540228
57.045 5.688462
57.050 5.652788
57.055 5.747365
57.060 6.086388
57.065 5.908201
57.070 6.01668
57.075 6.177757
57.080 6.284456
57.085 6.432857
57.090 6.349337
57.095 6.327289
57.100 6.228431
57.105 5.957496
57.110 5.895264
57.115 5.704265
57.120 5.578244
57.125 5.884899
57.130 6.009001
57.135 6.04324
57.140 5.96709
57.145 6.054933
57.150 6.703515
57.155 6.772006
57.160 6.511998
57.165 6.447891
57.170 6.616792
57.175 6.510135
57.180 6.300548
57.185 5.639603
57.190 5.665913
57.195 5.277502
57.200 5.43933
57.205 5.67161
57.210 5.679197
57.215 5.684222
57.220 5.464175
57.225 5.375864
57.230 5.769869
57.235 5.447318
57.240 5.09514
57.245 4.885005
57.250 5.032713
57.255 5.372272
57.260 5.630176
57.265 5.730872
57.270 5.71461
57.275 5.977372
57.280 6.421434
57.285 6.472422
57.290 6.461478
57.295 6.165781
57.300 5.760477
57.305 5.602403
57.310 5.173881
57.315 4.755785
57.320 4.769319
57.325 4.916211
57.330 4.961391
57.335 5.056399
57.340 5.262999
57.345 5.434753
57.350 5.580352
57.355 5.513834
57.360 5.272852
57.365 5.445755
57.370 5.770465
57.375 6.01639
57.380 6.325119
57.385 6.289405
57.390 6.445778
57.395 6.678937
57.400 6.574424
57.405 6.660881
57.410 6.538468
57.415 6.624279
57.420 6.547806
57.425 6.362125
57.430 6.077104
57.435 5.939074
57.440 5.748126
57.445 6.018551
57.450 5.72798
57.455 5.474732
57.460 5.455037
57.465 5.588662
57.470 5.463151
57.475 5.320338
57.480 5.007942
57.485 5.084942
57.490 5.349866
57.495 5.288634
57.500 5.506816
57.505 5.629855
57.510 5.635426
57.515 6.129096
57.520 6.620567
57.525 6.609685
57.530 6.661157
57.535 6.598168
57.540 6.954131
57.545 7.035661
57.550 6.932601
57.555 6.904222
57.560 7.014353
57.565 7.096695
57.570 6.779493
57.575 6.547465
57.580 6.591093
57.585 6.204211
57.590 5.756441
57.595 5.744024
57.600 5.710628
57.605 5.617121
57.610 5.574842
57.615 5.782397
57.620 6.281063
57.625 6.699388
57.630 6.615589
57.635 6.7196
57.640 6.566199
57.645 6.34931
57.650 6.137146
57.655 5.865981
57.660 5.515777
57.665 5.217887
57.670 5.22884
57.675 5.415612
57.680 5.536607
57.685 5.661105
57.690 5.936319
57.695 5.947365
57.700 5.716282
57.705 5.592788
57.710 5.795475
57.715 5.626057
57.720 5.380882
57.725 5.165057
57.730 5.073356
57.735 5.217332
57.740 5.071081
57.745 5.154072
57.750 5.153609
57.755 5.324529
57.760 5.578963
57.765 6.034381
57.770 6.279315
57.775 6.290666
57.780 6.160312
57.785 6.57876
57.790 6.221052
57.795 6.006648
57.800 6.291821
57.805 6.215596
57.810 6.407856
57.815 6.774668
57.820 6.446449
57.825 6.563594
57.830 6.488337
57.835 6.059913
57.840 6.266295
57.845 5.899467
57.850 5.305212
57.855 5.278766
57.860 5.367494
57.865 5.728071
57.870 6.01751
57.875 5.946801
57.880 6.366816
57.885 6.79389
57.890 6.880795
57.895 6.619828
57.900 6.530566
57.905 6.797621
57.910 6.977034
57.915 6.869931
57.920 6.653615
57.925 6.747857
57.930 6.632146
57.935 6.405254
57.940 6.245988
57.945 5.899354
57.950 5.749912
57.955 5.739396
57.960 5.816646
57.965 5.852409
57.970 5.391198
57.975 5.26814
57.980 5.439613
57.985 5.522716
57.990 5.566465
57.995 5.553198
58.000 5.801827
58.005 6.082328
58.010 5.900708
58.015 5.69776
58.020 5.678803
58.025 5.781655
58.030 5.955139
58.035 6.051511
58.040 6.111293
58.045 6.348314
58.050 6.641102
58.055 7.018149
58.060 7.284475
58.065 7.310681
58.070 7.3792
58.075 7.079553
58.080 6.955007
58.085 7.3049
58.090 7.013524
58.095 6.912561
58.100 6.760857
58.105 7.267572
58.110 7.77027
58.115 7.620084
58.120 6.961099
58.125 6.985875
58.130 6.684819
58.135 6.680793
58.140 6.374448
58.145 5.993566
58.150 6.062773
58.155 6.094491
58.160 6.163639
58.165 6.289908
58.170 6.126115
58.175 5.843503
58.180 5.955799
58.185 6.26897
58.190 6.523305
58.195 6.494494
58.200 6.496518
58.205 6.880262
58.210 6.683572
58.215 6.325448
58.220 6.065378
58.225 5.807188
58.230 5.337056
58.235 5.354521
58.240 5.256108
58.245 5.956273
58.250 6.481705
58.255 6.319571
58.260 6.680802
58.265 6.781862
58.270 6.712519
58.275 6.589397
58.280 6.081959
58.285 5.698273
58.290 5.698855
58.295 5.627255
58.300 5.772768
58.305 5.971467
58.310 5.657664
58.315 5.220382
58.320 5.339239
58.325 5.22893
58.330 5.275216
58.335 5.406113
58.340 5.70868
58.345 6.508948
58.350 7.28182
58.355 7.769725
58.360 8.064232
58.365 8.181211
58.370 7.92961
58.375 7.378934
58.380 7.224721
58.385 7.173698
58.390 6.933123
58.395 6.701911
58.400 6.612709
58.405 6.515405
58.410 6.773963
58.415 6.667818
58.420 6.788941
58.425 6.926055
58.430 7.173059
58.435 7.122951
58.440 7.204112
58.445 7.073289
58.450 7.154262
58.455 7.118964
58.460 6.678523
58.465 6.482875
58.470 6.460531
58.475 6.280963
58.480 5.981075
58.485 5.86058
58.490 5.856725
58.495 6.721543
58.500 6.9062
58.505 7.043938
58.510 7.81589
58.515 8.030055
58.520 7.897205
58.525 7.587186
58.530 7.379374
58.535 7.171659
58.540 6.993991
58.545 6.611203
58.550 6.910825
58.555 7.118606
58.560 7.238728
58.565 7.036805
58.570 7.425604
58.575 7.786835
58.580 7.925289
58.585 7.458633
58.590 7.295875
58.595 7.386446
58.600 7.303197
58.605 7.200026
58.610 7.348857
58.615 7.576679
58.620 8.053902
58.625 8.714956
58.630 8.78507
58.635 8.813603
58.640 8.815602
58.645 8.312368
58.650 7.777214
58.655 7.245099
58.660 7.016163
58.665 6.897182
58.670 7.086936
58.675 6.940592
58.680 7.467572
58.685 7.932909
58.690 8.23595
58.695 8.213903
58.700 7.89546
58.705 7.576416
58.710 7.512702
58.715 7.414304
58.720 7.110757
58.725 6.943277
58.730 6.929938
58.735 7.143114
58.740 7.153343
58.745 7.235317
58.750 6.975989
58.755 6.85324
58.760 6.806501
58.765 6.584886
