!@!!GADDS PLOTSO FILE: Chi integration type
!@!!Title/SampleName: map-bb
!@!!Comment: ?
!@!!User: Bruker Instrument Administrator
!@!!Site: University of Illinois Chicago
!@!!Frame: map-bb_01_000.gfrm
!@!!Wavelengths    1.54184   1.54056   1.54439
!@!!Frame angles: 2Theta: 63.000 Omega: 50.000 Phi: 0.000 Chi: 90.000
!@!!Integration range: 2Theta: 53.000 to 73.000  Gamma: -105.000 to -75.000
!@!!Integration method: bin normalized
!@!N
!@!SS
!@!M
!@!L 0.0 0.0 0.0 0.0
!@!XDegrees
!@!YCounts
53.000 6.741493
53.005 6.76804
53.010 7.319916
53.015 7.303383
53.020 7.112637
53.025 6.811615
53.030 6.834292
53.035 6.843784
53.040 6.527445
53.045 6.179401
53.050 6.331517
53.055 6.363225
53.060 6.332296
53.065 6.215489
53.070 6.767464
53.075 7.109268
53.080 7.407285
53.085 7.570091
53.090 7.346182
53.095 7.832014
53.100 8.35168
53.105 8.319036
53.110 8.382826
53.115 7.944538
53.120 8.143408
53.125 8.036904
53.130 8.009974
53.135 7.506677
53.140 7.464866
53.145 7.415751
53.150 7.967667
53.155 7.733508
53.160 8.050002
53.165 7.809497
53.170 7.666127
53.175 8.045384
53.180 7.968681
53.185 7.750459
53.190 7.925769
53.195 7.610581
53.200 7.407041
53.205 7.144029
53.210 6.755062
53.215 6.894929
53.220 6.862993
53.225 6.75735
53.230 6.671708
53.235 6.840056
53.240 7.12632
53.245 7.130434
53.250 7.060429
53.255 7.237882
53.260 7.309769
53.265 7.398227
53.270 7.427021
53.275 7.363222
53.280 7.511811
53.285 7.81139
53.290 7.682942
53.295 7.842477
53.300 8.142208
53.305 8.164471
53.310 8.316675
53.315 8.01607
53.320 7.972806
53.325 7.950598
53.330 8.03238
53.335 8.140837
53.340 8.252822
53.345 8.013253
53.350 8.162587
53.355 8.198745
53.360 8.21579
53.365 8.08923
53.370 8.19033
53.375 8.079937
53.380 8.355295
53.385 7.966285
53.390 8.054379
53.395 8.180566
53.400 7.866879
53.405 7.425992
53.410 7.55499
53.415 7.4496
53.420 7.641206
53.425 7.580267
53.430 7.613592
53.435 7.788381
53.440 7.781831
53.445 7.699028
53.450 7.594142
53.455 7.167521
53.460 6.87181
53.465 6.6382
53.470 6.890867
53.475 6.858987
53.480 6.791065
53.485 7.136556
53.490 7.686955
53.495 8.057769
53.500 8.380425
53.505 8.03931
53.510 7.944798
53.515 7.948058
53.520 7.809623
53.525 7.330861
53.530 7.264167
53.535 7.068359
53.540 7.424475
53.545 7.939151
53.550 8.288263
53.555 8.672669
53.560 9.106927
53.565 9.288507
53.570 9.411842
53.575 9.175203
53.580 8.968989
53.585 8.591311
53.590 8.258911
53.595 8.136748
53.600 8.082259
53.605 8.514266
53.610 8.952065
53.615 9.104218
53.620 9.133224
53.625 8.994931
53.630 8.977302
53.635 9.158604
53.640 9.040688
53.645 8.941243
53.650 8.923503
53.655 9.332857
53.660 9.678791
53.665 9.48814
53.670 9.082129
53.675 8.647986
53.680 8.445022
53.685 8.484141
53.690 8.568073
53.695 8.72593
53.700 9.033895
53.705 8.896827
53.710 8.834094
53.715 9.045116
53.720 8.885586
53.725 8.996138
53.730 8.992042
53.735 9.048277
53.740 8.991021
53.745 9.221004
53.750 8.946163
53.755 9.014978
53.760 8.480765
53.765 8.176443
53.770 8.045392
53.775 7.87157
53.780 7.662501
53.785 7.628798
53.790 7.289778
53.795 7.397867
53.800 7.79347
53.805 8.018752
53.810 8.52571
53.815 8.538106
53.820 8.279046
53.825 8.107965
53.830 7.604315
53.835 7.373312
53.840 7.184207
53.845 6.550252
53.850 6.799157
53.855 7.223227
53.860 7.691741
53.865 7.951366
53.870 8.161763
53.875 8.504698
53.880 8.772432
53.885 8.800023
53.890 8.673148
53.895 8.543497
53.900 8.58862
53.905 8.491476
53.910 8.781571
53.915 9.215322
53.920 9.186588
53.925 9.403497
53.930 9.630407
53.935 9.325219
53.940 8.907601
53.945 8.733999
53.950 8.225443
53.955 8.34311
53.960 7.995705
53.965 7.860937
53.970 8.381754
53.975 8.750381
53.980 8.77985
53.985 8.688063
53.990 8.358736
53.995 8.764153
54.000 8.971659
54.005 8.564334
54.010 8.38194
54.015 8.548672
54.020 8.649573
54.025 8.355581
54.030 8.098428
54.035 7.969799
54.040 8.097443
54.045 7.757493
54.050 7.782633
54.055 8.044608
54.060 8.219034
54.065 8.136259
54.070 8.409913
54.075 8.634831
54.080 8.672254
54.085 8.534685
54.090 8.779193
54.095 9.034954
54.100 8.858201
54.105 8.841961
54.110 9.24332
54.115 9.315498
54.120 9.622892
54.125 9.2521
54.130 9.042278
54.135 9.427549
54.140 9.219838
54.145 9.068656
54.150 9.388605
54.155 9.441494
54.160 9.600949
54.165 9.742672
54.170 9.010169
54.175 8.692703
54.180 8.482717
54.185 7.946415
54.190 8.072172
54.195 8.412393
54.200 8.260861
54.205 8.462179
54.210 8.622654
54.215 8.772714
54.220 9.285117
54.225 9.061541
54.230 9.263073
54.235 9.628581
54.240 10.187693
54.245 10.51171
54.250 10.232139
54.255 10.043884
54.260 10.352378
54.265 9.578742
54.270 9.31286
54.275 8.864301
54.280 9.11
54.285 9.588964
54.290 9.386786
54.295 9.199347
54.300 9.525862
54.305 9.900148
54.310 10.162536
54.315 10.348085
54.320 10.057908
54.325 9.816615
54.330 10.041353
54.335 9.680651
54.340 9.402452
54.345 9.341955
54.350 9.337029
54.355 9.644795
54.360 9.940606
54.365 10.45572
54.370 10.375998
54.375 10.305452
54.380 9.856736
54.385 9.618453
54.390 9.500876
54.395 9.308643
54.400 8.970777
54.405 9.431172
54.410 9.323037
54.415 9.584449
54.420 9.418027
54.425 9.238745
54.430 8.970499
54.435 9.039034
54.440 9.035527
54.445 8.946288
54.450 8.713468
54.455 8.913865
54.460 8.933846
54.465 9.103356
54.470 9.278669
54.475 9.213882
54.480 9.265867
54.485 9.225415
54.490 8.984396
54.495 8.828084
54.500 8.641436
54.505 8.096
54.510 8.284735
54.515 8.581526
54.520 8.454246
54.525 8.290772
54.530 8.186081
54.535 8.373318
54.540 8.665731
54.545 8.302886
54.550 8.251629
54.555 8.074223
54.560 8.211982
54.565 8.54537
54.570 8.701599
54.575 9.091995
54.580 9.202271
54.585 9.915152
54.590 10.30197
54.595 10.276411
54.600 10.299784
54.605 10.022979
54.610 9.333604
54.615 9.227452
54.620 8.828764
54.625 8.985547
54.630 9.31242
54.635 8.724003
54.640 8.675822
54.645 8.645133
54.650 8.590809
54.655 8.911549
54.660 8.72327
54.665 8.226759
54.670 8.833109
54.675 9.182571
54.680 9.351344
54.685 9.338543
54.690 8.960988
54.695 9.133073
54.700 9.338823
54.705 8.815716
54.710 8.560164
54.715 9.081806
54.720 8.75442
54.725 8.693015
54.730 8.360711
54.735 8.195042
54.740 8.578179
54.745 8.734087
54.750 8.380158
54.755 8.501197
54.760 8.767614
54.765 9.104661
54.770 9.358074
54.775 9.609517
54.780 9.379341
54.785 8.894228
54.790 9.400553
54.795 9.476491
54.800 9.308309
54.805 9.203561
54.810 8.844377
54.815 9.221388
54.820 9.381839
54.825 9.284997
54.830 9.22253
54.835 8.917294
54.840 8.884027
54.845 8.801436
54.850 8.765841
54.855 8.870914
54.860 8.293948
54.865 8.582021
54.870 9.158496
54.875 9.447625
54.880 9.74501
54.885 10.04338
54.890 10.473723
54.895 10.968034
54.900 10.883438
54.905 10.716287
54.910 10.72441
54.915 10.766895
54.920 10.319777
54.925 9.783392
54.930 9.484349
54.935 9.293751
54.940 9.114325
54.945 8.77478
54.950 8.517056
54.955 8.620768
54.960 9.142967
54.965 9.455972
54.970 9.805395
54.975 9.590773
54.980 9.635819
54.985 10.058396
54.990 10.198749
54.995 10.04739
55.000 10.331895
55.005 10.582929
55.010 10.450614
55.015 10.322021
55.020 10.428488
55.025 10.83072
55.030 10.941402
55.035 10.625258
55.040 10.702134
55.045 11.147495
55.050 10.811066
55.055 10.05514
55.060 9.784198
55.065 9.466781
55.070 9.530447
55.075 9.280483
55.080 9.346885
55.085 9.327986
55.090 9.487699
55.095 9.287899
55.100 9.040801
55.105 9.016474
55.110 8.817977
55.115 8.894599
55.120 9.079965
55.125 9.078753
55.130 9.622372
55.135 9.847146
55.140 9.980979
55.145 10.16538
55.150 10.325273
55.155 10.329295
55.160 10.036688
55.165 9.74293
55.170 10.133369
55.175 10.079103
55.180 9.821448
55.185 9.584599
55.190 9.822095
55.195 9.511965
55.200 9.700322
55.205 9.219918
55.210 9.738707
55.215 10.26894
55.220 10.296004
55.225 10.56259
55.230 10.454119
55.235 10.479609
55.240 11.14032
55.245 10.842555
55.250 10.549213
55.255 10.179855
55.260 10.060798
55.265 10.311676
55.270 9.974911
55.275 9.622251
55.280 9.349276
55.285 9.452458
55.290 10.079562
55.295 9.700966
55.300 9.286498
55.305 9.491339
55.310 9.080606
55.315 8.965615
55.320 9.123003
55.325 8.549406
55.330 9.344954
55.335 9.736418
55.340 9.766543
55.345 9.44649
55.350 9.654176
55.355 9.957406
55.360 10.746127
55.365 10.703356
55.370 10.524732
55.375 10.375007
55.380 10.736004
55.385 10.91621
55.390 10.59093
55.395 9.702186
55.400 9.618304
55.405 9.75467
55.410 10.082706
55.415 10.266176
55.420 10.286927
55.425 10.779988
55.430 11.333519
55.435 11.343583
55.440 10.897535
55.445 10.780783
55.450 10.864572
55.455 10.581083
55.460 10.236365
55.465 10.158316
55.470 9.880935
55.475 9.997898
55.480 9.816727
55.485 9.607475
55.490 9.79994
55.495 9.825346
55.500 9.991878
55.505 10.091999
55.510 10.407475
55.515 10.646155
55.520 10.804715
55.525 10.371646
55.530 10.403911
55.535 10.704165
55.540 11.428048
55.545 11.675389
55.550 11.836707
55.555 12.014071
55.560 12.500468
55.565 12.690221
55.570 11.985779
55.575 11.67578
55.580 11.816102
55.585 11.853792
55.590 11.567159
55.595 11.91698
55.600 12.146798
55.605 12.482758
55.610 12.001706
55.615 11.664013
55.620 11.668333
55.625 11.675704
55.630 10.6427
55.635 10.162674
55.640 10.016146
55.645 9.694544
55.650 9.417811
55.655 8.894018
55.660 8.976416
55.665 9.539095
55.670 9.727105
55.675 9.43508
55.680 9.598585
55.685 9.757557
55.690 9.837303
55.695 9.963274
55.700 9.81227
55.705 9.965484
55.710 10.26914
55.715 10.886004
55.720 11.554413
55.725 12.200748
55.730 12.018253
55.735 11.844819
55.740 11.865662
55.745 11.861403
55.750 11.26713
55.755 10.534854
55.760 10.426082
55.765 10.655424
55.770 11.060903
55.775 11.439977
55.780 11.580962
55.785 12.020607
55.790 12.022114
55.795 11.48347
55.800 10.931342
55.805 10.188622
55.810 9.635082
55.815 9.941546
55.820 10.034673
55.825 10.152313
55.830 10.634454
55.835 11.526597
55.840 11.847584
55.845 12.072871
55.850 12.020678
55.855 12.261433
55.860 12.643796
55.865 12.452116
55.870 11.880489
55.875 12.031636
55.880 11.815763
55.885 11.845605
55.890 11.417399
55.895 11.103909
55.900 11.009136
55.905 10.867807
55.910 10.86908
55.915 10.719954
55.920 10.958061
55.925 11.123331
55.930 10.963449
55.935 11.156084
55.940 11.308962
55.945 11.484753
55.950 11.579401
55.955 11.272638
55.960 11.123435
55.965 11.000443
55.970 10.548101
55.975 10.276943
55.980 10.453908
55.985 9.930786
55.990 9.713025
55.995 10.062507
56.000 10.310905
56.005 10.37664
56.010 10.024972
56.015 9.843901
56.020 10.194889
56.025 10.024187
56.030 9.464654
56.035 9.370118
56.040 9.379129
56.045 9.911567
56.050 10.237663
56.055 9.914272
56.060 9.75314
56.065 10.100499
56.070 10.1481
56.075 10.383774
56.080 10.313194
56.085 10.469704
56.090 11.235278
56.095 11.661736
56.100 11.91502
56.105 12.435302
56.110 12.870737
56.115 12.706617
56.120 12.417065
56.125 11.833959
56.130 11.482341
56.135 11.457949
56.140 11.103443
56.145 10.384074
56.150 10.487307
56.155 10.805346
56.160 11.124418
56.165 11.32075
56.170 11.039705
56.175 11.31294
56.180 11.651549
56.185 12.302678
56.190 12.001592
56.195 11.942599
56.200 11.796052
56.205 11.891555
56.210 11.42818
56.215 10.804605
56.220 10.752192
56.225 11.027365
56.230 11.218075
56.235 11.389102
56.240 11.253786
56.245 11.912457
56.250 12.544313
56.255 11.78759
56.260 11.621363
56.265 11.523883
56.270 11.701254
56.275 11.913482
56.280 11.919402
56.285 11.644822
56.290 11.927699
56.295 11.757679
56.300 11.065419
56.305 11.182457
56.310 11.209944
56.315 10.883546
56.320 10.926547
56.325 10.602732
56.330 10.720678
56.335 11.048391
56.340 10.755574
56.345 10.540322
56.350 10.717484
56.355 10.709501
56.360 10.866645
56.365 11.047791
56.370 11.147892
56.375 11.026555
56.380 10.993511
56.385 11.530507
56.390 11.963461
56.395 11.954386
56.400 12.028684
56.405 12.306901
56.410 12.888296
56.415 12.929403
56.420 12.259464
56.425 11.859793
56.430 12.401134
56.435 12.514816
56.440 11.694902
56.445 10.9966
56.450 11.037165
56.455 11.360564
56.460 11.963413
56.465 11.16863
56.470 11.226892
56.475 11.862169
56.480 11.798848
56.485 11.979699
56.490 12.01659
56.495 12.000392
56.500 11.901482
56.505 12.290113
56.510 12.25903
56.515 11.797044
56.520 11.362013
56.525 11.329837
56.530 11.18803
56.535 11.904047
56.540 11.688558
56.545 11.726326
56.550 12.2452
56.555 12.202914
56.560 11.988862
56.565 11.766526
56.570 11.750165
56.575 12.120037
56.580 12.492735
56.585 12.993058
56.590 13.058708
56.595 13.423374
56.600 13.226328
56.605 12.731241
56.610 12.055322
56.615 12.001942
56.620 11.759662
56.625 11.919257
56.630 11.629301
56.635 11.506483
56.640 11.278085
56.645 11.724786
56.650 11.725245
56.655 11.915808
56.660 11.764797
56.665 11.79499
56.670 11.568122
56.675 11.52118
56.680 11.058571
56.685 11.12799
56.690 10.959765
56.695 11.161851
56.700 11.685133
56.705 12.324679
56.710 12.378877
56.715 12.59422
56.720 12.815505
56.725 13.016582
56.730 13.058565
56.735 12.771145
56.740 13.101524
56.745 13.025414
56.750 12.907701
56.755 12.852449
56.760 12.911636
56.765 13.234715
56.770 13.209245
56.775 12.911772
56.780 13.580847
56.785 13.775172
56.790 13.634675
56.795 13.491504
56.800 12.875893
56.805 12.359318
56.810 12.082417
56.815 11.73953
56.820 11.581108
56.825 11.093617
56.830 10.631816
56.835 10.936992
56.840 12.018458
56.845 12.331687
56.850 12.454727
56.855 12.208322
56.860 12.622268
56.865 13.108163
56.870 12.989018
56.875 12.215171
56.880 11.825949
56.885 11.8127
56.890 12.199169
56.895 12.37536
56.900 12.492959
56.905 12.906805
56.910 13.24498
56.915 13.426408
56.920 13.068347
56.925 12.710605
56.930 12.799685
56.935 12.404126
56.940 11.983323
56.945 11.814453
56.950 11.7118
56.955 11.889259
56.960 11.672127
56.965 11.204846
56.970 11.392516
56.975 11.716731
56.980 11.946368
56.985 11.876903
56.990 12.111566
56.995 12.344965
57.000 12.798682
57.005 12.701113
57.010 12.231712
57.015 12.822511
57.020 12.815122
57.025 12.369413
57.030 12.171682
57.035 11.604416
57.040 11.565967
57.045 11.89205
57.050 11.654748
57.055 11.974825
57.060 12.127132
57.065 12.281073
57.070 12.530554
57.075 12.344112
57.080 11.855332
57.085 11.646579
57.090 11.746935
57.095 12.000547
57.100 12.120278
57.105 12.09116
57.110 12.444973
57.115 12.355647
57.120 12.268979
57.125 12.109713
57.130 11.787416
57.135 12.1346
57.140 12.547876
57.145 12.301869
57.150 12.109358
57.155 11.865335
57.160 11.847137
57.165 11.910346
57.170 12.148485
57.175 12.225811
57.180 12.684646
57.185 13.075409
57.190 13.059019
57.195 13.200318
57.200 12.860904
57.205 12.347609
57.210 11.930361
57.215 11.742509
57.220 11.903792
57.225 12.106301
57.230 12.166407
57.235 12.235517
57.240 12.249104
57.245 12.530589
57.250 12.294399
57.255 12.245234
57.260 12.367398
57.265 12.574992
57.270 12.813656
57.275 12.822684
57.280 13.036746
57.285 13.173788
57.290 13.036255
57.295 12.49732
57.300 12.492541
57.305 12.560183
57.310 13.0584
57.315 12.999836
57.320 13.238174
57.325 13.653515
57.330 13.966516
57.335 14.051336
57.340 13.650761
57.345 13.028117
57.350 12.455131
57.355 12.184313
57.360 11.844242
57.365 11.487714
57.370 11.431892
57.375 11.576234
57.380 11.634667
57.385 12.125088
57.390 12.341551
57.395 12.729876
57.400 12.990684
57.405 12.90221
57.410 12.840063
57.415 12.844931
57.420 12.920348
57.425 12.935291
57.430 13.14522
57.435 13.125704
57.440 13.335489
57.445 13.450275
57.450 13.137908
57.455 12.721272
57.460 12.666039
57.465 13.017483
57.470 12.768739
57.475 12.721122
57.480 12.920784
57.485 14.230577
57.490 14.87966
57.495 14.391274
57.500 13.929546
57.505 13.965933
57.510 14.041465
57.515 13.777851
57.520 13.175798
57.525 13.588354
57.530 13.742892
57.535 13.300375
57.540 13.268086
57.545 13.13772
57.550 12.977948
57.555 12.369236
57.560 11.582376
57.565 11.626559
57.570 11.902271
57.575 12.226164
57.580 12.420092
57.585 12.546829
57.590 13.219978
57.595 13.543802
57.600 13.963028
57.605 14.63438
57.610 14.556265
57.615 14.730746
57.620 14.286403
57.625 14.044811
57.630 13.75714
57.635 13.512612
57.640 13.359367
57.645 13.547505
57.650 13.321725
57.655 13.821927
57.660 13.635804
57.665 13.695502
57.670 13.181688
57.675 12.55549
57.680 12.427582
57.685 12.593534
57.690 12.533952
57.695 12.546699
57.700 12.87419
57.705 13.605719
57.710 14.058579
57.715 14.183818
57.720 13.78453
57.725 13.659219
57.730 13.762017
57.735 13.787225
57.740 13.470832
57.745 13.486197
57.750 13.233403
57.755 13.132586
57.760 12.820462
57.765 12.658095
57.770 12.984247
57.775 13.131258
57.780 12.806847
57.785 13.029737
57.790 13.721865
57.795 14.301108
57.800 14.584553
57.805 14.118016
57.810 13.657008
57.815 13.45366
57.820 13.492459
57.825 13.216692
57.830 13.171968
57.835 13.080749
57.840 13.030578
57.845 13.119516
57.850 13.150225
57.855 12.973774
57.860 12.841042
57.865 12.835876
57.870 13.075527
57.875 13.64815
57.880 14.118925
57.885 14.577826
57.890 14.89584
57.895 14.806952
57.900 14.627085
57.905 14.328903
57.910 14.171187
57.915 13.660953
57.920 13.739569
57.925 13.86896
57.930 14.597707
57.935 14.591449
57.940 14.459597
57.945 14.026008
57.950 14.119849
57.955 13.717021
57.960 13.437835
57.965 12.931821
57.970 12.895614
57.975 12.836657
57.980 13.44669
57.985 13.702304
57.990 13.649295
57.995 13.875216
58.000 13.956583
58.005 13.977841
58.010 14.405216
58.015 14.542455
58.020 14.452939
58.025 14.79366
58.030 15.143421
58.035 15.352278
58.040 16.138725
58.045 15.850598
58.050 16.153343
58.055 16.686464
58.060 16.465727
58.065 16.191191
58.070 15.946126
58.075 15.355165
58.080 15.28063
58.085 15.148522
58.090 14.686552
58.095 14.511639
58.100 14.60198
58.105 14.82061
58.110 15.008479
58.115 14.861233
58.120 14.548965
58.125 14.578346
58.130 15.024554
58.135 15.120508
58.140 14.849459
58.145 15.336496
58.150 15.172977
58.155 15.20948
58.160 15.328935
58.165 14.564124
58.170 14.47678
58.175 14.673851
58.180 14.483159
58.185 15.172379
58.190 15.053674
58.195 14.833266
58.200 14.891946
58.205 15.44233
58.210 15.892805
58.215 15.707614
58.220 15.284461
58.225 15.95066
58.230 16.694258
58.235 16.888784
58.240 16.416334
58.245 16.054483
58.250 16.389227
58.255 16.949087
58.260 17.135485
58.265 17.081238
58.270 17.12867
58.275 17.209677
58.280 17.006111
58.285 17.033697
58.290 17.142151
58.295 16.914059
58.300 16.791775
58.305 17.076792
58.310 17.325644
58.315 17.659773
58.320 17.195467
58.325 16.677635
58.330 16.29376
58.335 16.780478
58.340 17.237778
58.345 17.434958
58.350 18.408199
58.355 19.526661
58.360 19.678602
58.365 20.417015
58.370 20.747889
58.375 21.215494
58.380 21.333458
58.385 21.19792
58.390 20.950796
58.395 21.530937
58.400 21.251051
58.405 20.611092
58.410 19.807814
58.415 19.473881
58.420 19.839733
58.425 20.487465
58.430 20.512917
58.435 20.892956
58.440 21.407904
58.445 22.190474
58.450 22.568239
58.455 22.434128
58.460 23.097935
58.465 23.824183
58.470 23.947945
58.475 23.802654
58.480 23.898285
58.485 24.612057
58.490 24.65909
58.495 24.348932
58.500 24.483721
58.505 24.388927
58.510 24.892073
58.515 25.327267
58.520 25.512772
58.525 25.813747
58.530 26.370836
58.535 27.310102
58.540 28.577986
58.545 28.517864
58.550 28.543385
58.555 28.683422
58.560 29.376276
58.565 29.227573
58.570 28.995167
