!@!!GADDS PLOTSO FILE: Chi integration type
!@!!Title/SampleName: map-103
!@!!Comment: ?
!@!!User: Bruker Instrument Administrator
!@!!Site: University of Illinois Chicago
!@!!Frame: map-103_01_000.gfrm
!@!!Wavelengths    1.54184   1.54056   1.54439
!@!!Frame angles: 2Theta: 63.000 Omega: 50.000 Phi: 0.000 Chi: 90.000
!@!!Integration range: 2Theta: 53.000 to 73.000  Gamma: -105.000 to -75.000
!@!!Integration method: bin normalized
!@!N
!@!SS
!@!M
!@!L 0.0 0.0 0.0 0.0
!@!XDegrees
!@!YCounts
53.000 9.282792
53.005 9.092583
53.010 8.822182
53.015 9.204056
53.020 9.428315
53.025 9.316446
53.030 9.610758
53.035 9.735334
53.040 9.996431
53.045 10.048191
53.050 9.756714
53.055 10.19542
53.060 10.337474
53.065 9.764586
53.070 9.333104
53.075 9.11817
53.080 9.078609
53.085 8.588597
53.090 8.328394
53.095 8.414943
53.100 8.438319
53.105 8.792303
53.110 9.122749
53.115 9.6307
53.120 9.6554
53.125 9.08202
53.130 8.924159
53.135 8.599214
53.140 8.325607
53.145 7.840466
53.150 7.43876
53.155 7.93716
53.160 7.928646
53.165 7.867074
53.170 8.1576
53.175 8.786006
53.180 8.958255
53.185 8.894658
53.190 9.172816
53.195 9.703387
53.200 9.89961
53.205 9.911276
53.210 9.663185
53.215 9.55119
53.220 9.385988
53.225 8.923475
53.230 8.990335
53.235 9.01195
53.240 8.548293
53.245 8.424849
53.250 8.80165
53.255 8.976826
53.260 9.113892
53.265 9.031521
53.270 8.611732
53.275 8.345182
53.280 8.073264
53.285 8.063544
53.290 8.182055
53.295 7.990385
53.300 8.077538
53.305 8.740485
53.310 9.246945
53.315 9.920195
53.320 9.671669
53.325 9.798105
53.330 10.125549
53.335 9.663501
53.340 9.152652
53.345 9.083322
53.350 8.757577
53.355 9.079903
53.360 8.780933
53.365 8.827035
53.370 9.154091
53.375 9.491788
53.380 9.326745
53.385 9.062721
53.390 9.083132
53.395 9.149981
53.400 9.139359
53.405 9.529919
53.410 9.818865
53.415 10.187262
53.420 10.398754
53.425 10.089291
53.430 9.702796
53.435 9.584123
53.440 8.945433
53.445 9.06886
53.450 8.996156
53.455 9.079391
53.460 9.361282
53.465 9.482699
53.470 9.393199
53.475 9.573888
53.480 9.121722
53.485 8.651011
53.490 8.510866
53.495 8.664126
53.500 8.599625
53.505 8.988408
53.510 9.262238
53.515 9.545044
53.520 9.785984
53.525 9.749738
53.530 9.751393
53.535 9.881392
53.540 9.901044
53.545 9.823764
53.550 10.338466
53.555 10.655902
53.560 10.625941
53.565 10.818602
53.570 10.83072
53.575 10.755574
53.580 10.432693
53.585 10.044719
53.590 9.556524
53.595 9.328511
53.600 9.492727
53.605 9.349771
53.610 9.409909
53.615 9.372794
53.620 9.213092
53.625 9.199709
53.630 9.155574
53.635 8.765326
53.640 8.829531
53.645 8.590389
53.650 8.86585
53.655 9.024364
53.660 9.209933
53.665 9.382061
53.670 9.547067
53.675 9.503929
53.680 9.397231
53.685 9.047271
53.690 8.85176
53.695 9.12245
53.700 9.28923
53.705 9.054406
53.710 9.188313
53.715 9.374967
53.720 9.96282
53.725 10.458008
53.730 9.782324
53.735 9.753825
53.740 10.135557
53.745 10.295275
53.750 10.305088
53.755 9.542945
53.760 9.685871
53.765 10.282565
53.770 10.107382
53.775 9.787273
53.780 9.5153
53.785 9.194961
53.790 9.384912
53.795 9.102478
53.800 8.951858
53.805 9.041768
53.810 9.32924
53.815 9.846959
53.820 10.162191
53.825 10.00186
53.830 9.92978
53.835 9.835994
53.840 10.031146
53.845 10.125731
53.850 9.741258
53.855 9.910489
53.860 10.045449
53.865 10.231667
53.870 10.37512
53.875 10.18654
53.880 10.212011
53.885 10.117883
53.890 10.057257
53.895 10.047029
53.900 9.99904
53.905 9.721105
53.910 9.294804
53.915 9.482418
53.920 9.544899
53.925 9.477706
53.930 9.119421
53.935 9.4521
53.940 9.669851
53.945 9.907058
53.950 10.037125
53.955 9.683949
53.960 9.698982
53.965 10.014909
53.970 9.815552
53.975 9.787484
53.980 9.433221
53.985 9.756662
53.990 10.310468
53.995 10.319604
54.000 10.172192
54.005 9.811436
54.010 9.59933
54.015 9.533259
54.020 9.523932
54.025 9.355827
54.030 9.76359
54.035 9.722683
54.040 10.001517
54.045 10.234122
54.050 9.83368
54.055 9.834553
54.060 9.996398
54.065 9.497387
54.070 9.910707
54.075 10.103428
54.080 10.479622
54.085 10.58413
54.090 10.226638
54.095 9.671696
54.100 9.709163
54.105 9.276387
54.110 9.148039
54.115 9.263283
54.120 9.228433
54.125 9.388154
54.130 9.580914
54.135 9.518736
54.140 9.458102
54.145 9.385905
54.150 9.115629
54.155 9.416921
54.160 9.880759
54.165 9.652454
54.170 9.680528
54.175 9.754349
54.180 9.397167
54.185 9.67177
54.190 9.558127
54.195 9.219987
54.200 10.176273
54.205 10.627822
54.210 10.654861
54.215 11.050909
54.220 11.222266
54.225 11.467284
54.230 11.452181
54.235 10.932759
54.240 10.72268
54.245 10.869046
54.250 10.492697
54.255 10.119482
54.260 10.208743
54.265 10.1738
54.270 10.382994
54.275 10.733367
54.280 10.886639
54.285 11.551093
54.290 12.164046
54.295 12.234287
54.300 11.828651
54.305 11.894135
54.310 11.626485
54.315 11.562003
54.320 11.300886
54.325 10.68434
54.330 10.374781
54.335 10.618504
54.340 10.552348
54.345 10.347991
54.350 9.873855
54.355 9.877648
54.360 10.265564
54.365 10.361654
54.370 9.19076
54.375 8.967806
54.380 9.201476
54.385 9.379756
54.390 8.918097
54.395 8.384279
54.400 8.931686
54.405 10.278269
54.410 10.41433
54.415 10.200687
54.420 9.771361
54.425 10.016118
54.430 10.136935
54.435 10.194684
54.440 9.946183
54.445 10.193131
54.450 10.638215
54.455 11.265642
54.460 11.365847
54.465 11.215953
54.470 11.097816
54.475 11.175147
54.480 11.155695
54.485 11.014755
54.490 11.461528
54.495 12.149307
54.500 12.67545
54.505 12.671987
54.510 12.547836
54.515 12.161088
54.520 12.226202
54.525 11.657564
54.530 11.177627
54.535 10.544256
54.540 10.347645
54.545 10.590396
54.550 10.830196
54.555 10.418932
54.560 10.497592
54.565 10.530669
54.570 10.974114
54.575 11.068165
54.580 11.285583
54.585 11.202902
54.590 11.147725
54.595 11.131075
54.600 11.245296
54.605 11.672453
54.610 11.79355
54.615 11.324425
54.620 11.57357
54.625 12.063539
54.630 11.978183
54.635 11.91452
54.640 11.381618
54.645 10.90553
54.650 10.91704
54.655 10.61438
54.660 10.107862
54.665 9.994788
54.670 9.66616
54.675 9.636073
54.680 10.193721
54.685 10.287164
54.690 10.316202
54.695 10.403223
54.700 10.758117
54.705 11.00047
54.710 10.699455
54.715 9.997948
54.720 9.562588
54.725 9.628276
54.730 9.525521
54.735 9.54355
54.740 9.559721
54.745 10.13468
54.750 10.531976
54.755 11.143657
54.760 11.625792
54.765 11.659108
54.770 11.45657
54.775 11.091813
54.780 10.876944
54.785 10.800863
54.790 10.976584
54.795 10.443991
54.800 10.19373
54.805 10.056959
54.810 10.446649
54.815 10.760639
54.820 10.591314
54.825 10.314988
54.830 10.484704
54.835 10.406879
54.840 10.475136
54.845 10.698882
54.850 11.037727
54.855 10.668074
54.860 10.365505
54.865 10.518829
54.870 11.142669
54.875 11.47811
54.880 11.397
54.885 11.50707
54.890 11.557615
54.895 12.018058
54.900 12.007845
54.905 11.544361
54.910 11.245851
54.915 11.278022
54.920 11.29508
54.925 11.816891
54.930 11.615727
54.935 12.193189
54.940 12.709538
54.945 12.969751
54.950 13.265227
54.955 12.976193
54.960 12.68554
54.965 12.1896
54.970 11.569501
54.975 11.430905
54.980 11.167829
54.985 10.846273
54.990 10.606415
54.995 10.326175
55.000 10.395841
55.005 10.288877
55.010 10.466323
55.015 10.306008
55.020 10.161894
55.025 10.672948
55.030 10.911009
55.035 11.178392
55.040 11.574924
55.045 11.353759
55.050 11.182844
55.055 11.648103
55.060 11.74563
55.065 11.797976
55.070 11.58323
55.075 11.223277
55.080 11.358397
55.085 11.54769
55.090 11.038953
55.095 10.925673
55.100 10.931647
55.105 10.952652
55.110 10.991724
55.115 10.943794
55.120 10.703476
55.125 10.681139
55.130 10.664946
55.135 10.967944
55.140 11.064276
55.145 10.938684
55.150 10.665956
55.155 11.056994
55.160 11.295159
55.165 11.369839
55.170 11.224932
55.175 11.173158
55.180 11.347449
55.185 11.387877
55.190 11.267621
55.195 11.238257
55.200 10.663038
55.205 10.938614
55.210 11.275583
55.215 11.377516
55.220 11.765495
55.225 11.555077
55.230 11.287244
55.235 11.569145
55.240 11.576423
55.245 11.29702
55.250 11.08661
55.255 10.493473
55.260 10.419284
55.265 10.368831
55.270 10.025755
55.275 9.796413
55.280 9.690619
55.285 9.908586
55.290 10.204199
55.295 11.066744
55.300 11.192093
55.305 11.784491
55.310 12.073676
55.315 12.262468
55.320 12.492354
55.325 12.259998
55.330 11.987269
55.335 12.791899
55.340 12.417918
55.345 12.263164
55.350 12.004984
55.355 12.28603
55.360 12.808727
55.365 12.766231
55.370 12.176002
55.375 11.649298
55.380 11.584888
55.385 11.534476
55.390 11.393911
55.395 11.30055
55.400 10.903214
55.405 11.099265
55.410 11.403612
55.415 11.704511
55.420 11.817222
55.425 11.23943
55.430 10.917793
55.435 11.382283
55.440 11.51176
55.445 11.324862
55.450 11.165848
55.455 11.2772
55.460 11.574961
55.465 11.934797
55.470 11.620968
55.475 11.67238
55.480 12.231055
55.485 12.402647
55.490 12.163985
55.495 12.397159
55.500 12.646917
55.505 12.606245
55.510 12.915236
55.515 12.080358
55.520 11.664927
55.525 11.493102
55.530 10.971799
55.535 11.072599
55.540 10.979832
55.545 10.544185
55.550 11.052427
55.555 11.587151
55.560 11.925268
55.565 11.505467
55.570 11.142134
55.575 11.537984
55.580 11.809468
55.585 11.722732
55.590 11.376946
55.595 11.637912
55.600 12.223083
55.605 12.121861
55.610 11.934961
55.615 11.865122
55.620 11.69961
55.625 11.860218
55.630 11.647885
55.635 11.828314
55.640 12.030311
55.645 12.054639
55.650 12.315126
55.655 12.376725
55.660 12.095025
55.665 11.87311
55.670 11.710778
55.675 11.749566
55.680 11.636734
55.685 11.244409
55.690 10.977184
55.695 10.784492
55.700 11.009504
55.705 10.929287
55.710 10.586523
55.715 10.403425
55.720 10.846581
55.725 11.600269
55.730 11.792552
55.735 11.005461
55.740 10.903355
55.745 11.147999
55.750 11.588411
55.755 11.088476
55.760 10.730652
55.765 11.151555
55.770 11.529145
55.775 11.544178
55.780 11.223022
55.785 11.115423
55.790 10.899807
55.795 10.975247
55.800 10.889111
55.805 10.432228
55.810 10.538198
55.815 10.881039
55.820 11.064814
55.825 11.401231
55.830 11.529691
55.835 12.297485
55.840 12.716036
55.845 12.938714
55.850 13.14418
55.855 13.330481
55.860 13.404416
55.865 13.541366
55.870 13.507373
55.875 13.364421
55.880 13.331126
55.885 13.079173
55.890 13.102226
55.895 13.335144
55.900 13.202262
55.905 13.070831
55.910 12.766954
55.915 12.512664
55.920 13.139402
55.925 13.19914
55.930 13.150488
55.935 12.950829
55.940 12.99366
55.945 13.55619
55.950 13.804815
55.955 12.875804
55.960 12.229697
55.965 11.895919
55.970 11.844105
55.975 11.856981
55.980 11.307669
55.985 11.051417
55.990 11.148788
55.995 11.123258
56.000 11.323236
56.005 11.881433
56.010 11.491811
56.015 11.56516
56.020 11.727778
56.025 12.08985
56.030 12.346063
56.035 11.889235
56.040 11.552701
56.045 11.871542
56.050 11.867799
56.055 11.695502
56.060 11.250697
56.065 11.030171
56.070 11.182753
56.075 11.349498
56.080 11.865287
56.085 12.174208
56.090 12.730024
56.095 13.12945
56.100 13.294944
56.105 13.459092
56.110 12.928975
56.115 12.94346
56.120 13.29585
56.125 13.267536
56.130 13.232691
56.135 13.228384
56.140 13.421591
56.145 13.678582
56.150 13.1106
56.155 12.712523
56.160 12.313907
56.165 12.252927
56.170 11.807833
56.175 11.606944
56.180 11.448659
56.185 11.441593
56.190 11.336214
56.195 11.809267
56.200 12.103003
56.205 12.316552
56.210 12.295541
56.215 12.805092
56.220 13.207856
56.225 13.162951
56.230 12.933883
56.235 13.034305
56.240 13.429535
56.245 13.387981
56.250 13.065752
56.255 12.996304
56.260 13.28697
56.265 13.334919
56.270 13.013965
56.275 12.590044
56.280 12.251674
56.285 12.215197
56.290 12.057325
56.295 11.972121
56.300 11.573376
56.305 11.922177
56.310 12.117805
56.315 12.189668
56.320 12.344873
56.325 12.55201
56.330 12.68128
56.335 12.218508
56.340 11.957613
56.345 12.438676
56.350 12.889585
56.355 12.811431
56.360 12.781606
56.365 13.04176
56.370 13.653288
56.375 13.284159
56.380 12.815298
56.385 12.108769
56.390 11.735777
56.395 11.554325
56.400 11.718452
56.405 12.098089
56.410 12.122067
56.415 12.670765
56.420 13.354496
56.425 13.710414
56.430 14.165004
56.435 14.056991
56.440 14.214875
56.445 14.194701
56.450 13.46867
56.455 13.126457
56.460 12.667987
56.465 12.502286
56.470 12.235786
56.475 12.032872
56.480 12.091452
56.485 12.483694
56.490 13.132444
56.495 13.566415
56.500 13.279704
56.505 13.569938
56.510 13.349293
56.515 13.8411
56.520 14.027804
56.525 13.829541
56.530 13.599476
56.535 13.5811
56.540 13.285254
56.545 13.133078
56.550 13.228851
56.555 13.290315
56.560 13.398462
56.565 13.461741
56.570 13.663274
56.575 13.959747
56.580 14.310377
56.585 13.651896
56.590 13.062238
56.595 13.091364
56.600 12.580357
56.605 12.004962
56.610 11.865587
56.615 11.787881
56.620 12.192916
56.625 12.246512
56.630 11.609441
56.635 11.639327
56.640 12.117043
56.645 11.850698
56.650 12.413894
56.655 12.716203
56.660 13.288323
56.665 14.227839
56.670 14.793688
56.675 14.60805
56.680 14.283592
56.685 13.626906
56.690 13.302188
56.695 12.937092
56.700 12.661021
56.705 12.964184
56.710 13.703646
56.715 14.255623
56.720 14.522891
56.725 14.551449
56.730 14.206965
56.735 14.291436
56.740 14.016961
56.745 13.324757
56.750 13.355503
56.755 13.472184
56.760 13.677267
56.765 13.562695
56.770 13.253016
56.775 13.529671
56.780 13.359688
56.785 12.841526
56.790 12.519835
56.795 12.434705
56.800 12.380012
56.805 12.637587
56.810 12.696123
56.815 13.130658
56.820 13.552966
56.825 13.504408
56.830 13.505792
56.835 13.410758
56.840 12.882441
56.845 12.453825
56.850 12.106318
56.855 11.788412
56.860 12.042033
56.865 12.150187
56.870 12.422494
56.875 12.925493
56.880 13.08856
56.885 13.499169
56.890 13.41134
56.895 13.067111
56.900 13.515927
56.905 13.867831
56.910 13.752496
56.915 13.529881
56.920 13.431982
56.925 13.792442
56.930 13.821347
56.935 13.517389
56.940 12.893722
56.945 13.074854
56.950 13.53217
56.955 13.572927
56.960 13.845035
56.965 14.188929
56.970 14.625414
56.975 14.681047
56.980 14.481034
56.985 14.50089
56.990 14.321579
56.995 13.759991
57.000 13.378767
57.005 12.862453
57.010 13.069779
57.015 12.70822
57.020 12.66529
57.025 12.277474
57.030 12.66161
57.035 12.944721
57.040 13.02422
57.045 13.143371
57.050 13.501701
57.055 13.866291
57.060 14.147585
57.065 13.619579
57.070 13.439273
57.075 13.259794
57.080 12.886072
57.085 12.725235
57.090 12.54705
57.095 13.153065
57.100 13.865147
57.105 14.412689
57.110 14.379309
57.115 14.759362
57.120 14.530902
57.125 14.231597
57.130 14.42548
57.135 14.277464
57.140 14.387235
57.145 15.224899
57.150 14.9434
57.155 15.520366
57.160 15.378964
57.165 14.525438
57.170 14.323504
57.175 13.906771
57.180 13.701241
57.185 13.577227
57.190 13.351414
57.195 13.840746
57.200 14.305019
57.205 14.041732
57.210 13.919554
57.215 13.63109
57.220 13.092155
57.225 13.190345
57.230 12.702891
57.235 12.549376
57.240 12.899888
57.245 12.772274
57.250 12.954706
57.255 13.352715
57.260 13.238597
57.265 13.138939
57.270 12.961976
57.275 13.096569
57.280 12.761164
57.285 12.463119
57.290 12.391737
57.295 12.523589
57.300 13.054173
57.305 13.18469
57.310 13.266481
57.315 13.69781
57.320 13.834446
57.325 14.129322
57.330 14.150517
57.335 14.454581
57.340 14.397028
57.345 14.460516
57.350 14.586138
57.355 14.770953
57.360 14.785796
57.365 14.547137
57.370 14.254599
57.375 14.259777
57.380 14.30111
57.385 14.351171
57.390 14.265389
57.395 14.54438
57.400 14.821199
57.405 14.901842
57.410 15.101305
57.415 14.952588
57.420 14.331787
57.425 13.951269
57.430 13.754022
57.435 13.387899
57.440 13.468099
57.445 13.212975
57.450 13.118388
57.455 13.219374
57.460 12.893908
57.465 12.508146
57.470 12.560443
57.475 12.545524
57.480 12.822878
57.485 12.980248
57.490 13.549439
57.495 14.106045
57.500 14.038027
57.505 14.002412
57.510 13.921141
57.515 13.494941
57.520 13.646927
57.525 13.636119
57.530 13.643829
57.535 14.257866
57.540 14.69549
57.545 14.667446
57.550 14.762616
57.555 14.917148
57.560 15.184179
57.565 15.451131
57.570 15.01309
57.575 14.666651
57.580 14.870858
57.585 15.042842
57.590 14.63416
57.595 14.51445
57.600 14.187873
57.605 13.899316
57.610 13.855937
57.615 13.743466
57.620 13.837429
57.625 14.16093
57.630 14.554026
57.635 14.325867
57.640 14.465168
57.645 14.555773
57.650 14.894346
57.655 14.701702
57.660 14.295891
57.665 14.116648
57.670 14.340825
57.675 14.158761
57.680 13.952258
57.685 13.944935
57.690 14.353097
57.695 14.222621
57.700 13.776433
57.705 13.412413
57.710 13.490275
57.715 13.523002
57.720 14.048654
57.725 13.851004
57.730 14.198277
57.735 14.954403
57.740 14.992798
57.745 14.962187
57.750 15.346872
57.755 14.940787
57.760 14.92058
57.765 14.821108
57.770 14.514091
57.775 15.037654
57.780 15.416727
57.785 14.938271
57.790 14.231184
57.795 14.283504
57.800 13.863345
57.805 14.132324
57.810 14.389347
57.815 14.09891
57.820 14.152275
57.825 14.435821
57.830 14.563158
57.835 14.572706
57.840 14.366535
57.845 14.143983
57.850 14.487258
57.855 14.731242
57.860 14.689508
57.865 14.850181
57.870 15.430133
57.875 15.582124
57.880 15.315955
57.885 14.691009
57.890 14.242348
57.895 14.200253
57.900 13.74545
57.905 13.427164
57.910 13.095744
57.915 13.027985
57.920 13.211955
57.925 13.172424
57.930 12.779148
57.935 13.449346
57.940 13.50566
57.945 13.76313
57.950 14.150125
57.955 14.445778
57.960 14.874038
57.965 14.843087
57.970 14.518362
57.975 14.976632
57.980 14.92512
57.985 14.86267
57.990 14.606214
57.995 14.706066
58.000 14.85921
58.005 14.419069
58.010 13.72889
58.015 13.87389
58.020 13.696596
58.025 14.01193
58.030 14.062782
58.035 14.084931
58.040 14.530105
58.045 14.726097
58.050 14.639241
58.055 15.100975
58.060 15.081114
58.065 15.591926
58.070 15.849223
58.075 15.889436
58.080 16.399088
58.085 16.131752
58.090 16.138779
58.095 16.072487
58.100 15.736147
58.105 16.077919
58.110 16.139864
58.115 15.925369
58.120 16.130924
58.125 15.634353
58.130 15.733366
58.135 15.725692
58.140 15.111184
58.145 14.945289
58.150 14.671435
58.155 14.824692
58.160 15.176242
58.165 15.233548
58.170 15.711993
58.175 15.828549
58.180 16.490488
58.185 16.509493
58.190 16.418987
58.195 16.717234
58.200 16.684839
58.205 16.834909
58.210 16.6502
58.215 16.11738
58.220 16.290752
58.225 16.191303
58.230 15.776924
58.235 15.862315
58.240 15.571735
58.245 15.106764
58.250 14.521232
58.255 14.107748
58.260 13.921661
58.265 13.966977
58.270 13.665492
58.275 13.647437
58.280 14.286741
58.285 14.680426
58.290 14.992209
58.295 15.168735
58.300 15.163406
58.305 15.707926
58.310 15.766472
58.315 15.665677
58.320 16.104141
58.325 16.24394
58.330 15.685134
58.335 15.842095
58.340 15.500991
58.345 15.726726
58.350 15.653121
58.355 15.391378
58.360 15.288703
58.365 15.826762
58.370 15.207781
58.375 15.165748
58.380 14.972446
58.385 15.117835
58.390 15.046879
58.395 15.249491
58.400 15.122559
58.405 15.224849
58.410 15.424933
58.415 15.630123
58.420 15.362605
58.425 15.31394
58.430 15.399355
58.435 16.042925
58.440 16.072495
58.445 15.943858
58.450 15.530285
58.455 16.237333
58.460 16.576836
58.465 16.404839
58.470 16.443991
58.475 16.695688
58.480 16.905184
58.485 17.005463
58.490 16.449717
58.495 16.323492
58.500 16.447733
58.505 16.600275
