!@!!GADDS PLOTSO FILE: Chi integration type
!@!!Title/SampleName: map-da
!@!!Comment: ?
!@!!User: Bruker Instrument Administrator
!@!!Site: University of Illinois Chicago
!@!!Frame: map-da_01_000.gfrm
!@!!Wavelengths    1.54184   1.54056   1.54439
!@!!Frame angles: 2Theta: 63.000 Omega: 50.000 Phi: 0.000 Chi: 90.000
!@!!Integration range: 2Theta: 53.000 to 73.000  Gamma: -105.000 to -75.000
!@!!Integration method: bin normalized
!@!N
!@!SS
!@!M
!@!L 0.0 0.0 0.0 0.0
!@!XDegrees
!@!YCounts
53.000 7.307472
53.005 7.229712
53.010 6.973062
53.015 6.427082
53.020 6.365789
53.025 6.750808
53.030 6.925258
53.035 7.413176
53.040 7.542083
53.045 7.976252
53.050 8.366076
53.055 8.516303
53.060 8.287671
53.065 7.859944
53.070 7.839705
53.075 7.773092
53.080 7.53721
53.085 7.244669
53.090 7.476954
53.095 8.152694
53.100 8.740024
53.105 8.8805
53.110 9.116427
53.115 9.613388
53.120 9.703282
53.125 9.703206
53.130 9.640968
53.135 8.814641
53.140 8.254717
53.145 8.15032
53.150 8.337652
53.155 8.374743
53.160 8.03587
53.165 8.034306
53.170 8.09377
53.175 7.982285
53.180 7.775989
53.185 7.565682
53.190 7.401243
53.195 7.53489
53.200 8.085568
53.205 8.235263
53.210 8.37598
53.215 7.98059
53.220 7.721697
53.225 7.855197
53.230 7.432221
53.235 7.517842
53.240 8.132112
53.245 8.581399
53.250 9.363115
53.255 9.37196
53.260 9.232113
53.265 9.468433
53.270 9.19643
53.275 9.112506
53.280 9.197598
53.285 9.096021
53.290 9.374938
53.295 9.120298
53.300 8.704317
53.305 8.331911
53.310 7.986002
53.315 7.63501
53.320 7.365918
53.325 7.33284
53.330 7.491778
53.335 7.497168
53.340 7.580185
53.345 7.505368
53.350 7.728943
53.355 7.772514
53.360 7.578226
53.365 7.732787
53.370 7.757311
53.375 7.89597
53.380 7.947741
53.385 7.996178
53.390 8.382804
53.395 8.77503
53.400 9.181585
53.405 9.432076
53.410 9.378627
53.415 9.346134
53.420 9.25177
53.425 8.829608
53.430 8.290764
53.435 7.648065
53.440 7.9499
53.445 8.250134
53.450 8.234776
53.455 7.972114
53.460 8.011211
53.465 8.354111
53.470 8.518241
53.475 8.604296
53.480 9.092225
53.485 9.429929
53.490 10.023343
53.495 10.036341
53.500 10.24598
53.505 10.486118
53.510 10.413566
53.515 10.092988
53.520 9.998595
53.525 9.924639
53.530 10.035151
53.535 9.61752
53.540 9.253375
53.545 9.178417
53.550 9.090418
53.555 9.645215
53.560 9.826098
53.565 9.669252
53.570 9.918294
53.575 9.582025
53.580 9.330405
53.585 9.088544
53.590 8.762842
53.595 8.701092
53.600 8.893628
53.605 9.163087
53.610 9.385652
53.615 9.322289
53.620 8.872313
53.625 8.875462
53.630 9.06349
53.635 9.089575
53.640 9.003658
53.645 8.676573
53.650 8.903024
53.655 9.267567
53.660 8.792803
53.665 8.583034
53.670 8.400043
53.675 9.092028
53.680 9.407859
53.685 9.402106
53.690 9.819281
53.695 9.6239
53.700 9.453978
53.705 9.200538
53.710 8.921068
53.715 8.895799
53.720 9.115775
53.725 8.752373
53.730 8.875393
53.735 9.213675
53.740 9.503541
53.745 9.515862
53.750 9.29459
53.755 9.193942
53.760 9.972055
53.765 10.201916
53.770 10.030747
53.775 9.8532
53.780 10.396504
53.785 10.873332
53.790 10.968336
53.795 10.718942
53.800 10.863035
53.805 10.966812
53.810 11.311441
53.815 10.536995
53.820 10.576197
53.825 10.589762
53.830 10.212968
53.835 10.09619
53.840 9.992061
53.845 9.684277
53.850 9.615935
53.855 9.341201
53.860 9.344192
53.865 9.343335
53.870 9.061666
53.875 8.851205
53.880 8.882438
53.885 8.985627
53.890 8.756631
53.895 8.716479
53.900 8.642048
53.905 8.757958
53.910 9.235426
53.915 9.833186
53.920 9.691934
53.925 9.727139
53.930 9.714506
53.935 10.101446
53.940 10.310026
53.945 9.930505
53.950 9.783387
53.955 9.924849
53.960 10.108119
53.965 9.861346
53.970 9.253425
53.975 8.934087
53.980 9.198618
53.985 8.908788
53.990 8.856183
53.995 9.037264
54.000 9.642943
54.005 10.389724
54.010 10.461658
54.015 10.829519
54.020 11.197756
54.025 11.259149
54.030 11.199823
54.035 10.755011
54.040 10.673312
54.045 10.767789
54.050 10.411044
54.055 10.488546
54.060 10.368313
54.065 10.588826
54.070 11.180112
54.075 11.145132
54.080 10.814836
54.085 10.671174
54.090 10.54442
54.095 10.723108
54.100 10.802171
54.105 10.419146
54.110 10.348881
54.115 10.582525
54.120 10.968925
54.125 11.014848
54.130 10.461098
54.135 10.250976
54.140 9.910317
54.145 9.6461
54.150 9.434027
54.155 9.182487
54.160 9.672959
54.165 9.581948
54.170 9.520672
54.175 10.021148
54.180 10.30977
54.185 10.322989
54.190 10.268747
54.195 9.820758
54.200 9.680058
54.205 9.854498
54.210 9.903441
54.215 9.895064
54.220 10.049801
54.225 10.002684
54.230 10.517031
54.235 10.867019
54.240 11.098827
54.245 11.359209
54.250 11.352915
54.255 11.366367
54.260 11.247446
54.265 11.200115
54.270 11.003675
54.275 10.228021
54.280 9.788571
54.285 9.410631
54.290 9.340401
54.295 9.271073
54.300 8.833443
54.305 8.578984
54.310 8.482332
54.315 8.163629
54.320 8.353165
54.325 8.251479
54.330 8.269959
54.335 8.623129
54.340 8.773087
54.345 9.405803
54.350 10.174144
54.355 10.149537
54.360 9.717666
54.365 9.854321
54.370 10.425629
54.375 10.946858
54.380 10.64587
54.385 10.513554
54.390 11.007988
54.395 11.703257
54.400 11.366323
54.405 10.882372
54.410 10.560018
54.415 10.356003
54.420 10.431726
54.425 10.022463
54.430 9.667915
54.435 9.289649
54.440 9.415671
54.445 9.665863
54.450 9.878918
54.455 9.946324
54.460 10.498436
54.465 11.082081
54.470 11.811916
54.475 11.974494
54.480 12.136828
54.485 12.115506
54.490 11.572392
54.495 10.940123
54.500 10.6373
54.505 10.042126
54.510 9.875104
54.515 10.00394
54.520 9.822173
54.525 9.602121
54.530 9.777451
54.535 9.899582
54.540 9.800071
54.545 9.188292
54.550 8.683439
54.555 8.928876
54.560 9.208431
54.565 9.005085
54.570 8.722346
54.575 8.718459
54.580 9.138563
54.585 9.950371
54.590 10.744056
54.595 11.022324
54.600 11.385813
54.605 11.895889
54.610 11.690115
54.615 11.40195
54.620 10.992991
54.625 10.665998
54.630 10.429138
54.635 10.062482
54.640 9.579088
54.645 10.081931
54.650 10.064745
54.655 9.911182
54.660 9.686941
54.665 9.613047
54.670 9.781169
54.675 10.063439
54.680 10.245334
54.685 10.624124
54.690 10.36301
54.695 10.067978
54.700 10.170247
54.705 10.557995
54.710 10.685725
54.715 10.18762
54.720 9.773695
54.725 10.204314
54.730 10.721415
54.735 10.62002
54.740 10.344909
54.745 10.259761
54.750 10.434183
54.755 10.917887
54.760 10.935346
54.765 10.994381
54.770 11.045122
54.775 10.987878
54.780 10.803726
54.785 10.460255
54.790 9.935485
54.795 9.781139
54.800 9.698874
54.805 9.627542
54.810 9.864907
54.815 10.166877
54.820 10.329999
54.825 10.159417
54.830 10.104953
54.835 10.007659
54.840 10.214057
54.845 10.53302
54.850 10.64669
54.855 10.688447
54.860 10.573165
54.865 10.570343
54.870 10.742998
54.875 10.58454
54.880 10.273523
54.885 10.659402
54.890 10.764505
54.895 11.122136
54.900 11.833329
54.905 11.743625
54.910 11.689189
54.915 11.724829
54.920 11.075431
54.925 11.169108
54.930 10.851494
54.935 10.399043
54.940 10.741187
54.945 10.603522
54.950 11.00353
54.955 11.237079
54.960 11.503097
54.965 11.921558
54.970 12.206038
54.975 12.052303
54.980 12.492725
54.985 12.492068
54.990 12.148937
54.995 12.10945
55.000 11.39149
55.005 10.794834
55.010 10.716091
55.015 10.283672
55.020 10.09266
55.025 10.287154
55.030 10.227971
55.035 10.77967
55.040 10.891815
55.045 11.214371
55.050 11.45637
55.055 11.917813
55.060 12.165232
55.065 12.211014
55.070 12.621711
55.075 12.825964
55.080 12.565078
55.085 12.411162
55.090 11.836549
55.095 11.437257
55.100 10.997313
55.105 10.752617
55.110 10.973352
55.115 11.360487
55.120 12.019966
55.125 12.335638
55.130 12.555283
55.135 12.634978
55.140 12.304937
55.145 11.786514
55.150 10.99274
55.155 10.518812
55.160 10.679894
55.165 10.755523
55.170 11.057243
55.175 11.08494
55.180 11.170049
55.185 11.721266
55.190 11.609245
55.195 11.342336
55.200 11.294622
55.205 10.895351
55.210 10.981586
55.215 11.400151
55.220 11.289067
55.225 10.959875
55.230 10.912486
55.235 11.18581
55.240 11.596997
55.245 11.660553
55.250 11.385489
55.255 11.537771
55.260 12.169533
55.265 12.741994
55.270 12.577364
55.275 12.433011
55.280 12.234089
55.285 11.883519
55.290 11.86519
55.295 11.168706
55.300 10.24102
55.305 10.165153
55.310 10.082154
55.315 10.81665
55.320 11.367168
55.325 11.073153
55.330 11.42336
55.335 11.67449
55.340 11.678789
55.345 11.436279
55.350 10.708968
55.355 10.593996
55.360 10.88004
55.365 11.007105
55.370 11.147115
55.375 11.314165
55.380 11.805154
55.385 12.006157
55.390 12.344281
55.395 13.133205
55.400 12.74916
55.405 12.488826
55.410 12.367085
55.415 12.164404
55.420 12.336778
55.425 11.248046
55.430 10.378763
55.435 10.59726
55.440 10.570294
55.445 10.570929
55.450 10.35006
55.455 9.965283
55.460 10.316975
55.465 10.931312
55.470 11.115288
55.475 11.312272
55.480 11.188747
55.485 11.17431
55.490 11.563315
55.495 11.792435
55.500 11.014443
55.505 10.705367
55.510 10.389227
55.515 10.203798
55.520 9.956686
55.525 10.028581
55.530 9.962844
55.535 10.194074
55.540 10.323527
55.545 10.952674
55.550 11.655565
55.555 12.268029
55.560 12.439043
55.565 12.48312
55.570 12.663421
55.575 12.759736
55.580 12.430092
55.585 12.416541
55.590 12.359736
55.595 12.135831
55.600 11.893574
55.605 11.872648
55.610 12.150369
55.615 12.207021
55.620 11.581642
55.625 11.506758
55.630 11.90341
55.635 12.124043
55.640 11.801474
55.645 11.758484
55.650 11.902874
55.655 11.672152
55.660 11.180961
55.665 11.000527
55.670 11.135402
55.675 11.328042
55.680 11.097166
55.685 11.309852
55.690 11.723193
55.695 11.669505
55.700 11.809537
55.705 11.836259
55.710 12.459163
55.715 12.713618
55.720 12.499454
55.725 12.977372
55.730 13.602955
55.735 13.317369
55.740 13.124019
55.745 12.520308
55.750 12.572238
55.755 12.649457
55.760 11.988252
55.765 11.94914
55.770 12.379333
55.775 12.670725
55.780 12.471919
55.785 12.366197
55.790 12.416655
55.795 12.289963
55.800 12.21587
55.805 12.061132
55.810 11.810692
55.815 11.639237
55.820 11.263685
55.825 11.18512
55.830 11.75883
55.835 11.650186
55.840 11.216995
55.845 11.146302
55.850 11.824678
55.855 12.65355
55.860 12.658858
55.865 12.368917
55.870 12.452118
55.875 12.969203
55.880 13.394665
55.885 12.95999
55.890 12.945649
55.895 13.098094
55.900 12.980072
55.905 12.613834
55.910 12.795837
55.915 12.461021
55.920 12.239543
55.925 11.568126
55.930 11.207313
55.935 11.551679
55.940 11.973396
55.945 12.054573
55.950 12.126486
55.955 12.561935
55.960 12.309064
55.965 11.843143
55.970 11.698138
55.975 11.37921
55.980 11.344261
55.985 11.363482
55.990 10.795787
55.995 11.483222
56.000 12.015197
56.005 11.62646
56.010 11.741229
56.015 11.851473
56.020 11.82524
56.025 11.813733
56.030 11.832129
56.035 11.7833
56.040 11.908132
56.045 11.747739
56.050 11.662042
56.055 11.868779
56.060 12.314791
56.065 12.054239
56.070 12.292116
56.075 12.757994
56.080 12.438765
56.085 12.67871
56.090 12.59563
56.095 12.73872
56.100 12.553779
56.105 12.374826
56.110 12.387081
56.115 12.913041
56.120 12.329622
56.125 12.03633
56.130 11.458943
56.135 12.004366
56.140 12.006567
56.145 11.466539
56.150 11.075177
56.155 11.811138
56.160 12.07497
56.165 12.48868
56.170 12.048562
56.175 11.921336
56.180 12.103284
56.185 12.530452
56.190 12.013275
56.195 11.969727
56.200 12.137309
56.205 12.261264
56.210 12.321191
56.215 12.492453
56.220 11.955573
56.225 12.211987
56.230 11.958266
56.235 11.733335
56.240 11.877514
56.245 12.392271
56.250 12.55877
56.255 12.527966
56.260 12.035547
56.265 12.172091
56.270 12.344614
56.275 12.15072
56.280 11.904611
56.285 12.044322
56.290 12.544844
56.295 13.067048
56.300 13.00898
56.305 13.031941
56.310 13.372318
56.315 13.253849
56.320 13.424582
56.325 13.186351
56.330 13.476718
56.335 13.955655
56.340 14.042324
56.345 13.950217
56.350 13.923447
56.355 13.761733
56.360 13.74806
56.365 13.650382
56.370 13.583065
56.375 13.371824
56.380 13.080007
56.385 12.844695
56.390 12.767017
56.395 12.448747
56.400 12.349275
56.405 11.809288
56.410 11.772833
56.415 11.96107
56.420 12.394996
56.425 12.328685
56.430 12.671265
56.435 12.687659
56.440 12.920053
56.445 12.761494
56.450 12.605365
56.455 12.65993
56.460 12.588212
56.465 12.483513
56.470 12.460952
56.475 12.582185
56.480 13.148847
56.485 13.434996
56.490 14.378614
56.495 14.760039
56.500 14.602281
56.505 14.562306
56.510 14.677706
56.515 14.710007
56.520 14.947159
56.525 14.085314
56.530 13.871222
56.535 14.463002
56.540 14.630601
56.545 14.861676
56.550 14.770164
56.555 14.505859
56.560 14.650454
56.565 14.55479
56.570 14.207301
56.575 13.395514
56.580 13.101592
56.585 12.707457
56.590 12.24803
56.595 12.869893
56.600 12.867172
56.605 12.783874
56.610 12.872663
56.615 12.958466
56.620 12.997665
56.625 13.263873
56.630 12.548309
56.635 13.130141
56.640 13.711116
56.645 14.294227
56.650 14.184599
56.655 14.064102
56.660 14.047686
56.665 14.186833
56.670 13.410327
56.675 12.887882
56.680 12.664706
56.685 12.845798
56.690 13.528403
56.695 13.691171
56.700 14.395265
56.705 15.052071
56.710 15.08126
56.715 15.02158
56.720 14.983557
56.725 14.710804
56.730 14.287368
56.735 14.025189
56.740 14.07884
56.745 14.474617
56.750 14.382417
56.755 14.133655
56.760 14.084738
56.765 14.062528
56.770 14.06444
56.775 14.319677
56.780 14.15541
56.785 14.154874
56.790 13.959911
56.795 13.855162
56.800 13.711504
56.805 13.785126
56.810 13.711193
56.815 13.95475
56.820 14.120521
56.825 14.852155
56.830 14.925032
56.835 14.532494
56.840 14.101187
56.845 13.739165
56.850 13.686706
56.855 13.143725
56.860 12.447496
56.865 12.780588
56.870 13.57598
56.875 13.983109
56.880 14.260867
56.885 14.321728
56.890 14.774384
56.895 15.154179
56.900 15.149961
56.905 14.820796
56.910 14.561461
56.915 14.347718
56.920 14.119089
56.925 14.252186
56.930 14.273665
56.935 13.971179
56.940 13.711248
56.945 13.5382
56.950 13.332339
56.955 13.291718
56.960 12.724738
56.965 12.619369
56.970 12.997326
56.975 12.907753
56.980 12.437858
56.985 12.602879
56.990 13.061286
56.995 14.281379
57.000 14.379891
57.005 14.071697
57.010 14.49982
57.015 14.980064
57.020 15.878132
57.025 15.951059
57.030 15.475305
57.035 15.444634
57.040 15.793786
57.045 15.418086
57.050 15.024549
57.055 14.493086
57.060 14.478069
57.065 14.112118
57.070 13.886391
57.075 13.95375
57.080 13.844301
57.085 13.618405
57.090 13.602847
57.095 13.764227
57.100 13.800433
57.105 13.789733
57.110 13.525092
57.115 14.358793
57.120 14.782763
57.125 14.52609
57.130 13.973605
57.135 13.965467
57.140 14.2909
57.145 14.964588
57.150 14.55724
57.155 14.539145
57.160 14.545639
57.165 14.62372
57.170 14.121977
57.175 13.739762
57.180 12.983948
57.185 12.687113
57.190 12.596168
57.195 12.995482
57.200 13.166802
57.205 13.773319
57.210 13.356506
57.215 13.661651
57.220 14.097069
57.225 13.902277
57.230 13.427755
57.235 12.966876
57.240 12.664544
57.245 13.087033
57.250 12.840135
57.255 12.616455
57.260 12.404017
57.265 12.487678
57.270 12.64434
57.275 12.914505
57.280 13.123412
57.285 13.513718
57.290 13.374688
57.295 13.834437
57.300 14.622499
57.305 14.94196
57.310 14.955379
57.315 15.050493
57.320 15.201787
57.325 15.37431
57.330 14.994397
57.335 14.638368
57.340 14.540297
57.345 14.320965
57.350 13.77783
57.355 13.621086
57.360 13.852839
57.365 14.094729
57.370 14.173441
57.375 14.308413
57.380 14.82668
57.385 14.954743
57.390 15.350089
57.395 15.246105
57.400 14.966726
57.405 14.714247
57.410 14.659737
57.415 14.732387
57.420 14.465921
57.425 14.3585
57.430 14.293772
57.435 14.256303
57.440 14.631316
57.445 14.85827
57.450 14.420218
57.455 14.65923
57.460 14.564301
57.465 14.7642
57.470 14.826896
57.475 14.427948
57.480 14.41674
57.485 14.863675
57.490 14.994231
57.495 14.951314
57.500 15.337186
57.505 15.63485
57.510 15.698461
57.515 15.661457
57.520 15.678688
57.525 15.862497
57.530 15.558954
57.535 14.768395
57.540 14.935052
57.545 14.855836
57.550 14.620592
57.555 14.156687
57.560 13.641021
57.565 13.677759
57.570 13.89396
57.575 13.704689
57.580 14.09575
57.585 14.092596
57.590 14.041168
57.595 13.733622
57.600 14.199696
57.605 14.631067
57.610 14.669787
57.615 14.85466
57.620 14.898973
57.625 15.220906
57.630 15.826959
57.635 15.495485
57.640 14.894666
57.645 14.651885
57.650 14.366582
57.655 14.463954
57.660 14.059218
57.665 13.665973
57.670 13.72855
57.675 14.012429
57.680 14.304699
57.685 14.441133
57.690 14.324386
57.695 14.61805
57.700 15.25491
57.705 15.924326
57.710 16.22127
57.715 15.962125
57.720 15.666415
57.725 15.527472
57.730 15.109124
57.735 15.084759
57.740 14.23638
57.745 13.881794
57.750 14.190809
57.755 14.181809
57.760 14.567614
57.765 14.904183
57.770 14.980502
57.775 15.622586
57.780 15.571476
57.785 15.183848
57.790 14.926394
57.795 14.455567
57.800 14.307344
57.805 13.366933
57.810 12.604651
57.815 12.787772
57.820 13.275509
57.825 13.690113
57.830 13.868896
57.835 14.244742
57.840 14.892942
57.845 15.358343
57.850 15.005417
57.855 14.402541
57.860 14.232304
57.865 14.438866
57.870 14.212546
57.875 14.220857
57.880 14.203911
57.885 14.871714
57.890 15.454658
57.895 15.359139
57.900 15.099576
57.905 15.333928
57.910 15.309362
57.915 15.454512
57.920 15.342268
57.925 14.861436
57.930 15.009347
57.935 15.353395
57.940 15.041602
57.945 15.145064
57.950 14.666138
57.955 14.454033
57.960 14.525047
57.965 14.556867
57.970 14.918695
57.975 15.050004
57.980 14.730202
57.985 15.414534
57.990 15.505858
57.995 15.72574
58.000 15.771631
58.005 15.281208
58.010 15.407926
58.015 15.790953
58.020 15.041224
58.025 14.924737
58.030 14.965456
58.035 15.339502
58.040 16.396626
58.045 16.530418
58.050 16.433475
58.055 16.848133
58.060 16.806417
58.065 17.056112
58.070 16.531118
58.075 15.383471
58.080 15.227315
58.085 14.909714
58.090 15.190075
58.095 15.22156
58.100 14.812247
58.105 15.037317
58.110 14.662312
58.115 14.674901
58.120 15.33194
58.125 15.643748
58.130 15.807362
58.135 15.618402
58.140 15.61663
58.145 16.278055
58.150 16.248606
58.155 15.58045
58.160 14.917616
58.165 15.363835
58.170 16.161432
58.175 15.571065
58.180 14.980137
58.185 14.663942
58.190 14.519349
58.195 14.507549
58.200 13.882605
58.205 13.633427
58.210 14.63693
58.215 15.662522
58.220 15.680603
58.225 15.856094
58.230 16.007786
58.235 15.714741
58.240 15.312369
58.245 14.632519
58.250 13.376829
58.255 13.410052
58.260 13.732233
58.265 14.074813
58.270 14.161524
58.275 14.153291
58.280 14.638832
58.285 15.126818
58.290 14.865843
58.295 14.37594
58.300 13.947846
58.305 14.4725
58.310 14.794882
58.315 14.736159
58.320 14.673656
58.325 14.57446
58.330 14.909783
58.335 14.781288
58.340 14.342142
58.345 14.03382
58.350 13.836171
58.355 14.13973
58.360 14.440917
58.365 14.429417
58.370 15.167542
58.375 15.563681
58.380 15.119628
58.385 15.172269
58.390 15.241683
58.395 15.398135
58.400 15.306158
58.405 14.4683
58.410 14.591651
58.415 15.172146
58.420 15.518471
58.425 15.849135
58.430 15.57985
58.435 15.667671
58.440 16.006475
58.445 15.734892
58.450 15.845085
58.455 15.820564
58.460 16.079426
58.465 16.1122
58.470 16.181505
58.475 15.944264
58.480 16.368914
58.485 16.735279
58.490 16.175722
58.495 16.455421
58.500 16.255613
58.505 16.039711
58.510 16.305786
58.515 15.813955
