!@!!GADDS PLOTSO FILE: Chi integration type
!@!!Title/SampleName: map-84
!@!!Comment: ?
!@!!User: Bruker Instrument Administrator
!@!!Site: University of Illinois Chicago
!@!!Frame: map-84_01_000.gfrm
!@!!Wavelengths    1.54184   1.54056   1.54439
!@!!Frame angles: 2Theta: 63.000 Omega: 50.000 Phi: 0.000 Chi: 90.000
!@!!Integration range: 2Theta: 53.000 to 73.000  Gamma: -105.000 to -75.000
!@!!Integration method: bin normalized
!@!N
!@!SS
!@!M
!@!L 0.0 0.0 0.0 0.0
!@!XDegrees
!@!YCounts
53.000 6.974002
53.005 7.313598
53.010 7.381699
53.015 7.937616
53.020 8.125006
53.025 8.035078
53.030 8.454529
53.035 8.660933
53.040 8.596167
53.045 8.48761
53.050 7.647429
53.055 7.529433
53.060 7.322113
53.065 7.288634
53.070 7.648373
53.075 7.62851
53.080 7.765917
53.085 8.113176
53.090 8.239826
53.095 8.809803
53.100 8.645399
53.105 8.727973
53.110 9.166764
53.115 9.617277
53.120 9.748563
53.125 9.636993
53.130 9.016955
53.135 8.935429
53.140 8.800646
53.145 8.262374
53.150 8.146799
53.155 8.329242
53.160 8.088678
53.165 8.221497
53.170 8.337241
53.175 8.399326
53.180 8.682895
53.185 8.764989
53.190 8.206663
53.195 8.340592
53.200 8.418176
53.205 8.256321
53.210 8.36926
53.215 8.172311
53.220 8.135737
53.225 8.586771
53.230 9.02315
53.235 8.980661
53.240 8.741774
53.245 8.690447
53.250 8.825742
53.255 8.694032
53.260 8.348348
53.265 7.87368
53.270 8.30542
53.275 8.723227
53.280 8.682499
53.285 8.246404
53.290 9.036495
53.295 9.443643
53.300 9.54913
53.305 9.148532
53.310 8.929705
53.315 8.649514
53.320 8.67738
53.325 8.230906
53.330 8.954116
53.335 9.323795
53.340 9.334215
53.345 9.464834
53.350 9.870548
53.355 10.007629
53.360 9.623042
53.365 8.642471
53.370 8.668114
53.375 8.934763
53.380 9.17629
53.385 9.32655
53.390 9.442657
53.395 9.323074
53.400 9.397544
53.405 9.31386
53.410 9.033897
53.415 8.866411
53.420 8.738378
53.425 9.02472
53.430 8.773429
53.435 8.750319
53.440 9.013976
53.445 9.338728
53.450 9.094882
53.455 8.758156
53.460 8.547926
53.465 8.803368
53.470 8.913713
53.475 8.203545
53.480 8.291556
53.485 8.36965
53.490 8.523965
53.495 8.544959
53.500 8.529123
53.505 8.864569
53.510 9.308045
53.515 9.194121
53.520 9.3335
53.525 9.387938
53.530 9.441139
53.535 9.218477
53.540 8.906423
53.545 8.670547
53.550 8.455441
53.555 8.371381
53.560 8.221601
53.565 8.371341
53.570 8.160892
53.575 8.262456
53.580 8.144091
53.585 7.868903
53.590 7.609697
53.595 7.431571
53.600 7.547757
53.605 7.813975
53.610 7.955364
53.615 8.328048
53.620 8.932311
53.625 9.272914
53.630 9.87265
53.635 10.22846
53.640 9.76335
53.645 9.618572
53.650 9.650945
53.655 10.020343
53.660 10.417756
53.665 9.8781
53.670 9.69143
53.675 9.88889
53.680 9.585139
53.685 9.321277
53.690 9.020364
53.695 9.130179
53.700 9.559582
53.705 9.620199
53.710 9.995642
53.715 10.138301
53.720 10.153014
53.725 10.02939
53.730 9.91507
53.735 9.793645
53.740 9.71859
53.745 9.576285
53.750 9.453553
53.755 9.636146
53.760 9.180813
53.765 8.5819
53.770 8.676017
53.775 8.365731
53.780 8.287671
53.785 8.104953
53.790 7.928855
53.795 8.417979
53.800 8.873829
53.805 8.756578
53.810 9.271379
53.815 9.332792
53.820 9.484459
53.825 9.256897
53.830 8.875922
53.835 8.754039
53.840 8.85244
53.845 8.947842
53.850 9.284717
53.855 9.810611
53.860 10.349626
53.865 10.057397
53.870 9.509182
53.875 9.305505
53.880 9.391248
53.885 8.908743
53.890 8.491674
53.895 8.484182
53.900 9.012954
53.905 9.706156
53.910 9.834231
53.915 9.715388
53.920 9.959118
53.925 9.815725
53.930 10.118226
53.935 9.934459
53.940 9.546405
53.945 9.4823
53.950 9.451783
53.955 9.386478
53.960 8.99384
53.965 8.776905
53.970 8.884218
53.975 8.855103
53.980 8.683234
53.985 8.194366
53.990 8.239636
53.995 8.277998
54.000 8.146718
54.005 8.214369
54.010 8.553803
54.015 8.625761
54.020 8.749759
54.025 8.94746
54.030 9.108959
54.035 9.297916
54.040 9.540095
54.045 9.436088
54.050 9.753085
54.055 9.719011
54.060 9.539228
54.065 9.365656
54.070 9.284286
54.075 9.257927
54.080 9.164765
54.085 9.014606
54.090 8.999944
54.095 8.891706
54.100 9.005472
54.105 9.105119
54.110 9.217113
54.115 9.54302
54.120 9.957788
54.125 10.513221
54.130 10.634678
54.135 10.47327
54.140 9.939469
54.145 9.879628
54.150 9.491076
54.155 9.347474
54.160 9.152812
54.165 9.215254
54.170 9.31014
54.175 9.399198
54.180 9.343575
54.185 9.206767
54.190 9.362404
54.195 9.214567
54.200 9.412885
54.205 9.431097
54.210 9.096677
54.215 9.01982
54.220 8.988721
54.225 9.302166
54.230 9.268232
54.235 9.778211
54.240 10.433561
54.245 10.906624
54.250 11.116179
54.255 10.963394
54.260 10.36976
54.265 10.218637
54.270 9.61377
54.275 9.134289
54.280 9.189808
54.285 9.312181
54.290 9.6795
54.295 10.198728
54.300 10.643292
54.305 10.72179
54.310 11.171929
54.315 11.458744
54.320 11.013631
54.325 10.859306
54.330 10.484153
54.335 10.111948
54.340 10.373715
54.345 9.844638
54.350 9.859655
54.355 10.125774
54.360 9.970285
54.365 10.083243
54.370 10.332545
54.375 10.031211
54.380 10.30099
54.385 9.978703
54.390 10.307135
54.395 10.44042
54.400 9.914577
54.405 9.684975
54.410 9.766133
54.415 9.165611
54.420 9.345379
54.425 9.217228
54.430 9.294713
54.435 9.109048
54.440 8.925303
54.445 9.210005
54.450 9.410077
54.455 8.902003
54.460 8.762794
54.465 9.265889
54.470 9.973362
54.475 10.400176
54.480 10.387917
54.485 10.664226
54.490 10.821908
54.495 10.830616
54.500 10.555471
54.505 10.130289
54.510 9.688251
54.515 9.278189
54.520 9.078353
54.525 9.103297
54.530 9.206805
54.535 9.562977
54.540 9.728256
54.545 9.904349
54.550 10.121833
54.555 10.527472
54.560 10.552899
54.565 10.371521
54.570 10.228148
54.575 10.289639
54.580 10.046181
54.585 10.252702
54.590 10.400318
54.595 10.598127
54.600 10.724129
54.605 10.707027
54.610 10.482362
54.615 10.862875
54.620 10.799107
54.625 10.23923
54.630 9.991746
54.635 9.849051
54.640 10.123005
54.645 10.375368
54.650 10.454141
54.655 10.299374
54.660 10.534657
54.665 10.52626
54.670 10.315566
54.675 10.116883
54.680 10.087167
54.685 9.545286
54.690 9.862635
54.695 10.323941
54.700 10.520228
54.705 10.296161
54.710 10.072294
54.715 10.436234
54.720 10.955299
54.725 10.848035
54.730 10.306396
54.735 10.496514
54.740 11.002185
54.745 10.761992
54.750 10.092908
54.755 10.190841
54.760 10.384295
54.765 10.458011
54.770 10.256385
54.775 10.10036
54.780 9.977629
54.785 9.934886
54.790 9.569754
54.795 9.733226
54.800 9.908414
54.805 9.93652
54.810 10.568305
54.815 11.250239
54.820 12.189173
54.825 12.083598
54.830 11.548226
54.835 11.522204
54.840 11.289135
54.845 11.084702
54.850 10.353157
54.855 9.255942
54.860 9.365273
54.865 9.953504
54.870 10.082108
54.875 10.689815
54.880 10.74807
54.885 10.999983
54.890 11.321113
54.895 10.958321
54.900 10.629725
54.905 10.373232
54.910 9.97421
54.915 9.921696
54.920 10.196368
54.925 10.256859
54.930 10.448556
54.935 10.61778
54.940 10.688625
54.945 10.575801
54.950 10.785649
54.955 10.789927
54.960 10.666453
54.965 10.877566
54.970 10.889368
54.975 10.83098
54.980 10.518786
54.985 10.381108
54.990 10.408112
54.995 10.18786
55.000 9.862729
55.005 10.000189
55.010 10.530092
55.015 10.925305
55.020 10.765347
55.025 11.154944
55.030 11.655194
55.035 11.443958
55.040 11.458668
55.045 11.292458
55.050 11.089788
55.055 10.872139
55.060 10.568735
55.065 10.270299
55.070 10.501007
55.075 10.290172
55.080 10.277561
55.085 10.285058
55.090 10.042828
55.095 9.821494
55.100 9.87942
55.105 10.114473
55.110 10.26938
55.115 10.464127
55.120 10.886543
55.125 10.991172
55.130 10.982801
55.135 11.088099
55.140 10.616074
55.145 10.095571
55.150 9.747766
55.155 9.666217
55.160 9.685733
55.165 10.04692
55.170 10.102986
55.175 10.548697
55.180 11.021547
55.185 11.589712
55.190 12.103455
55.195 12.053271
55.200 11.641261
55.205 12.012083
55.210 11.810282
55.215 11.801499
55.220 11.471086
55.225 11.325988
55.230 11.655124
55.235 11.576798
55.240 11.211151
55.245 11.219273
55.250 10.864732
55.255 10.730716
55.260 10.772364
55.265 10.892514
55.270 11.219762
55.275 11.347945
55.280 11.406511
55.285 11.651949
55.290 11.616976
55.295 11.066009
55.300 10.967166
55.305 10.634468
55.310 10.439278
55.315 9.98433
55.320 10.120994
55.325 10.379034
55.330 10.955558
55.335 10.731875
55.340 10.81628
55.345 11.035225
55.350 11.428944
55.355 11.664909
55.360 11.80515
55.365 12.067391
55.370 12.268877
55.375 12.137494
55.380 12.205305
55.385 12.051807
55.390 11.255054
55.395 10.725964
55.400 10.504595
55.405 10.554185
55.410 10.271842
55.415 10.25869
55.420 10.371025
55.425 10.290575
55.430 10.887217
55.435 11.140309
55.440 11.539733
55.445 11.603307
55.450 11.220908
55.455 11.464553
55.460 11.743098
55.465 11.239959
55.470 11.042833
55.475 10.796505
55.480 10.622526
55.485 10.366011
55.490 10.215657
55.495 9.885656
55.500 9.756598
55.505 9.840868
55.510 9.532625
55.515 9.647431
55.520 10.23754
55.525 10.06555
55.530 10.349897
55.535 10.604488
55.540 10.852947
55.545 11.23145
55.550 11.383962
55.555 11.4157
55.560 11.42689
55.565 10.687025
55.570 10.29143
55.575 10.3734
55.580 10.962832
55.585 10.980106
55.590 10.810138
55.595 11.332555
55.600 11.661851
55.605 11.421788
55.610 11.21065
55.615 10.871369
55.620 10.731307
55.625 10.693864
55.630 10.53037
55.635 10.715376
55.640 10.937927
55.645 10.416974
55.650 10.334822
55.655 10.327726
55.660 10.270591
55.665 9.688993
55.670 10.151816
55.675 10.491969
55.680 10.685201
55.685 11.038803
55.690 10.917917
55.695 10.675975
55.700 11.065087
55.705 10.615477
55.710 10.427172
55.715 10.747697
55.720 10.259611
55.725 10.544254
55.730 10.955813
55.735 10.886115
55.740 11.046294
55.745 11.552286
55.750 11.35955
55.755 11.057726
55.760 10.982466
55.765 11.007002
55.770 11.070037
55.775 10.877325
55.780 10.774579
55.785 10.982865
55.790 11.618426
55.795 11.665297
55.800 11.254771
55.805 11.24562
55.810 11.058607
55.815 10.784288
55.820 10.949052
55.825 10.867045
55.830 10.949615
55.835 11.564379
55.840 11.717206
55.845 12.231523
55.850 12.397855
55.855 12.476042
55.860 12.342517
55.865 12.402114
55.870 12.451921
55.875 12.528819
55.880 11.766863
55.885 12.054424
55.890 12.198514
55.895 12.112977
55.900 12.339991
55.905 12.306758
55.910 12.453999
55.915 12.54823
55.920 11.79451
55.925 11.257911
55.930 11.508078
55.935 11.624551
55.940 11.439181
55.945 11.310745
55.950 11.194525
55.955 11.684453
55.960 12.23393
55.965 12.134602
55.970 12.127603
55.975 11.520036
55.980 11.623747
55.985 11.821572
55.990 11.709105
55.995 11.220839
56.000 10.604548
56.005 10.150811
56.010 10.629013
56.015 10.608006
56.020 10.661561
56.025 11.377958
56.030 11.73397
56.035 11.809528
56.040 11.936205
56.045 11.327413
56.050 11.474347
56.055 11.207791
56.060 10.24514
56.065 10.181763
56.070 10.408975
56.075 10.883558
56.080 11.459401
56.085 11.460703
56.090 11.670581
56.095 12.215619
56.100 12.285426
56.105 12.28817
56.110 12.174819
56.115 12.220703
56.120 12.370272
56.125 11.99553
56.130 11.596294
56.135 12.066898
56.140 11.859756
56.145 11.814694
56.150 11.848735
56.155 11.781468
56.160 11.940864
56.165 12.073663
56.170 11.9682
56.175 12.130354
56.180 11.658711
56.185 11.396917
56.190 11.263149
56.195 10.978845
56.200 10.833785
56.205 10.74186
56.210 11.005323
56.215 11.033433
56.220 10.979332
56.225 11.157268
56.230 11.865301
56.235 12.093403
56.240 12.541793
56.245 12.763333
56.250 12.754923
56.255 13.010834
56.260 13.126687
56.265 12.834244
56.270 12.626121
56.275 12.289928
56.280 12.512753
56.285 12.958184
56.290 12.781917
56.295 12.66587
56.300 12.629814
56.305 12.622308
56.310 12.101818
56.315 11.661415
56.320 11.55084
56.325 11.470035
56.330 11.265653
56.335 11.098567
56.340 11.468102
56.345 12.378824
56.350 13.084188
56.355 13.188071
56.360 13.151615
56.365 13.722588
56.370 14.208587
56.375 13.74414
56.380 12.806606
56.385 12.672006
56.390 12.913327
56.395 13.120436
56.400 13.138912
56.405 12.746208
56.410 12.786774
56.415 12.700322
56.420 12.109496
56.425 11.731753
56.430 11.5697
56.435 11.427523
56.440 11.918446
56.445 12.425476
56.450 12.501018
56.455 12.429747
56.460 12.441284
56.465 12.154585
56.470 12.032427
56.475 11.391628
56.480 11.572915
56.485 12.020594
56.490 12.149626
56.495 12.492191
56.500 12.649023
56.505 12.631635
56.510 13.385866
56.515 13.310289
56.520 13.32388
56.525 13.829032
56.530 13.841693
56.535 14.069342
56.540 14.278781
56.545 13.656951
56.550 13.315574
56.555 12.873903
56.560 12.102762
56.565 11.79317
56.570 11.532804
56.575 11.395599
56.580 11.483186
56.585 11.812902
56.590 12.057148
56.595 12.514441
56.600 13.231386
56.605 13.473777
56.610 13.822324
56.615 13.670066
56.620 13.133918
56.625 13.352628
56.630 12.986904
56.635 12.015821
56.640 11.802109
56.645 11.284615
56.650 11.291549
56.655 11.596367
56.660 11.692348
56.665 11.742832
56.670 11.992365
56.675 11.82669
56.680 11.861103
56.685 12.143994
56.690 11.928673
56.695 11.615085
56.700 11.904963
56.705 11.943161
56.710 12.428269
56.715 12.535848
56.720 12.419013
56.725 12.454515
56.730 12.374656
56.735 12.238614
56.740 11.952616
56.745 11.476955
56.750 11.529565
56.755 11.623973
56.760 12.116604
56.765 12.126564
56.770 11.980739
56.775 12.191934
56.780 12.679301
56.785 12.538891
56.790 12.567506
56.795 12.654794
56.800 13.424016
56.805 13.96963
56.810 13.920078
56.815 13.515792
56.820 13.31258
56.825 12.859655
56.830 12.3468
56.835 11.445646
56.840 11.397036
56.845 11.478143
56.850 11.869246
56.855 11.944369
56.860 11.959465
56.865 12.532028
56.870 12.943734
56.875 12.577443
56.880 12.815995
56.885 12.78301
56.890 13.073756
56.895 13.642304
56.900 13.214056
56.905 12.723792
56.910 12.709584
56.915 12.350231
56.920 12.275742
56.925 12.291173
56.930 11.912121
56.935 11.677447
56.940 12.029743
56.945 11.982687
56.950 11.754062
56.955 11.007641
56.960 10.467405
56.965 10.790343
56.970 11.627955
56.975 11.731971
56.980 11.574562
56.985 11.530022
56.990 12.148422
56.995 12.618109
57.000 12.133893
57.005 11.856533
57.010 11.681616
57.015 12.173211
57.020 12.544605
57.025 12.359036
57.030 12.238945
57.035 12.369709
57.040 12.210617
57.045 11.973423
57.050 11.673627
57.055 11.806153
57.060 11.80248
57.065 11.919386
57.070 12.180133
57.075 12.200347
57.080 12.437889
57.085 12.38592
57.090 12.514528
57.095 12.472533
57.100 12.340229
57.105 12.461851
57.110 12.593354
57.115 12.45254
57.120 12.566051
57.125 12.300762
57.130 12.286108
57.135 12.164139
57.140 12.0795
57.145 12.14283
57.150 12.03309
57.155 11.951566
57.160 12.208482
57.165 12.315902
57.170 12.103062
57.175 12.195114
57.180 12.392533
57.185 12.736838
57.190 12.95841
57.195 12.539612
57.200 12.636351
57.205 13.030922
57.210 12.422327
57.215 11.988686
57.220 11.780032
57.225 11.714876
57.230 11.878121
57.235 12.050986
57.240 12.364399
57.245 13.407643
57.250 14.25201
57.255 14.403337
57.260 14.504164
57.265 14.540277
57.270 14.301817
57.275 13.951681
57.280 13.641501
57.285 13.394601
57.290 13.228875
57.295 13.579763
57.300 14.34833
57.305 14.124939
57.310 13.721005
57.315 13.505874
57.320 13.46652
57.325 13.864848
57.330 13.577534
57.335 12.519882
57.340 12.358927
57.345 12.283342
57.350 12.161494
57.355 12.398305
57.360 12.398649
57.365 12.558815
57.370 12.941305
57.375 13.35551
57.380 13.544559
57.385 12.746989
57.390 12.333176
57.395 11.927432
57.400 11.555061
57.405 11.646579
57.410 11.646866
57.415 11.789076
57.420 12.436127
57.425 12.259571
57.430 12.625547
57.435 12.890889
57.440 13.4449
57.445 13.572106
57.450 13.579482
57.455 13.823389
57.460 14.230412
57.465 14.034434
57.470 13.776417
57.475 13.295028
57.480 13.208565
57.485 13.027896
57.490 12.719937
57.495 12.428988
57.500 12.45782
57.505 12.753618
57.510 13.129906
57.515 13.023442
57.520 13.255787
57.525 13.429736
57.530 13.390615
57.535 13.418162
57.540 13.432215
57.545 13.611948
57.550 14.184084
57.555 13.548417
57.560 13.558985
57.565 13.846
57.570 13.895649
57.575 13.512238
57.580 13.219706
57.585 13.110415
57.590 13.480708
57.595 13.647763
57.600 13.277849
57.605 13.042921
57.610 13.305814
57.615 13.498045
57.620 13.553959
57.625 13.78486
57.630 13.513965
57.635 13.894549
57.640 14.403837
57.645 14.149016
57.650 13.686279
57.655 13.615266
57.660 13.534163
57.665 13.481154
57.670 13.305728
57.675 13.002185
57.680 13.391524
57.685 13.101745
57.690 12.852714
57.695 13.097142
57.700 13.047845
57.705 12.90124
57.710 13.091924
57.715 12.788409
57.720 13.454497
57.725 13.440965
57.730 13.883257
57.735 14.072791
57.740 14.321631
57.745 14.517535
57.750 14.646659
57.755 14.38827
57.760 14.442325
57.765 13.60454
57.770 13.22476
57.775 13.302553
57.780 13.256084
57.785 13.462347
57.790 14.313568
57.795 14.187655
57.800 14.246139
57.805 14.136059
57.810 13.670209
57.815 13.672224
57.820 13.273705
57.825 12.882765
57.830 13.192242
57.835 13.038141
57.840 13.184649
57.845 13.230869
57.850 12.937731
57.855 13.108624
57.860 12.784931
57.865 12.922675
57.870 13.871398
57.875 13.527081
57.880 13.268919
57.885 13.418006
57.890 13.204237
57.895 13.379276
57.900 13.920783
57.905 13.149326
57.910 13.74636
57.915 14.275728
57.920 14.418015
57.925 14.241807
57.930 13.89092
57.935 13.572284
57.940 13.545641
57.945 13.134903
57.950 12.791536
57.955 12.471203
57.960 12.397382
57.965 12.168588
57.970 11.536246
57.975 11.77394
57.980 12.047471
57.985 12.219001
57.990 12.267873
57.995 12.42931
58.000 12.993652
58.005 13.599045
58.010 13.527238
58.015 13.182874
58.020 13.529124
58.025 14.130281
58.030 14.371498
58.035 14.697939
58.040 14.898032
58.045 15.103477
58.050 15.272243
58.055 14.978831
58.060 14.561904
58.065 14.004771
58.070 13.204683
58.075 12.85031
58.080 13.017715
58.085 12.812705
58.090 12.598128
58.095 12.078718
58.100 12.704846
58.105 13.155299
58.110 13.459008
58.115 13.911477
58.120 14.167323
58.125 14.318141
58.130 14.511474
58.135 14.126981
58.140 14.530006
58.145 14.094096
58.150 13.726735
58.155 14.005039
58.160 14.674385
58.165 15.066298
58.170 15.018397
58.175 14.707831
58.180 15.283307
58.185 15.250992
58.190 15.108521
58.195 14.910296
58.200 14.905117
58.205 14.860887
58.210 14.57865
58.215 13.8751
58.220 13.781043
58.225 13.151038
58.230 12.648816
58.235 12.77492
58.240 13.191709
58.245 13.892669
58.250 14.602123
58.255 14.471097
58.260 14.989187
58.265 15.802816
58.270 15.643318
58.275 15.801046
58.280 16.005213
58.285 16.139446
58.290 16.804979
58.295 16.808735
58.300 17.199881
58.305 17.947937
58.310 17.952667
58.315 17.214735
58.320 16.627506
58.325 16.725512
58.330 16.187365
58.335 15.723547
58.340 15.140171
58.345 14.527578
58.350 14.029813
58.355 13.855566
58.360 13.653185
58.365 14.067163
58.370 13.8568
58.375 13.649342
58.380 13.83435
58.385 13.984142
58.390 14.288213
58.395 14.353209
58.400 14.230202
58.405 15.154428
58.410 15.447545
58.415 15.232458
58.420 15.88028
58.425 16.262726
58.430 16.719763
58.435 16.474958
58.440 16.014339
58.445 16.285347
58.450 16.741348
58.455 16.823193
58.460 16.628899
58.465 16.364008
58.470 17.030128
58.475 17.15921
58.480 17.493046
58.485 18.276663
58.490 18.253347
58.495 18.269327
58.500 18.231375
58.505 17.682606
58.510 17.220837
58.515 17.027243
58.520 16.495075
58.525 16.07593
