!@!!GADDS PLOTSO FILE: Chi integration type
!@!!Title/SampleName: map-4d
!@!!Comment: ?
!@!!User: Bruker Instrument Administrator
!@!!Site: University of Illinois Chicago
!@!!Frame: map-4d_01_000.gfrm
!@!!Wavelengths    1.54184   1.54056   1.54439
!@!!Frame angles: 2Theta: 63.000 Omega: 50.000 Phi: 0.000 Chi: 90.000
!@!!Integration range: 2Theta: 53.000 to 73.000  Gamma: -105.000 to -75.000
!@!!Integration method: bin normalized
!@!N
!@!SS
!@!M
!@!L 0.0 0.0 0.0 0.0
!@!XDegrees
!@!YCounts
53.000 12.219047
53.005 11.647875
53.010 10.842925
53.015 10.461385
53.020 9.784891
53.025 8.644315
53.030 8.417742
53.035 8.380301
53.040 8.734896
53.045 9.14971
53.050 9.615685
53.055 9.95658
53.060 10.438143
53.065 10.17635
53.070 10.11456
53.075 9.767098
53.080 9.182974
53.085 9.234555
53.090 9.242453
53.095 9.512596
53.100 9.852512
53.105 10.30297
53.110 11.048811
53.115 11.354547
53.120 11.144008
53.125 11.465921
53.130 11.143593
53.135 10.678232
53.140 10.408513
53.145 9.914469
53.150 10.115307
53.155 10.513458
53.160 10.722157
53.165 10.900606
53.170 11.286634
53.175 11.537095
53.180 11.526535
53.185 11.525071
53.190 10.94282
53.195 10.468828
53.200 10.321755
53.205 10.374825
53.210 10.349144
53.215 10.228662
53.220 10.221108
53.225 10.477817
53.230 10.735589
53.235 10.879086
53.240 10.483386
53.245 10.582562
53.250 10.596217
53.255 10.426463
53.260 10.441393
53.265 10.350384
53.270 10.40361
53.275 10.344466
53.280 10.419755
53.285 11.247891
53.290 11.302127
53.295 10.948124
53.300 10.630095
53.305 10.701771
53.310 11.079395
53.315 11.367805
53.320 10.993757
53.325 11.201671
53.330 11.111497
53.335 11.044687
53.340 10.536541
53.345 10.047564
53.350 9.841094
53.355 9.846341
53.360 10.417775
53.365 10.473257
53.370 10.622924
53.375 10.962639
53.380 10.804809
53.385 11.08453
53.390 11.054643
53.395 11.332786
53.400 11.701107
53.405 11.443648
53.410 10.988604
53.415 11.36785
53.420 10.954479
53.425 10.563815
53.430 10.45331
53.435 10.549351
53.440 10.487635
53.445 10.338937
53.450 9.908456
53.455 10.278908
53.460 10.426403
53.465 10.44023
53.470 10.652493
53.475 10.748935
53.480 10.989519
53.485 11.132653
53.490 10.617619
53.495 10.411745
53.500 10.755341
53.505 10.83281
53.510 10.736746
53.515 11.131176
53.520 11.490337
53.525 11.992908
53.530 11.93373
53.535 11.691873
53.540 11.46632
53.545 11.661189
53.550 11.053919
53.555 10.540892
53.560 10.475813
53.565 10.75811
53.570 11.304341
53.575 11.376314
53.580 11.174208
53.585 11.207942
53.590 11.191143
53.595 11.257494
53.600 11.217914
53.605 11.061128
53.610 11.383572
53.615 11.597707
53.620 11.989146
53.625 12.028575
53.630 11.958099
53.635 11.660492
53.640 12.025692
53.645 11.965718
53.650 11.886271
53.655 11.648745
53.660 11.422172
53.665 11.378137
53.670 11.333796
53.675 10.77748
53.680 10.843699
53.685 11.380285
53.690 11.720675
53.695 11.588318
53.700 11.730541
53.705 11.668986
53.710 11.858327
53.715 11.328298
53.720 10.988663
53.725 10.844326
53.730 10.629647
53.735 10.344196
53.740 9.963067
53.745 9.825444
53.750 10.199331
53.755 10.269209
53.760 10.392536
53.765 10.751077
53.770 10.940152
53.775 11.227565
53.780 11.115578
53.785 10.789211
53.790 11.355826
53.795 11.595062
53.800 11.200115
53.805 11.131969
53.810 10.924805
53.815 11.341888
53.820 11.537766
53.825 11.271914
53.830 11.023185
53.835 11.129369
53.840 11.540024
53.845 12.138048
53.850 12.13286
53.855 11.857377
53.860 12.303446
53.865 12.611006
53.870 13.105878
53.875 13.284886
53.880 13.088439
53.885 13.000723
53.890 13.151636
53.895 12.891561
53.900 12.068763
53.905 11.417645
53.910 10.610547
53.915 10.874313
53.920 11.166951
53.925 10.787993
53.930 11.000273
53.935 11.698207
53.940 11.779752
53.945 11.535618
53.950 10.686692
53.955 10.135076
53.960 10.130396
53.965 10.074217
53.970 9.804414
53.975 10.18961
53.980 10.87412
53.985 11.398968
53.990 11.787343
53.995 11.946552
54.000 12.12679
54.005 11.869015
54.010 11.182087
54.015 10.905425
54.020 10.916967
54.025 10.672029
54.030 10.455725
54.035 10.530534
54.040 10.7525
54.045 11.17713
54.050 11.331378
54.055 11.38753
54.060 11.068306
54.065 10.924775
54.070 11.179721
54.075 11.55034
54.080 11.390379
54.085 11.209345
54.090 11.7892
54.095 11.973555
54.100 11.761291
54.105 11.64747
54.110 11.811723
54.115 11.750993
54.120 11.597012
54.125 11.187502
54.130 11.898908
54.135 11.643501
54.140 10.987561
54.145 10.784514
54.150 10.486815
54.155 10.519721
54.160 10.480474
54.165 10.702749
54.170 11.008061
54.175 11.372357
54.180 11.567864
54.185 12.113856
54.190 12.2514
54.195 12.251782
54.200 12.065845
54.205 12.23906
54.210 12.450003
54.215 12.411429
54.220 12.047939
54.225 11.667221
54.230 11.195171
54.235 11.096992
54.240 11.183586
54.245 10.85005
54.250 10.704202
54.255 10.727067
54.260 11.086221
54.265 11.331033
54.270 11.55718
54.275 11.49746
54.280 11.564511
54.285 12.036775
54.290 12.1514
54.295 11.817194
54.300 11.801341
54.305 11.515781
54.310 11.977052
54.315 11.927394
54.320 11.433807
54.325 11.99369
54.330 12.155429
54.335 12.309028
54.340 11.950873
54.345 12.098343
54.350 12.44141
54.355 12.680451
54.360 12.535662
54.365 12.812337
54.370 12.561999
54.375 12.638774
54.380 12.187812
54.385 12.009734
54.390 11.753073
54.395 11.703881
54.400 11.773505
54.405 11.594704
54.410 11.545841
54.415 11.845622
54.420 12.158275
54.425 12.159966
54.430 11.823096
54.435 11.415615
54.440 11.910454
54.445 11.871857
54.450 11.638243
54.455 11.486931
54.460 11.231135
54.465 11.379278
54.470 11.348409
54.475 11.068916
54.480 10.619417
54.485 10.708723
54.490 11.337777
54.495 11.685782
54.500 11.718341
54.505 11.86487
54.510 12.184428
54.515 12.624692
54.520 12.648447
54.525 12.390622
54.530 12.687612
54.535 13.223428
54.540 13.493377
54.545 13.764427
54.550 13.775251
54.555 13.714546
54.560 13.049978
54.565 12.811059
54.570 12.440501
54.575 11.562086
54.580 11.412032
54.585 11.52584
54.590 11.616567
54.595 11.861288
54.600 11.724607
54.605 12.238426
54.610 12.990727
54.615 12.905285
54.620 12.988344
54.625 12.870276
54.630 12.79336
54.635 12.53387
54.640 12.453832
54.645 11.962054
54.650 11.791603
54.655 11.255574
54.660 11.83405
54.665 12.173003
54.670 11.692057
54.675 11.612836
54.680 11.965196
54.685 11.876651
54.690 12.117226
54.695 11.375497
54.700 10.884485
54.705 11.106899
54.710 10.958326
54.715 10.87343
54.720 10.488361
54.725 10.531209
54.730 11.089432
54.735 11.558511
54.740 12.044129
54.745 12.075432
54.750 12.054867
54.755 12.411395
54.760 12.330095
54.765 12.403913
54.770 12.131208
54.775 11.573979
54.780 11.915614
54.785 12.226213
54.790 12.517159
54.795 12.291437
54.800 12.208717
54.805 12.380127
54.810 12.451542
54.815 11.990765
54.820 11.724547
54.825 11.362144
54.830 11.671915
54.835 11.687028
54.840 11.541953
54.845 11.554569
54.850 11.793519
54.855 11.7587
54.860 12.358697
54.865 12.268404
54.870 12.136535
54.875 11.985919
54.880 12.509253
54.885 12.50327
54.890 12.670071
54.895 12.449304
54.900 12.363412
54.905 12.600041
54.910 12.519504
54.915 12.30289
54.920 12.202676
54.925 12.233156
54.930 12.249833
54.935 12.081622
54.940 11.884139
54.945 12.415689
54.950 12.533856
54.955 12.713082
54.960 12.77045
54.965 12.42899
54.970 12.625961
54.975 12.854918
54.980 12.496729
54.985 12.090216
54.990 11.49402
54.995 11.255125
55.000 11.777036
55.005 12.064407
55.010 11.927202
55.015 12.046326
55.020 12.161336
55.025 12.328884
55.030 11.76674
55.035 11.317677
55.040 10.926927
55.045 11.01284
55.050 11.381553
55.055 11.566377
55.060 11.895567
55.065 12.334052
55.070 12.339791
55.075 12.377559
55.080 11.46612
55.085 11.0813
55.090 10.866713
55.095 10.989988
55.100 10.735069
55.105 11.252031
55.110 11.79765
55.115 12.487909
55.120 12.60599
55.125 12.809438
55.130 12.837387
55.135 12.601333
55.140 12.272594
55.145 12.273061
55.150 12.166842
55.155 11.794896
55.160 12.058623
55.165 12.254766
55.170 12.807096
55.175 13.029792
55.180 13.268585
55.185 14.178098
55.190 14.911576
55.195 14.78123
55.200 15.148384
55.205 14.913298
55.210 14.579692
55.215 14.352476
55.220 13.251843
55.225 12.862141
55.230 12.187924
55.235 11.959323
55.240 12.393291
55.245 12.117471
55.250 11.831279
55.255 12.050087
55.260 11.707024
55.265 12.148663
55.270 12.110877
55.275 11.761271
55.280 12.225775
55.285 12.08277
55.290 11.886137
55.295 12.307885
55.300 11.810487
55.305 11.930099
55.310 12.156551
55.315 11.643764
55.320 11.870649
55.325 12.79708
55.330 12.888958
55.335 12.992171
55.340 12.524681
55.345 12.275663
55.350 12.971262
55.355 12.847535
55.360 12.386479
55.365 12.598576
55.370 12.515368
55.375 12.729287
55.380 13.019705
55.385 12.85376
55.390 12.723433
55.395 12.61831
55.400 12.518378
55.405 12.493296
55.410 12.349697
55.415 12.346757
55.420 12.452439
55.425 12.883234
55.430 12.827435
55.435 12.97327
55.440 13.342187
55.445 13.350912
55.450 13.136065
55.455 12.987849
55.460 12.994445
55.465 13.402253
55.470 13.53515
55.475 13.441751
55.480 13.054188
55.485 13.089935
55.490 12.992409
55.495 12.534758
55.500 12.154237
55.505 12.313416
55.510 12.272119
55.515 12.296349
55.520 12.378056
55.525 12.540075
55.530 12.587387
55.535 12.597656
55.540 12.568585
55.545 12.940224
55.550 13.303404
55.555 13.541844
55.560 13.304023
55.565 13.610166
55.570 13.801437
55.575 13.539246
55.580 13.724313
55.585 13.523115
55.590 13.081302
55.595 13.035453
55.600 12.810841
55.605 12.721266
55.610 13.014176
55.615 12.717658
55.620 12.906292
55.625 12.958751
55.630 13.047704
55.635 13.108735
55.640 13.567604
55.645 13.590923
55.650 13.840416
55.655 14.011071
55.660 13.794424
55.665 13.823968
55.670 12.915925
55.675 12.189336
55.680 12.062181
55.685 11.6689
55.690 12.02586
55.695 12.886869
55.700 12.82618
55.705 13.780651
55.710 13.946959
55.715 14.32079
55.720 14.696445
55.725 13.907924
55.730 13.45645
55.735 13.348421
55.740 12.829152
55.745 12.84436
55.750 12.5845
55.755 12.319226
55.760 12.29421
55.765 12.300262
55.770 12.459456
55.775 12.691073
55.780 12.480466
55.785 12.426684
55.790 12.452563
55.795 12.428657
55.800 12.478484
55.805 12.049624
55.810 12.109596
55.815 13.115335
55.820 13.605545
55.825 13.91923
55.830 14.189054
55.835 14.735674
55.840 15.035502
55.845 15.195875
55.850 14.828383
55.855 14.532605
55.860 14.82334
55.865 14.652801
55.870 14.600327
55.875 14.746858
55.880 14.109571
55.885 13.687396
55.890 13.658596
55.895 13.413833
55.900 13.134361
55.905 12.802835
55.910 12.397328
55.915 12.185591
55.920 12.356731
55.925 12.46576
55.930 12.641199
55.935 12.955136
55.940 13.385494
55.945 13.675374
55.950 14.145876
55.955 14.345768
55.960 14.4055
55.965 13.901175
55.970 13.485832
55.975 12.73216
55.980 12.913898
55.985 12.352591
55.990 11.877888
55.995 11.081103
56.000 11.37752
56.005 11.584598
56.010 12.110581
56.015 12.489398
56.020 12.67458
56.025 12.695904
56.030 12.816246
56.035 12.980043
56.040 13.240074
56.045 12.915918
56.050 13.224355
56.055 13.849863
56.060 14.202304
56.065 14.57443
56.070 14.284015
56.075 14.007908
56.080 13.972578
56.085 13.163253
56.090 12.700446
56.095 13.156939
56.100 13.590389
56.105 13.384233
56.110 12.982475
56.115 12.718031
56.120 12.814924
56.125 12.708579
56.130 11.917715
56.135 11.893366
56.140 12.110712
56.145 12.933083
56.150 13.623839
56.155 13.622652
56.160 13.622601
56.165 13.840993
56.170 13.808089
56.175 14.201022
56.180 13.614357
56.185 13.100015
56.190 13.038674
56.195 12.704033
56.200 12.576088
56.205 12.942425
56.210 12.537994
56.215 12.503529
56.220 12.851312
56.225 13.096078
56.230 13.740616
56.235 13.708484
56.240 13.131874
56.245 13.152082
56.250 13.199462
56.255 13.238746
56.260 13.81904
56.265 13.818025
56.270 13.904816
56.275 14.023531
56.280 14.107767
56.285 13.870432
56.290 13.08735
56.295 12.732266
56.300 12.595751
56.305 12.452608
56.310 12.463734
56.315 12.809972
56.320 13.212573
56.325 13.629464
56.330 13.627026
56.335 13.67592
56.340 13.818883
56.345 13.960411
56.350 14.14079
56.355 14.081685
56.360 14.186173
56.365 14.24553
56.370 14.261811
56.375 14.452902
56.380 14.277941
56.385 14.032495
56.390 14.26368
56.395 14.006657
56.400 13.755743
56.405 13.871054
56.410 13.335079
56.415 12.829399
56.420 12.791303
56.425 12.636151
56.430 12.722643
56.435 12.722997
56.440 12.614872
56.445 12.562165
56.450 13.001348
56.455 13.612888
56.460 13.898535
56.465 13.794972
56.470 13.686822
56.475 13.70765
56.480 13.53346
56.485 13.546378
56.490 14.047577
56.495 14.229423
56.500 14.219658
56.505 13.776595
56.510 14.137573
56.515 14.638303
56.520 14.474646
56.525 13.674466
56.530 13.669454
56.535 13.958989
56.540 14.392516
56.545 14.368929
56.550 14.178171
56.555 14.352165
56.560 14.300364
56.565 13.680308
56.570 13.650053
56.575 13.348276
56.580 12.849529
56.585 12.588221
56.590 12.173
56.595 12.636377
56.600 12.867159
56.605 13.062808
56.610 13.311721
56.615 13.999516
56.620 14.296094
56.625 14.744819
56.630 14.885587
56.635 14.881703
56.640 15.910779
56.645 16.76729
56.650 16.387999
56.655 15.932036
56.660 15.222651
56.665 15.30284
56.670 15.366214
56.675 14.363411
56.680 14.415707
56.685 14.952221
56.690 15.408117
56.695 15.392525
56.700 15.007417
56.705 15.001965
56.710 15.574035
56.715 15.441982
56.720 16.03746
56.725 16.519026
56.730 16.536472
56.735 17.011015
56.740 17.468983
56.745 17.559645
56.750 17.321684
56.755 16.659586
56.760 17.022247
56.765 18.081982
56.770 17.624231
56.775 17.180359
56.780 16.517195
56.785 16.486607
56.790 16.331333
56.795 15.684587
56.800 15.182921
56.805 15.839469
56.810 16.001656
56.815 16.490221
56.820 16.149004
56.825 16.117315
56.830 15.768929
56.835 14.940331
56.840 14.273695
56.845 13.937149
56.850 13.986119
56.855 14.276852
56.860 14.446439
56.865 15.031747
56.870 15.474028
56.875 15.438445
56.880 15.390535
56.885 15.076119
56.890 14.938184
56.895 14.982027
56.900 14.422216
56.905 14.339837
56.910 14.528346
56.915 14.734339
56.920 14.474129
56.925 14.540945
56.930 14.794785
56.935 15.191267
56.940 15.379025
56.945 15.266112
56.950 14.961929
56.955 15.008229
56.960 14.73033
56.965 13.785186
56.970 13.145412
56.975 12.957398
56.980 13.090963
56.985 13.624121
56.990 13.697845
56.995 13.823442
57.000 14.229987
57.005 14.436784
57.010 14.660137
57.015 14.562837
57.020 14.647364
57.025 14.808572
57.030 14.483517
57.035 14.658594
57.040 14.413018
57.045 14.196815
57.050 14.048183
57.055 13.633008
57.060 13.711741
57.065 14.454971
57.070 14.556439
57.075 14.683455
57.080 14.838997
57.085 14.980723
57.090 15.464602
57.095 15.990004
57.100 15.809889
57.105 15.723471
57.110 15.889159
57.115 15.846195
57.120 15.397214
57.125 15.425066
57.130 15.130462
57.135 15.315452
57.140 15.398041
57.145 15.485415
57.150 15.926011
57.155 15.843231
57.160 15.248285
57.165 14.583987
57.170 14.533167
57.175 14.370198
57.180 13.658859
57.185 13.573159
57.190 14.415017
57.195 14.602648
57.200 14.496817
57.205 14.653573
57.210 15.01109
57.215 15.523363
57.220 15.425582
57.225 14.812032
57.230 14.542327
57.235 14.536783
57.240 14.126681
57.245 13.632878
57.250 13.325369
57.255 13.157246
57.260 13.270867
57.265 13.576711
57.270 13.265992
57.275 13.256078
57.280 12.739691
57.285 12.459833
57.290 12.432895
57.295 12.476273
57.300 12.841004
57.305 13.234281
57.310 13.393466
57.315 14.013195
57.320 13.999005
57.325 14.236719
57.330 14.433544
57.335 14.397661
57.340 14.502548
57.345 14.522347
57.350 14.561228
57.355 14.812749
57.360 14.891288
57.365 14.580404
57.370 14.277483
57.375 13.950694
57.380 14.307683
57.385 14.306782
57.390 14.042379
57.395 13.241632
57.400 13.01644
57.405 13.152057
57.410 13.445357
57.415 13.499239
57.420 14.220029
57.425 15.130362
57.430 16.371538
57.435 17.092468
57.440 17.624645
57.445 17.7435
57.450 17.791788
57.455 17.259222
57.460 16.536222
57.465 16.036089
57.470 15.56462
57.475 15.057281
57.480 15.004644
57.485 15.211091
57.490 15.623115
57.495 16.60033
57.500 17.003935
57.505 17.074156
57.510 17.143396
57.515 17.071922
57.520 16.665598
57.525 16.160833
57.530 15.393258
57.535 15.393142
57.540 15.280578
57.545 15.035768
57.550 14.962181
57.555 15.35376
57.560 15.715729
57.565 15.733926
57.570 15.630678
57.575 15.979753
57.580 16.166
57.585 16.140615
57.590 15.653537
57.595 15.44313
57.600 15.338517
57.605 15.038178
57.610 15.475598
57.615 16.045675
57.620 16.091558
57.625 16.760481
57.630 17.254078
57.635 16.891136
57.640 16.975103
57.645 17.312439
57.650 17.166393
57.655 17.058273
57.660 16.274992
57.665 16.177242
57.670 16.45499
57.675 16.639477
57.680 16.004004
57.685 15.804127
57.690 15.82402
57.695 15.913874
57.700 15.746878
57.705 15.906643
57.710 15.768784
57.715 15.814793
57.720 15.811093
57.725 15.94859
57.730 16.596611
57.735 16.571617
57.740 16.441887
57.745 15.893298
57.750 16.051561
57.755 16.317993
57.760 16.608732
57.765 16.995609
57.770 16.953064
57.775 17.365217
57.780 17.833191
57.785 17.316231
57.790 17.438391
57.795 17.167791
57.800 16.649881
57.805 17.05069
57.810 17.109758
57.815 17.169676
57.820 17.529053
57.825 17.317827
57.830 17.261457
57.835 17.11245
57.840 17.230423
57.845 17.081299
57.850 16.956333
57.855 16.508307
57.860 16.554728
57.865 17.173632
57.870 17.254248
57.875 17.677851
57.880 17.580704
57.885 17.557961
57.890 18.375334
57.895 17.96335
57.900 17.92766
57.905 17.89963
57.910 17.618044
57.915 17.473587
57.920 17.633369
57.925 17.455521
57.930 17.673548
57.935 17.167171
57.940 16.704952
57.945 16.431726
57.950 16.960636
57.955 17.236881
57.960 17.377293
57.965 17.376488
57.970 17.271597
57.975 17.514313
57.980 17.885897
57.985 17.615177
57.990 16.971813
57.995 16.451654
58.000 16.745104
58.005 17.465759
58.010 17.414473
58.015 17.371084
58.020 18.199169
58.025 18.436125
58.030 18.836195
58.035 18.663893
58.040 18.779249
58.045 18.879217
58.050 18.537373
58.055 18.07036
58.060 17.744421
58.065 17.239321
58.070 16.878857
58.075 16.800131
58.080 16.459557
58.085 16.275373
58.090 15.999828
58.095 16.012302
58.100 15.944717
58.105 15.927714
58.110 15.251355
58.115 15.53861
58.120 16.325285
58.125 16.981096
58.130 17.894667
58.135 18.719435
58.140 19.106176
58.145 19.284142
58.150 18.806465
58.155 18.639576
58.160 18.727749
58.165 18.647795
58.170 18.330467
58.175 18.451937
58.180 19.025692
58.185 19.308641
58.190 19.226175
58.195 19.399239
58.200 19.159512
58.205 19.244169
58.210 19.211506
58.215 19.41848
58.220 19.65814
58.225 19.760252
58.230 19.639931
58.235 19.781925
58.240 19.84778
58.245 19.730986
58.250 19.626108
58.255 19.775526
58.260 19.681067
58.265 19.810963
58.270 19.610567
58.275 19.490263
58.280 19.781891
58.285 19.778757
58.290 19.83205
58.295 19.627802
58.300 19.961035
58.305 20.33843
58.310 20.687765
58.315 20.73819
58.320 20.801367
58.325 21.116377
58.330 21.379477
58.335 21.433813
58.340 21.285192
58.345 21.598902
58.350 21.141182
58.355 21.32826
58.360 21.081194
58.365 21.73341
58.370 22.339956
58.375 22.45425
58.380 22.681492
58.385 23.278643
58.390 23.382496
58.395 23.68498
58.400 24.003777
58.405 25.113216
58.410 26.207832
58.415 26.493534
58.420 27.646074
58.425 28.377693
58.430 28.394506
58.435 27.699287
58.440 26.885902
58.445 26.264959
58.450 26.596169
