!@!!GADDS PLOTSO FILE: Chi integration type
!@!!Title/SampleName: map-147
!@!!Comment: ?
!@!!User: Bruker Instrument Administrator
!@!!Site: University of Illinois Chicago
!@!!Frame: map-147_01_000.gfrm
!@!!Wavelengths    1.54184   1.54056   1.54439
!@!!Frame angles: 2Theta: 63.000 Omega: 50.000 Phi: 0.000 Chi: 90.000
!@!!Integration range: 2Theta: 53.000 to 73.000  Gamma: -105.000 to -75.000
!@!!Integration method: bin normalized
!@!N
!@!SS
!@!M
!@!L 0.0 0.0 0.0 0.0
!@!XDegrees
!@!YCounts
53.000 9.130313
53.005 8.862921
53.010 8.885146
53.015 8.507281
53.020 8.068104
53.025 8.441909
53.030 8.882664
53.035 8.924975
53.040 8.58413
53.045 8.798962
53.050 9.360291
53.055 9.654449
53.060 9.557966
53.065 9.45194
53.070 9.760736
53.075 9.930938
53.080 9.748757
53.085 9.966166
53.090 10.325994
53.095 10.09335
53.100 10.034459
53.105 10.061813
53.110 10.134183
53.115 9.888664
53.120 9.253821
53.125 8.951909
53.130 9.342088
53.135 9.388637
53.140 9.177099
53.145 9.159275
53.150 9.340632
53.155 9.733926
53.160 9.59629
53.165 9.143834
53.170 9.106836
53.175 9.041491
53.180 8.79318
53.185 8.960456
53.190 8.566576
53.195 8.455721
53.200 8.687893
53.205 9.040956
53.210 9.315941
53.215 9.567306
53.220 9.247739
53.225 8.90752
53.230 8.74483
53.235 8.762712
53.240 8.888979
53.245 8.91939
53.250 8.507281
53.255 8.847636
53.260 9.426614
53.265 9.333934
53.270 9.104057
53.275 9.051827
53.280 9.19165
53.285 9.416286
53.290 9.295915
53.295 8.935503
53.300 9.229138
53.305 9.11275
53.310 8.826017
53.315 8.500193
53.320 8.813144
53.325 8.843966
53.330 9.13081
53.335 9.234822
53.340 9.445825
53.345 9.857676
53.350 10.337636
53.355 10.665915
53.360 10.653795
53.365 10.695525
53.370 10.451146
53.375 10.292016
53.380 10.035022
53.385 10.09239
53.390 10.337218
53.395 10.661139
53.400 10.552212
53.405 10.258444
53.410 10.45116
53.415 10.127927
53.420 9.544779
53.425 9.264488
53.430 9.393468
53.435 9.501323
53.440 9.911028
53.445 9.715287
53.450 9.8346
53.455 9.487533
53.460 9.537726
53.465 9.350121
53.470 9.318982
53.475 9.426134
53.480 9.55486
53.485 9.967098
53.490 10.12221
53.495 10.00442
53.500 10.379019
53.505 10.062043
53.510 9.939133
53.515 10.042048
53.520 10.095263
53.525 10.284292
53.530 10.037325
53.535 10.038819
53.540 10.18777
53.545 10.112787
53.550 9.834317
53.555 9.527455
53.560 9.251081
53.565 9.255897
53.570 9.421798
53.575 9.453717
53.580 9.631798
53.585 9.907253
53.590 9.931795
53.595 10.133759
53.600 10.289212
53.605 10.381264
53.610 10.372417
53.615 10.238584
53.620 10.168058
53.625 10.309065
53.630 10.748394
53.635 10.496145
53.640 9.934716
53.645 9.898488
53.650 9.826659
53.655 9.948239
53.660 9.654804
53.665 9.275805
53.670 10.03029
53.675 10.485042
53.680 10.806605
53.685 11.072105
53.690 10.739013
53.695 11.032399
53.700 10.551931
53.705 10.391839
53.710 10.735566
53.715 10.712338
53.720 10.985201
53.725 11.004575
53.730 10.966054
53.735 11.404682
53.740 11.312106
53.745 11.229921
53.750 10.779228
53.755 10.63408
53.760 11.183904
53.765 10.871761
53.770 10.482652
53.775 9.947452
53.780 9.997754
53.785 10.174536
53.790 10.47893
53.795 10.715303
53.800 10.978243
53.805 11.024767
53.810 11.51433
53.815 11.838411
53.820 11.951917
53.825 11.71839
53.830 11.354036
53.835 11.496883
53.840 11.671525
53.845 11.865946
53.850 11.289557
53.855 10.776617
53.860 10.552061
53.865 10.919406
53.870 11.419398
53.875 11.145191
53.880 11.137976
53.885 11.597981
53.890 11.715579
53.895 11.664639
53.900 11.342684
53.905 10.911865
53.910 10.827882
53.915 10.113441
53.920 9.886619
53.925 10.11962
53.930 10.30776
53.935 10.250841
53.940 10.132507
53.945 10.696083
53.950 11.117208
53.955 11.16155
53.960 10.781325
53.965 11.007507
53.970 11.536504
53.975 11.909155
53.980 11.873211
53.985 11.741186
53.990 11.723027
53.995 11.651316
54.000 11.280021
54.005 11.172571
54.010 10.604715
54.015 10.348127
54.020 10.608259
54.025 10.570587
54.030 10.484091
54.035 10.156333
54.040 9.613482
54.045 9.584901
54.050 9.925912
54.055 10.100193
54.060 10.740026
54.065 11.433143
54.070 11.762241
54.075 12.186467
54.080 12.236629
54.085 11.598235
54.090 11.190158
54.095 11.060998
54.100 10.662519
54.105 10.352641
54.110 10.245649
54.115 10.412535
54.120 10.638397
54.125 10.770541
54.130 10.461226
54.135 10.571171
54.140 10.512913
54.145 10.423943
54.150 10.23432
54.155 9.707223
54.160 9.395817
54.165 9.343096
54.170 9.693253
54.175 9.994534
54.180 10.109854
54.185 10.556871
54.190 11.357347
54.195 11.759187
54.200 11.757634
54.205 11.428795
54.210 11.359288
54.215 10.898965
54.220 11.069524
54.225 10.826303
54.230 10.758045
54.235 11.270785
54.240 11.445087
54.245 11.248816
54.250 11.321216
54.255 11.072676
54.260 10.815561
54.265 10.604159
54.270 10.54978
54.275 10.999847
54.280 11.385953
54.285 11.66964
54.290 11.676112
54.295 11.74023
54.300 12.041484
54.305 11.910377
54.310 11.421921
54.315 11.441917
54.320 11.472559
54.325 11.374787
54.330 11.314349
54.335 11.000888
54.340 10.723938
54.345 10.746424
54.350 10.615374
54.355 10.336794
54.360 10.594422
54.365 10.64173
54.370 10.296401
54.375 11.006057
54.380 11.319024
54.385 11.091137
54.390 11.36395
54.395 11.246902
54.400 11.461639
54.405 11.723424
54.410 11.59313
54.415 11.608444
54.420 11.59604
54.425 11.384565
54.430 11.357733
54.435 11.251686
54.440 10.439352
54.445 9.909715
54.450 9.759756
54.455 9.720646
54.460 9.443688
54.465 9.33613
54.470 9.769715
54.475 9.938593
54.480 9.703384
54.485 9.839821
54.490 10.036833
54.495 10.236917
54.500 10.145818
54.505 9.838987
54.510 10.367829
54.515 11.026206
54.520 11.046864
54.525 11.189982
54.530 11.471487
54.535 11.390728
54.540 11.433208
54.545 10.709214
54.550 10.65216
54.555 10.681813
54.560 10.548965
54.565 10.280589
54.570 10.410665
54.575 10.48107
54.580 10.897728
54.585 10.986741
54.590 11.521909
54.595 11.709069
54.600 11.79362
54.605 12.114212
54.610 11.942907
54.615 12.150428
54.620 12.089031
54.625 11.675426
54.630 11.331001
54.635 11.515531
54.640 11.80479
54.645 11.977878
54.650 11.494083
54.655 11.330892
54.660 11.699341
54.665 11.637165
54.670 11.764549
54.675 11.955059
54.680 12.188806
54.685 12.436532
54.690 12.73327
54.695 12.654431
54.700 13.147267
54.705 13.147719
54.710 12.72089
54.715 12.513172
54.720 12.042895
54.725 11.816743
54.730 11.852035
54.735 11.676394
54.740 11.342282
54.745 11.873694
54.750 12.128398
54.755 12.097169
54.760 12.248905
54.765 12.27781
54.770 12.032638
54.775 11.789224
54.780 11.558794
54.785 11.294404
54.790 10.793464
54.795 10.380461
54.800 10.355319
54.805 10.625725
54.810 11.218745
54.815 11.393289
54.820 11.720192
54.825 12.340384
54.830 12.483936
54.835 12.43808
54.840 12.081493
54.845 11.428729
54.850 11.758376
54.855 12.13658
54.860 12.023663
54.865 12.197316
54.870 12.316237
54.875 12.490063
54.880 12.520511
54.885 12.728239
54.890 12.556729
54.895 12.858584
54.900 12.801476
54.905 12.314795
54.910 12.223941
54.915 12.285287
54.920 11.964376
54.925 11.609441
54.930 10.974395
54.935 10.662418
54.940 11.097578
54.945 11.036815
54.950 10.346322
54.955 10.300982
54.960 10.095889
54.965 9.834331
54.970 9.630958
54.975 9.443783
54.980 9.709336
54.985 9.985603
54.990 9.782086
54.995 10.305069
55.000 10.765197
55.005 10.938809
55.010 10.913462
55.015 10.578656
55.020 10.800012
55.025 11.158274
55.030 11.446804
55.035 11.507086
55.040 11.434569
55.045 11.728762
55.050 11.992636
55.055 12.11361
55.060 12.023275
55.065 12.016546
55.070 12.643194
55.075 12.860007
55.080 12.642184
55.085 12.828091
55.090 12.452947
55.095 12.404928
55.100 12.457646
55.105 11.915715
55.110 12.081745
55.115 12.267276
55.120 12.223243
55.125 12.27458
55.130 12.365808
55.135 12.382256
55.140 12.755788
55.145 12.512978
55.150 12.423744
55.155 12.5532
55.160 12.723219
55.165 12.675921
55.170 12.605293
55.175 12.29422
55.180 12.656122
55.185 12.188892
55.190 11.477165
55.195 11.425097
55.200 11.448776
55.205 11.800553
55.210 11.952546
55.215 11.847754
55.220 12.920341
55.225 13.558824
55.230 13.543584
55.235 13.447367
55.240 12.929278
55.245 12.914305
55.250 12.968987
55.255 12.241521
55.260 12.134109
55.265 12.321633
55.270 12.537019
55.275 12.555045
55.280 12.558961
55.285 12.753175
55.290 13.106673
55.295 13.042778
55.300 12.691257
55.305 12.230151
55.310 12.66449
55.315 12.6408
55.320 12.512913
55.325 12.472819
55.330 12.501256
55.335 12.548133
55.340 12.583561
55.345 12.765907
55.350 12.718394
55.355 12.309048
55.360 12.422259
55.365 12.15708
55.370 12.367354
55.375 12.470816
55.380 12.191958
55.385 12.35815
55.390 12.540483
55.395 12.247087
55.400 12.017452
55.405 11.502867
55.410 11.055453
55.415 10.6721
55.420 10.41491
55.425 10.523968
55.430 11.146897
55.435 12.079409
55.440 12.922326
55.445 13.193122
55.450 13.793442
55.455 13.961967
55.460 13.530898
55.465 13.114187
55.470 12.607303
55.475 12.64282
55.480 12.867053
55.485 12.685273
55.490 12.858883
55.495 13.363709
55.500 13.512219
55.505 13.698274
55.510 13.64836
55.515 13.367247
55.520 13.546679
55.525 13.695706
55.530 12.871282
55.535 12.75192
55.540 12.066503
55.545 11.701125
55.550 11.981509
55.555 11.2859
55.560 10.734937
55.565 11.083082
55.570 11.181883
55.575 11.818267
55.580 11.726672
55.585 11.362991
55.590 11.703548
55.595 11.908942
55.600 12.263037
55.605 12.870991
55.610 13.06718
55.615 13.381168
55.620 13.762217
55.625 13.715025
55.630 13.799582
55.635 13.490145
55.640 12.556257
55.645 12.343403
55.650 12.233006
55.655 11.849681
55.660 11.769486
55.665 12.088068
55.670 12.223614
55.675 12.551579
55.680 12.371572
55.685 12.557008
55.690 12.976464
55.695 12.865267
55.700 12.033849
55.705 11.78419
55.710 11.761979
55.715 12.342781
55.720 11.737433
55.725 11.283115
55.730 11.389337
55.735 11.1717
55.740 10.810626
55.745 10.591329
55.750 10.256101
55.755 10.974341
55.760 11.653361
55.765 12.38206
55.770 12.92775
55.775 13.306795
55.780 13.713967
55.785 13.66397
55.790 13.409209
55.795 13.285827
55.800 13.465828
55.805 14.105288
55.810 13.909698
55.815 13.489704
55.820 13.779381
55.825 13.735485
55.830 13.585785
55.835 13.547771
55.840 13.043365
55.845 13.183247
55.850 13.586045
55.855 13.404602
55.860 13.26692
55.865 12.815624
55.870 12.386995
55.875 12.571176
55.880 12.795297
55.885 12.702028
55.890 13.111506
55.895 13.067071
55.900 13.301801
55.905 13.758964
55.910 13.973197
55.915 13.936551
55.920 13.859825
55.925 14.083255
55.930 14.497851
55.935 14.680755
55.940 14.767864
55.945 14.663726
55.950 14.539262
55.955 14.269011
55.960 13.568934
55.965 13.127872
55.970 12.936806
55.975 11.940769
55.980 11.63403
55.985 11.681543
55.990 11.482286
55.995 12.244649
56.000 12.257024
56.005 12.066816
56.010 12.365141
56.015 12.318428
56.020 12.007701
56.025 11.833309
56.030 11.386602
56.035 11.635999
56.040 11.615467
56.045 11.131674
56.050 10.908648
56.055 11.067507
56.060 10.931837
56.065 11.01488
56.070 11.205016
56.075 11.929832
56.080 12.773834
56.085 13.013468
56.090 12.962215
56.095 12.891848
56.100 12.401251
56.105 11.41771
56.110 11.219658
56.115 11.431608
56.120 11.624615
56.125 11.855822
56.130 12.178303
56.135 12.935738
56.140 13.651045
56.145 13.591144
56.150 13.138234
56.155 13.216581
56.160 13.400337
56.165 13.456144
56.170 13.410619
56.175 13.357109
56.180 13.295196
56.185 13.339128
56.190 13.120918
56.195 13.311074
56.200 13.189732
56.205 12.978291
56.210 13.180454
56.215 12.98693
56.220 12.854209
56.225 12.476661
56.230 12.094419
56.235 12.320953
56.240 12.47779
56.245 12.54025
56.250 12.828439
56.255 13.037889
56.260 13.124486
56.265 13.587556
56.270 13.646972
56.275 13.997126
56.280 13.951776
56.285 13.574089
56.290 13.093553
56.295 13.005101
56.300 12.841628
56.305 12.981073
56.310 12.451429
56.315 12.131506
56.320 12.087788
56.325 12.464077
56.330 12.742625
56.335 12.663889
56.340 11.999465
56.345 11.931881
56.350 12.493955
56.355 13.46911
56.360 13.350859
56.365 13.239751
56.370 13.011359
56.375 13.27395
56.380 12.95176
56.385 12.090102
56.390 11.513111
56.395 11.908052
56.400 12.166682
56.405 12.675797
56.410 12.634249
56.415 13.352532
56.420 14.163033
56.425 14.42545
56.430 14.344041
56.435 14.187361
56.440 13.95889
56.445 14.334924
56.450 14.230192
56.455 14.150234
56.460 14.387974
56.465 14.713766
56.470 14.794376
56.475 14.609435
56.480 14.434037
56.485 14.738405
56.490 14.92181
56.495 15.290579
56.500 14.92995
56.505 14.631606
56.510 14.886487
56.515 14.910949
56.520 15.13349
56.525 15.030449
56.530 14.56242
56.535 14.737977
56.540 15.088324
56.545 15.109228
56.550 14.74684
56.555 14.316316
56.560 13.819143
56.565 14.116246
56.570 13.94447
56.575 13.479435
56.580 13.161386
56.585 13.464806
56.590 13.714359
56.595 13.636618
56.600 13.2662
56.605 13.112791
56.610 13.099721
56.615 13.617053
56.620 13.206801
56.625 13.493298
56.630 13.896447
56.635 13.930174
56.640 14.001166
56.645 14.047359
56.650 13.855846
56.655 13.917538
56.660 13.859943
56.665 14.124907
56.670 14.37709
56.675 14.927735
56.680 15.077648
56.685 15.076961
56.690 15.469712
56.695 15.623676
56.700 15.151264
56.705 14.842991
56.710 14.360175
56.715 14.494199
56.720 14.829553
56.725 14.705224
56.730 14.432734
56.735 14.56723
56.740 14.467644
56.745 14.05808
56.750 14.166964
56.755 13.992091
56.760 14.018269
56.765 13.97715
56.770 14.316667
56.775 14.644421
56.780 14.789113
56.785 13.920015
56.790 13.589199
56.795 13.083549
56.800 13.517617
56.805 13.61937
56.810 13.683158
56.815 14.030978
56.820 14.573107
56.825 14.778635
56.830 15.011807
56.835 14.750037
56.840 14.472858
56.845 14.432494
56.850 14.267406
56.855 14.0071
56.860 13.937365
56.865 13.964498
56.870 13.955379
56.875 14.584119
56.880 14.54807
56.885 14.398133
56.890 14.341465
56.895 14.032375
56.900 13.156207
56.905 12.710647
56.910 12.42073
56.915 13.006533
56.920 13.447083
56.925 13.658408
56.930 14.377414
56.935 15.289909
56.940 15.208653
56.945 14.906167
56.950 14.493141
56.955 14.38027
56.960 14.139147
56.965 13.936309
56.970 14.081751
56.975 15.282996
56.980 15.753945
56.985 15.596298
56.990 15.697178
56.995 15.558984
57.000 15.054332
57.005 14.883391
57.010 13.63261
57.015 12.741706
57.020 12.748332
57.025 12.403706
57.030 12.396858
57.035 12.793549
57.040 12.457819
57.045 12.649144
57.050 13.162111
57.055 12.91972
57.060 12.952628
57.065 13.159655
57.070 13.326967
57.075 14.019114
57.080 14.2847
57.085 14.531797
57.090 14.620577
57.095 14.886105
57.100 14.8568
57.105 14.077649
57.110 13.32566
57.115 12.891798
57.120 12.673812
57.125 12.329434
57.130 12.498438
57.135 12.424564
57.140 12.664249
57.145 13.094456
57.150 13.329811
57.155 13.868229
57.160 14.044209
57.165 13.451036
57.170 13.230881
57.175 13.764862
57.180 14.165227
57.185 14.384722
57.190 14.529604
57.195 14.433892
57.200 15.025752
57.205 15.967936
57.210 15.831467
57.215 15.080175
57.220 14.248599
57.225 13.586005
57.230 13.549811
57.235 13.526199
57.240 12.597011
57.245 12.348401
57.250 12.972711
57.255 13.519436
57.260 14.131287
57.265 14.051203
57.270 14.069839
57.275 14.202708
57.280 13.958975
57.285 13.51354
57.290 13.399796
57.295 13.369991
57.300 13.628215
57.305 13.556195
57.310 14.071681
57.315 14.696208
57.320 15.023497
57.325 15.42727
57.330 15.503153
57.335 15.040786
57.340 14.81807
57.345 14.383485
57.350 14.440551
57.355 14.089423
57.360 13.501134
57.365 13.304594
57.370 13.339793
57.375 13.597693
57.380 13.830135
57.385 13.952479
57.390 14.380524
57.395 14.726387
57.400 15.137706
57.405 15.319848
57.410 15.258662
57.415 15.207438
57.420 14.599223
57.425 14.678081
57.430 14.532455
57.435 14.268368
57.440 14.014263
57.445 13.724361
57.450 13.946235
57.455 14.403917
57.460 14.608796
57.465 15.106437
57.470 15.094815
57.475 15.396447
57.480 15.154418
57.485 14.728315
57.490 14.812022
57.495 14.831625
57.500 14.508506
57.505 14.852634
57.510 14.945629
57.515 15.511608
57.520 15.794689
57.525 15.357894
57.530 15.203265
57.535 15.283904
57.540 14.811538
57.545 14.607499
57.550 14.168943
57.555 14.751281
57.560 14.908551
57.565 14.42668
57.570 14.156161
57.575 14.147088
57.580 14.334855
57.585 14.710122
57.590 14.594741
57.595 14.323277
57.600 14.490328
57.605 15.206874
57.610 15.936745
57.615 15.521542
57.620 15.175841
57.625 14.681561
57.630 15.172418
57.635 15.752828
57.640 15.02156
57.645 14.42233
57.650 15.018433
57.655 14.820067
57.660 14.581918
57.665 14.6047
57.670 14.368989
57.675 14.608902
57.680 14.623358
57.685 13.989213
57.690 14.142531
57.695 14.371348
57.700 13.87907
57.705 13.974843
57.710 14.343451
57.715 14.668924
57.720 15.678425
57.725 16.412954
57.730 16.349268
57.735 16.210667
57.740 16.310923
57.745 16.158073
57.750 16.299965
57.755 15.907963
57.760 15.513613
57.765 15.455869
57.770 15.690401
57.775 15.539781
57.780 15.175587
57.785 14.63927
57.790 14.265671
57.795 13.845905
57.800 14.291392
57.805 13.926881
57.810 13.55985
57.815 13.499459
57.820 14.134789
57.825 14.67941
57.830 14.834569
57.835 14.458883
57.840 14.570275
57.845 14.62337
57.850 14.811276
57.855 14.006385
57.860 13.913117
57.865 13.990911
57.870 14.083183
57.875 14.443215
57.880 14.15806
57.885 13.708945
57.890 13.483949
57.895 12.953253
57.900 12.972441
57.905 13.085991
57.910 12.385861
57.915 12.839004
57.920 13.543348
57.925 13.870178
57.930 13.649607
57.935 13.478582
57.940 13.251289
57.945 13.751259
57.950 13.955188
57.955 14.202276
57.960 14.825119
57.965 15.320639
57.970 15.430698
57.975 15.992409
57.980 16.029919
57.985 15.570718
57.990 15.562307
57.995 15.373526
58.000 15.337435
58.005 15.083835
58.010 14.26297
58.015 14.753201
58.020 14.785722
58.025 14.289462
58.030 14.315332
58.035 13.970551
58.040 13.927851
58.045 14.457115
58.050 14.190372
58.055 14.585979
58.060 14.611868
58.065 14.820995
58.070 15.667054
58.075 16.170361
58.080 16.301577
58.085 16.227295
58.090 15.688297
58.095 15.655299
58.100 15.794953
58.105 15.301005
58.110 14.712711
58.115 14.722567
58.120 14.827734
58.125 15.11003
58.130 15.149532
58.135 14.743284
58.140 14.823835
58.145 14.898505
58.150 14.954552
58.155 14.65484
58.160 14.442059
58.165 14.042136
58.170 14.104287
58.175 14.318047
58.180 13.970311
58.185 14.047129
58.190 14.059731
58.195 14.194809
58.200 14.806361
58.205 15.153161
58.210 15.771575
58.215 16.568132
58.220 16.771685
58.225 16.793562
58.230 16.723497
58.235 16.42576
58.240 15.965563
58.245 15.414045
58.250 14.821456
58.255 14.659337
58.260 14.789118
58.265 14.731645
58.270 14.877921
58.275 15.45851
58.280 15.62991
58.285 15.44345
58.290 15.477302
58.295 15.281347
58.300 15.119876
58.305 15.079746
58.310 14.80162
58.315 14.197749
58.320 14.134177
58.325 14.507903
58.330 15.195233
58.335 15.592059
58.340 15.363368
58.345 15.059573
58.350 15.231258
58.355 15.464458
58.360 15.208149
58.365 14.720549
58.370 14.873549
58.375 14.838655
58.380 15.281087
58.385 15.683989
58.390 15.511067
58.395 15.870494
58.400 15.695656
58.405 15.723823
58.410 16.006086
58.415 16.032589
58.420 16.197281
58.425 16.046749
58.430 16.040731
58.435 15.94046
58.440 15.425185
58.445 15.291881
58.450 15.286931
58.455 15.754904
58.460 15.963545
58.465 15.790545
58.470 16.187099
58.475 16.498549
