!@!!GADDS PLOTSO FILE: Chi integration type
!@!!Title/SampleName: map-8
!@!!Comment: ?
!@!!User: Bruker Instrument Administrator
!@!!Site: University of Illinois Chicago
!@!!Frame: map-8_01_000.gfrm
!@!!Wavelengths    1.54184   1.54056   1.54439
!@!!Frame angles: 2Theta: 63.000 Omega: 50.000 Phi: 0.000 Chi: 90.000
!@!!Integration range: 2Theta: 53.000 to 73.000  Gamma: -105.000 to -75.000
!@!!Integration method: bin normalized
!@!N
!@!SS
!@!M
!@!L 0.0 0.0 0.0 0.0
!@!XDegrees
!@!YCounts
53.000 7.232167
53.005 7.481576
53.010 7.602306
53.015 7.402626
53.020 7.107538
53.025 7.107978
53.030 7.121838
53.035 7.10739
53.040 6.562366
53.045 6.610786
53.050 6.975188
53.055 7.337382
53.060 7.939212
53.065 8.291536
53.070 8.15639
53.075 8.026327
53.080 7.787733
53.085 7.558004
53.090 6.982913
53.095 6.702572
53.100 6.760031
53.105 6.935381
53.110 7.081412
53.115 6.803215
53.120 6.994445
53.125 6.833202
53.130 6.666991
53.135 6.895415
53.140 7.186136
53.145 7.535127
53.150 7.704691
53.155 7.700931
53.160 7.693217
53.165 7.534213
53.170 6.893252
53.175 6.614266
53.180 6.252855
53.185 6.131984
53.190 6.180622
53.195 6.209178
53.200 6.632567
53.205 6.846026
53.210 6.794092
53.215 7.624763
53.220 7.699274
53.225 8.104581
53.230 8.205508
53.235 8.051734
53.240 8.002278
53.245 8.078901
53.250 7.798149
53.255 7.776563
53.260 7.748548
53.265 8.121607
53.270 8.211878
53.275 7.906262
53.280 7.813824
53.285 7.90836
53.290 8.176622
53.295 7.967056
53.300 7.608246
53.305 7.676019
53.310 8.044972
53.315 8.26003
53.320 8.186902
53.325 7.725934
53.330 7.413949
53.335 7.161738
53.340 7.068268
53.345 7.00967
53.350 6.711515
53.355 6.536058
53.360 6.912176
53.365 7.034935
53.370 7.254519
53.375 7.235703
53.380 7.144612
53.385 7.086589
53.390 7.054832
53.395 7.412603
53.400 7.628129
53.405 7.538311
53.410 7.481362
53.415 7.760615
53.420 7.997734
53.425 7.840342
53.430 7.512562
53.435 7.432686
53.440 7.340368
53.445 7.08926
53.450 7.021107
53.455 6.96539
53.460 6.708395
53.465 6.559312
53.470 6.463037
53.475 6.82242
53.480 7.140325
53.485 7.120764
53.490 7.578626
53.495 8.096701
53.500 8.517899
53.505 8.897733
53.510 8.76417
53.515 8.665929
53.520 8.528302
53.525 8.152227
53.530 7.815917
53.535 7.342306
53.540 7.32673
53.545 7.316655
53.550 7.082708
53.555 7.426764
53.560 7.577291
53.565 7.958406
53.570 8.464092
53.575 8.056427
53.580 8.186148
53.585 8.347107
53.590 8.086263
53.595 8.009522
53.600 7.791453
53.605 7.223002
53.610 7.165492
53.615 6.833964
53.620 6.742118
53.625 6.838787
53.630 6.794699
53.635 7.043875
53.640 7.203718
53.645 7.144119
53.650 7.229283
53.655 7.170594
53.660 7.140619
53.665 7.132744
53.670 7.122789
53.675 7.494633
53.680 7.946182
53.685 7.943741
53.690 7.99481
53.695 7.772738
53.700 7.493176
53.705 7.291156
53.710 7.317683
53.715 7.277109
53.720 7.196354
53.725 7.100411
53.730 7.323458
53.735 7.627415
53.740 7.5348
53.745 7.456327
53.750 7.540106
53.755 7.717407
53.760 8.258294
53.765 8.588807
53.770 8.715635
53.775 9.016982
53.780 8.992949
53.785 9.404638
53.790 9.416869
53.795 9.339785
53.800 9.408955
53.805 9.345342
53.810 9.218689
53.815 8.69258
53.820 8.211875
53.825 8.07022
53.830 7.776335
53.835 7.699946
53.840 7.696963
53.845 8.120551
53.850 8.565338
53.855 8.851789
53.860 8.911493
53.865 8.872124
53.870 8.440096
53.875 7.95598
53.880 7.867443
53.885 7.831602
53.890 7.91245
53.895 7.840594
53.900 7.839912
53.905 8.43248
53.910 8.619089
53.915 8.792268
53.920 8.82618
53.925 8.853919
53.930 9.489664
53.935 10.040977
53.940 10.078693
53.945 10.019512
53.950 9.494122
53.955 9.404572
53.960 9.038997
53.965 8.400124
53.970 7.687191
53.975 7.487237
53.980 7.594429
53.985 7.887234
53.990 8.013683
53.995 8.182255
54.000 8.178253
54.005 8.564255
54.010 8.722566
54.015 8.711523
54.020 8.348853
54.025 8.188537
54.030 7.98352
54.035 8.093013
54.040 8.01983
54.045 7.924471
54.050 7.982739
54.055 7.911132
54.060 8.011771
54.065 8.838005
54.070 8.584313
54.075 8.505335
54.080 8.698101
54.085 8.662275
54.090 8.738718
54.095 8.219175
54.100 7.678021
54.105 7.411904
54.110 7.455244
54.115 7.40037
54.120 7.424168
54.125 7.711543
54.130 7.950478
54.135 8.00658
54.140 8.527585
54.145 8.436007
54.150 8.198845
54.155 8.115613
54.160 8.393985
54.165 8.859109
54.170 8.961536
54.175 8.691939
54.180 8.716739
54.185 9.149389
54.190 9.152974
54.195 8.51684
54.200 8.450029
54.205 8.96943
54.210 9.159334
54.215 9.041236
54.220 9.182224
54.225 9.523084
54.230 9.668311
54.235 9.142735
54.240 8.326303
54.245 8.631372
54.250 9.115064
54.255 9.324409
54.260 9.231711
54.265 9.495839
54.270 10.169838
54.275 10.3345
54.280 10.010514
54.285 9.707636
54.290 9.56198
54.295 9.766762
54.300 10.197882
54.305 10.955754
54.310 11.243033
54.315 11.442453
54.320 11.288888
54.325 11.048073
54.330 10.431097
54.335 9.528831
54.340 8.901519
54.345 8.506465
54.350 8.309863
54.355 8.563333
54.360 8.987743
54.365 9.13494
54.370 8.837542
54.375 8.661118
54.380 8.598419
54.385 8.314939
54.390 7.818336
54.395 7.83627
54.400 8.151017
54.405 8.516801
54.410 8.935626
54.415 8.996037
54.420 9.05372
54.425 8.976615
54.430 8.249599
54.435 8.231546
54.440 8.534677
54.445 8.64982
54.450 8.741465
54.455 8.855494
54.460 9.192379
54.465 9.562387
54.470 9.363324
54.475 9.377244
54.480 9.689156
54.485 9.981058
54.490 9.852487
54.495 9.757863
54.500 10.028305
54.505 9.428473
54.510 8.694364
54.515 8.224601
54.520 7.862851
54.525 8.03704
54.530 8.161873
54.535 8.167212
54.540 8.906584
54.545 9.286502
54.550 9.857862
54.555 10.220597
54.560 10.137973
54.565 9.774889
54.570 9.500958
54.575 9.394957
54.580 9.519179
54.585 9.239908
54.590 9.303882
54.595 9.287797
54.600 9.705822
54.605 9.783493
54.610 9.687395
54.615 9.499308
54.620 9.088854
54.625 8.589568
54.630 8.53583
54.635 8.517107
54.640 8.554589
54.645 8.55179
54.650 8.442607
54.655 8.818619
54.660 9.010914
54.665 8.975327
54.670 8.837974
54.675 8.964841
54.680 8.981266
54.685 9.46973
54.690 9.791348
54.695 10.146156
54.700 10.124381
54.705 9.930573
54.710 9.936157
54.715 10.267145
54.720 9.649296
54.725 9.418935
54.730 9.358122
54.735 9.709651
54.740 9.789369
54.745 9.860802
54.750 9.40739
54.755 9.45544
54.760 9.641386
54.765 9.448717
54.770 9.30828
54.775 9.184504
54.780 9.325009
54.785 9.044154
54.790 8.947843
54.795 8.724782
54.800 9.147215
54.805 9.254534
54.810 9.184711
54.815 8.988288
54.820 9.704314
54.825 10.025537
54.830 9.817571
54.835 9.70544
54.840 9.728092
54.845 9.400332
54.850 9.361183
54.855 8.925425
54.860 8.751903
54.865 9.085856
54.870 9.501044
54.875 9.867723
54.880 10.465326
54.885 10.315237
54.890 10.348786
54.895 10.47503
54.900 9.929662
54.905 9.491703
54.910 9.28121
54.915 9.44886
54.920 9.877388
54.925 10.079462
54.930 9.912622
54.935 10.40835
54.940 10.277472
54.945 10.125012
54.950 10.168031
54.955 10.045568
54.960 10.05681
54.965 9.581482
54.970 9.145627
54.975 9.248685
54.980 9.2582
54.985 9.09923
54.990 8.9275
54.995 9.028108
55.000 9.40911
55.005 9.213914
55.010 9.182948
55.015 8.885128
55.020 8.057531
55.025 8.256172
55.030 8.204102
55.035 8.359363
55.040 8.672943
55.045 8.743814
55.050 9.032632
55.055 9.78582
55.060 9.635428
55.065 9.307165
55.070 9.171892
55.075 9.347491
55.080 9.336473
55.085 9.66356
55.090 9.660566
55.095 9.704755
55.100 9.904559
55.105 9.797894
55.110 9.304254
55.115 9.351567
55.120 9.090529
55.125 9.069811
55.130 9.20377
55.135 9.295224
55.140 9.403922
55.145 9.584121
55.150 9.48385
55.155 9.000213
55.160 9.588274
55.165 9.425349
55.170 9.648328
55.175 9.713046
55.180 9.871319
55.185 10.331133
55.190 10.377622
55.195 9.926857
55.200 10.210446
55.205 9.969721
55.210 10.167012
55.215 10.289741
55.220 10.159464
55.225 10.756486
55.230 10.687388
55.235 10.469358
55.240 10.272122
55.245 10.461075
55.250 10.320727
55.255 10.260241
55.260 9.691974
55.265 9.528152
55.270 10.364947
55.275 10.82205
55.280 10.545857
55.285 10.835793
55.290 10.497316
55.295 10.529696
55.300 11.041239
55.305 10.662276
55.310 10.60265
55.315 10.723336
55.320 10.669324
55.325 11.141752
55.330 11.508785
55.335 11.084387
55.340 11.305082
55.345 11.453966
55.350 11.333967
55.355 11.286832
55.360 10.845862
55.365 10.504762
55.370 10.338212
55.375 9.699747
55.380 9.289536
55.385 9.527603
55.390 9.667179
55.395 9.938256
55.400 10.065142
55.405 10.096287
55.410 10.17601
55.415 10.055357
55.420 9.862592
55.425 9.932755
55.430 10.093432
55.435 10.279266
55.440 10.781848
55.445 10.946864
55.450 11.14789
55.455 11.163672
55.460 11.045795
55.465 11.362031
55.470 11.617771
55.475 11.103713
55.480 10.987602
55.485 10.951941
55.490 11.331293
55.495 11.575003
55.500 10.857967
55.505 10.344255
55.510 10.295328
55.515 10.398867
55.520 10.117286
55.525 10.069798
55.530 9.819539
55.535 10.2092
55.540 10.759678
55.545 10.533846
55.550 10.726285
55.555 10.808221
55.560 10.458301
55.565 10.671919
55.570 10.308939
55.575 10.433048
55.580 10.576143
55.585 10.422553
55.590 10.419846
55.595 10.203428
55.600 9.721367
55.605 9.808629
55.610 9.900099
55.615 9.853329
55.620 9.822762
55.625 10.046711
55.630 9.920294
55.635 10.262268
55.640 10.433032
55.645 10.454711
55.650 10.263453
55.655 10.332438
55.660 10.1129
55.665 10.16406
55.670 10.070376
55.675 9.537654
55.680 9.664906
55.685 10.061601
55.690 10.127076
55.695 10.192104
55.700 10.493079
55.705 10.476345
55.710 10.66973
55.715 10.275716
55.720 9.961542
55.725 10.000854
55.730 10.277906
55.735 10.089093
55.740 10.414443
55.745 10.080812
55.750 10.339108
55.755 10.509533
55.760 10.597221
55.765 10.444857
55.770 10.30736
55.775 10.207226
55.780 10.755774
55.785 10.935559
55.790 10.857777
55.795 10.640977
55.800 10.509609
55.805 10.49687
55.810 10.316696
55.815 10.543732
55.820 10.417537
55.825 10.357843
55.830 10.525277
55.835 10.836877
55.840 10.926778
55.845 10.601457
55.850 9.893974
55.855 9.797916
55.860 9.954493
55.865 10.398928
55.870 10.200141
55.875 10.164009
55.880 10.55909
55.885 11.370203
55.890 11.259543
55.895 10.985126
55.900 10.754637
55.905 11.038457
55.910 11.05203
55.915 11.066808
55.920 10.748412
55.925 11.016829
55.930 10.963703
55.935 11.067357
55.940 11.751839
55.945 12.366348
55.950 12.224934
55.955 12.305414
55.960 12.164408
55.965 12.10142
55.970 11.666497
55.975 10.860162
55.980 10.541075
55.985 11.234775
55.990 11.735328
55.995 12.166352
56.000 12.625
56.005 12.77379
56.010 13.0079
56.015 12.833158
56.020 12.366999
56.025 12.241429
56.030 11.959743
56.035 12.253381
56.040 12.359885
56.045 12.244672
56.050 11.966257
56.055 11.834627
56.060 11.414142
56.065 11.068821
56.070 10.343134
56.075 10.570061
56.080 10.821153
56.085 10.840726
56.090 11.063257
56.095 11.047042
56.100 11.42937
56.105 11.235307
56.110 10.967329
56.115 10.491261
56.120 10.351328
56.125 10.301076
56.130 9.856868
56.135 9.790391
56.140 9.99277
56.145 10.608232
56.150 11.16573
56.155 11.168603
56.160 11.277169
56.165 11.821105
56.170 12.016268
56.175 11.984527
56.180 11.214264
56.185 10.893509
56.190 11.27905
56.195 11.286324
56.200 11.063393
56.205 11.343084
56.210 11.877335
56.215 12.379373
56.220 12.638935
56.225 12.48609
56.230 12.756371
56.235 12.987711
56.240 12.730948
56.245 12.512712
56.250 12.520961
56.255 12.366587
56.260 12.073834
56.265 12.109339
56.270 11.9598
56.275 11.559636
56.280 11.20086
56.285 10.950168
56.290 10.959496
56.295 11.607876
56.300 11.706629
56.305 11.848957
56.310 11.924973
56.315 11.704892
56.320 11.863667
56.325 11.819453
56.330 11.555859
56.335 11.421205
56.340 11.572326
56.345 11.813641
56.350 11.992346
56.355 12.030378
56.360 11.842923
56.365 11.46105
56.370 11.251296
56.375 11.163394
56.380 11.353867
56.385 11.290361
56.390 10.967495
56.395 11.043151
56.400 11.296745
56.405 11.468881
56.410 11.418589
56.415 11.245972
56.420 11.347054
56.425 11.242288
56.430 11.024331
56.435 10.833426
56.440 10.9054
56.445 10.785069
56.450 11.08847
56.455 11.583842
56.460 12.073724
56.465 12.271738
56.470 12.137948
56.475 11.835095
56.480 11.750397
56.485 11.156407
56.490 11.372138
56.495 11.429616
56.500 11.709148
56.505 12.13646
56.510 12.745274
56.515 13.1476
56.520 13.954875
56.525 13.953504
56.530 13.756956
56.535 13.310881
56.540 12.753661
56.545 12.183131
56.550 12.025625
56.555 11.551251
56.560 11.260879
56.565 11.355854
56.570 11.345428
56.575 11.716877
56.580 12.013392
56.585 12.241423
56.590 12.061347
56.595 12.081229
56.600 12.384061
56.605 12.779955
56.610 12.513941
56.615 12.875518
56.620 12.852935
56.625 13.155105
56.630 13.693346
56.635 13.559974
56.640 13.28349
56.645 13.218459
56.650 13.033878
56.655 13.306611
56.660 13.162324
56.665 13.00099
56.670 12.873409
56.675 12.746925
56.680 12.538586
56.685 12.001783
56.690 11.766022
56.695 11.202188
56.700 10.963818
56.705 11.513087
56.710 12.421978
56.715 13.045363
56.720 13.201056
56.725 13.315943
56.730 13.61437
56.735 13.838075
56.740 13.307478
56.745 12.604886
56.750 12.432063
56.755 12.686636
56.760 13.086205
56.765 12.861624
56.770 12.823195
56.775 13.311326
56.780 13.838936
56.785 13.729148
56.790 13.192332
56.795 12.808482
56.800 13.413649
56.805 13.828248
56.810 13.928966
56.815 13.700607
56.820 13.664576
56.825 13.660454
56.830 13.700421
56.835 13.028676
56.840 12.599112
56.845 12.016412
56.850 11.562131
56.855 11.695589
56.860 11.447702
56.865 11.41775
56.870 11.541821
56.875 11.648128
56.880 11.829562
56.885 11.924909
56.890 11.702977
56.895 11.895264
56.900 11.938237
56.905 11.989207
56.910 11.502908
56.915 12.029362
56.920 12.081018
56.925 12.122485
56.930 12.13536
56.935 11.719292
56.940 11.326913
56.945 11.194814
56.950 11.001741
56.955 10.907657
56.960 10.787991
56.965 10.866822
56.970 11.241072
56.975 11.681953
56.980 12.149465
56.985 11.685821
56.990 11.596496
56.995 11.654298
57.000 11.692438
57.005 12.342719
57.010 12.303353
57.015 11.984871
57.020 12.16595
57.025 12.191252
57.030 12.610508
57.035 12.301628
57.040 11.537294
57.045 11.097723
57.050 11.340157
57.055 11.305182
57.060 11.940498
57.065 12.004174
57.070 12.264164
57.075 11.967062
57.080 11.552735
57.085 11.348596
57.090 11.108223
57.095 10.506711
57.100 10.366377
57.105 10.054666
57.110 10.613911
57.115 10.875192
57.120 11.015231
57.125 11.016927
57.130 10.944456
57.135 11.118626
57.140 11.468604
57.145 11.210879
57.150 11.106197
57.155 11.182336
57.160 11.23188
57.165 10.982272
57.170 10.948087
57.175 11.584188
57.180 12.096868
57.185 12.639771
57.190 12.897674
57.195 13.39799
57.200 13.774743
57.205 13.38053
57.210 13.193963
57.215 13.052856
57.220 12.440273
57.225 12.426795
57.230 12.51225
57.235 12.808821
57.240 12.843678
57.245 12.433265
57.250 12.461411
57.255 12.326741
57.260 11.920812
57.265 12.115032
57.270 12.08029
57.275 12.628578
57.280 12.756805
57.285 12.987544
57.290 13.608418
57.295 13.775775
57.300 13.492006
57.305 13.310798
57.310 12.751626
57.315 12.769311
57.320 12.687611
57.325 12.555469
57.330 12.588516
57.335 12.403493
57.340 12.633597
57.345 12.663621
57.350 12.777393
57.355 13.230608
57.360 13.321867
57.365 13.458173
57.370 13.605361
57.375 13.522882
57.380 13.130936
57.385 12.655966
57.390 12.350193
57.395 12.225233
57.400 12.356077
57.405 12.302876
57.410 12.129808
57.415 12.814485
57.420 12.977229
57.425 12.861456
57.430 13.117755
57.435 13.040388
57.440 12.914871
57.445 12.930323
57.450 12.370047
57.455 12.202468
57.460 11.977895
57.465 11.686745
57.470 11.957265
57.475 12.072458
57.480 11.882177
57.485 12.256001
57.490 12.760101
57.495 13.59061
57.500 13.834058
57.505 13.868111
57.510 13.808416
57.515 14.021255
57.520 13.650802
57.525 13.028534
57.530 12.600821
57.535 12.066409
57.540 11.821973
57.545 12.101847
57.550 12.74717
57.555 13.268288
57.560 13.674638
57.565 13.995692
57.570 14.369167
57.575 14.387105
57.580 14.09542
57.585 13.799862
57.590 14.020791
57.595 13.950841
57.600 13.765212
57.605 13.857795
57.610 13.135976
57.615 12.929216
57.620 12.631409
57.625 12.189298
57.630 11.582755
57.635 11.639036
57.640 12.04847
57.645 12.765746
57.650 13.166438
57.655 13.806492
57.660 14.312606
57.665 14.537203
57.670 14.327998
57.675 14.246444
57.680 14.241055
57.685 14.032172
57.690 13.85189
57.695 13.735912
57.700 13.927369
57.705 13.287899
57.710 13.057615
57.715 13.24527
57.720 13.305009
57.725 13.088241
57.730 12.875328
57.735 12.674613
57.740 12.779657
57.745 12.329063
57.750 12.329848
57.755 12.147242
57.760 11.970711
57.765 12.117569
57.770 12.257103
57.775 12.984798
57.780 13.434371
57.785 13.605287
57.790 13.526035
57.795 13.505117
57.800 13.662419
57.805 13.601803
57.810 13.402869
57.815 13.265931
57.820 12.888069
57.825 12.913767
57.830 13.149796
57.835 13.068224
57.840 13.585133
57.845 13.269826
57.850 13.139225
57.855 13.700448
57.860 14.2083
57.865 13.796635
57.870 13.017254
57.875 12.432097
57.880 12.744262
57.885 13.089687
57.890 12.645047
57.895 12.572077
57.900 13.851891
57.905 14.630558
57.910 14.548942
57.915 14.548999
57.920 14.321179
57.925 13.999017
57.930 13.538606
57.935 12.483282
57.940 12.702771
57.945 12.818051
57.950 12.699154
57.955 12.941394
57.960 13.16693
57.965 13.298079
57.970 13.688344
57.975 13.446763
57.980 13.49865
57.985 13.55885
57.990 13.816764
57.995 14.053461
58.000 14.035228
58.005 14.127693
58.010 14.515052
58.015 14.714023
58.020 15.073549
58.025 15.047726
58.030 14.851654
58.035 14.609492
58.040 14.734548
58.045 14.580666
58.050 14.144346
58.055 13.566259
58.060 13.253938
58.065 13.558153
58.070 13.940657
58.075 13.478452
58.080 13.468688
58.085 13.659942
58.090 13.345375
58.095 13.116953
58.100 13.054066
58.105 13.123306
58.110 13.26485
58.115 13.109456
58.120 13.418067
58.125 13.899648
58.130 14.020534
58.135 14.018881
58.140 14.137682
58.145 14.488857
58.150 14.750197
58.155 14.804706
58.160 14.643004
58.165 14.973949
58.170 14.647955
58.175 14.551431
58.180 14.182049
58.185 13.89884
58.190 13.398824
58.195 13.30548
58.200 12.763662
58.205 12.956912
58.210 12.514321
58.215 12.335834
58.220 12.079225
58.225 12.339021
58.230 12.593294
58.235 12.940209
58.240 13.062191
58.245 12.966869
58.250 12.893353
58.255 13.342925
58.260 13.37278
58.265 13.399017
58.270 13.533921
58.275 12.904669
58.280 13.268044
58.285 13.689421
58.290 13.447559
58.295 13.324668
58.300 13.279949
58.305 13.509798
58.310 13.903969
58.315 13.818376
58.320 14.074292
58.325 14.324207
58.330 14.326125
58.335 14.249473
58.340 13.807729
58.345 13.622369
58.350 13.915604
58.355 13.971038
58.360 13.991027
58.365 14.456988
58.370 15.015828
58.375 15.670896
58.380 15.660181
58.385 15.037154
58.390 14.676004
58.395 15.003389
58.400 14.415291
58.405 13.853523
58.410 13.219951
58.415 13.140394
58.420 13.327987
58.425 13.054501
58.430 12.685799
58.435 12.827146
58.440 12.869988
58.445 13.354231
58.450 13.090915
58.455 12.957991
58.460 13.553973
58.465 13.878814
58.470 13.750993
58.475 13.420013
58.480 13.294516
58.485 13.212554
58.490 13.111932
58.495 13.22481
58.500 13.070227
58.505 12.93325
58.510 13.322172
58.515 13.656365
58.520 13.674905
58.525 13.334199
58.530 12.610798
58.535 12.416194
58.540 12.542967
58.545 12.047718
58.550 11.85488
58.555 12.012278
58.560 12.680626
