!@!!GADDS PLOTSO FILE: Chi integration type
!@!!Title/SampleName: map-77
!@!!Comment: ?
!@!!User: Bruker Instrument Administrator
!@!!Site: University of Illinois Chicago
!@!!Frame: map-77_01_000.gfrm
!@!!Wavelengths    1.54184   1.54056   1.54439
!@!!Frame angles: 2Theta: 63.000 Omega: 50.000 Phi: 0.000 Chi: 90.000
!@!!Integration range: 2Theta: 53.000 to 73.000  Gamma: -105.000 to -75.000
!@!!Integration method: bin normalized
!@!N
!@!SS
!@!M
!@!L 0.0 0.0 0.0 0.0
!@!XDegrees
!@!YCounts
53.000 8.133539
53.005 8.34818
53.010 8.360546
53.015 9.253226
53.020 9.364927
53.025 9.536989
53.030 9.548036
53.035 9.544113
53.040 9.820136
53.045 9.74137
53.050 9.029118
53.055 8.809167
53.060 8.303288
53.065 7.967326
53.070 7.428835
53.075 6.93201
53.080 6.942769
53.085 6.929515
53.090 6.900539
53.095 7.419181
53.100 7.887441
53.105 8.281848
53.110 8.495843
53.115 8.92002
53.120 9.255049
53.125 9.462311
53.130 9.494962
53.135 9.307528
53.140 9.036372
53.145 8.667977
53.150 8.354642
53.155 8.391802
53.160 8.33125
53.165 8.100866
53.170 7.992206
53.175 8.295122
53.180 8.375957
53.185 8.467984
53.190 8.442171
53.195 8.657815
53.200 9.106995
53.205 9.643044
53.210 9.602298
53.215 9.956766
53.220 10.007236
53.225 9.84648
53.230 9.323436
53.235 9.163301
53.240 8.952827
53.245 8.849163
53.250 9.022787
53.255 8.983324
53.260 8.875739
53.265 8.840748
53.270 8.413683
53.275 8.236202
53.280 7.884643
53.285 7.596709
53.290 7.286963
53.295 7.358153
53.300 7.536228
53.305 7.743485
53.310 7.927708
53.315 7.904361
53.320 7.961269
53.325 8.140165
53.330 8.083038
53.335 8.193954
53.340 8.515301
53.345 8.755681
53.350 8.879695
53.355 8.807006
53.360 9.401041
53.365 9.853739
53.370 9.689198
53.375 9.354003
53.380 9.349135
53.385 9.57512
53.390 9.846903
53.395 9.51585
53.400 9.394039
53.405 9.833715
53.410 9.957186
53.415 9.53198
53.420 9.195891
53.425 8.717281
53.430 8.439498
53.435 8.071862
53.440 7.676582
53.445 7.916474
53.450 8.363241
53.455 8.210991
53.460 8.343897
53.465 8.380744
53.470 8.144161
53.475 8.258763
53.480 8.103504
53.485 7.90713
53.490 7.911736
53.495 7.901085
53.500 8.067904
53.505 8.40891
53.510 8.684351
53.515 9.077972
53.520 9.378035
53.525 9.402658
53.530 9.716523
53.535 10.061382
53.540 9.583807
53.545 9.144757
53.550 9.186657
53.555 9.30542
53.560 9.137186
53.565 8.598552
53.570 8.45565
53.575 9.224376
53.580 9.269158
53.585 8.944832
53.590 9.243393
53.595 9.641152
53.600 10.092899
53.605 9.797308
53.610 9.363156
53.615 9.451291
53.620 9.606614
53.625 9.785168
53.630 10.042569
53.635 10.155583
53.640 10.191358
53.645 9.986778
53.650 9.793991
53.655 9.25759
53.660 8.960903
53.665 8.493346
53.670 8.139194
53.675 8.208258
53.680 8.271927
53.685 8.457745
53.690 8.608594
53.695 8.530102
53.700 8.831306
53.705 9.220432
53.710 9.343259
53.715 9.399884
53.720 9.209687
53.725 9.387173
53.730 9.206585
53.735 8.789753
53.740 8.593446
53.745 8.499894
53.750 8.217956
53.755 8.702971
53.760 9.109252
53.765 9.589578
53.770 9.962067
53.775 9.85732
53.780 10.079215
53.785 10.256794
53.790 9.927709
53.795 9.475959
53.800 9.305855
53.805 9.192338
53.810 8.852357
53.815 8.646567
53.820 8.662784
53.825 9.194546
53.830 9.227453
53.835 8.961763
53.840 9.425888
53.845 9.807388
53.850 9.793989
53.855 9.405543
53.860 8.852717
53.865 8.857265
53.870 8.797035
53.875 8.661366
53.880 8.902407
53.885 9.057421
53.890 9.271195
53.895 9.58571
53.900 9.876265
53.905 10.004477
53.910 9.917437
53.915 9.863096
53.920 10.23704
53.925 10.137523
53.930 9.790197
53.935 9.621544
53.940 9.697739
53.945 9.781263
53.950 9.892204
53.955 9.661695
53.960 9.66319
53.965 9.972217
53.970 10.17402
53.975 10.210281
53.980 10.063281
53.985 9.650248
53.990 9.135546
53.995 8.944377
54.000 8.778546
54.005 8.728633
54.010 8.604354
54.015 8.748186
54.020 8.972822
54.025 9.617213
54.030 9.737807
54.035 9.952646
54.040 9.703463
54.045 9.582758
54.050 9.362784
54.055 9.16361
54.060 9.119351
54.065 9.452508
54.070 9.557491
54.075 9.887931
54.080 10.233382
54.085 10.526124
54.090 10.484766
54.095 10.027422
54.100 9.653905
54.105 9.645483
54.110 9.250694
54.115 9.318149
54.120 9.198845
54.125 9.163276
54.130 9.610614
54.135 9.519088
54.140 9.487241
54.145 9.66153
54.150 9.36273
54.155 9.567133
54.160 9.814284
54.165 10.14815
54.170 10.386774
54.175 10.414041
54.180 10.552029
54.185 10.520411
54.190 10.475412
54.195 10.587345
54.200 10.294966
54.205 10.013886
54.210 9.800065
54.215 9.681392
54.220 10.086633
54.225 9.905685
54.230 9.515014
54.235 9.817172
54.240 10.076985
54.245 10.210533
54.250 10.307766
54.255 9.974483
54.260 9.968253
54.265 9.910823
54.270 9.751096
54.275 9.794972
54.280 10.067801
54.285 10.172105
54.290 10.675703
54.295 10.941397
54.300 11.472057
54.305 11.688978
54.310 11.588356
54.315 11.497955
54.320 11.302677
54.325 11.007981
54.330 11.062151
54.335 11.13901
54.340 10.739766
54.345 10.393892
54.350 10.715431
54.355 10.788173
54.360 10.758012
54.365 10.423162
54.370 10.395337
54.375 10.798163
54.380 10.951084
54.385 10.655804
54.390 10.724167
54.395 11.300995
54.400 10.955403
54.405 10.565751
54.410 10.14089
54.415 10.143753
54.420 10.056767
54.425 9.728339
54.430 9.184621
54.435 9.485682
54.440 9.221952
54.445 9.04428
54.450 8.840621
54.455 9.101169
54.460 9.455635
54.465 8.954114
54.470 9.112304
54.475 9.533473
54.480 9.698668
54.485 9.649529
54.490 9.014388
54.495 8.495283
54.500 8.693499
54.505 8.121231
54.510 8.213329
54.515 8.250689
54.520 8.662459
54.525 9.123543
54.530 9.214499
54.535 9.44536
54.540 10.047397
54.545 9.811269
54.550 9.694866
54.555 9.632107
54.560 10.176277
54.565 10.618711
54.570 10.156054
54.575 9.652651
54.580 9.43067
54.585 9.617447
54.590 9.480907
54.595 9.206786
54.600 8.876619
54.605 9.015766
54.610 9.422353
54.615 9.678686
54.620 9.458055
54.625 9.554449
54.630 9.519292
54.635 9.576324
54.640 9.574672
54.645 9.186045
54.650 8.939278
54.655 9.027273
54.660 8.861111
54.665 8.744746
54.670 9.025908
54.675 8.892294
54.680 9.222862
54.685 9.552616
54.690 9.880001
54.695 10.14029
54.700 10.114382
54.705 10.045835
54.710 10.292203
54.715 10.132386
54.720 9.751714
54.725 9.240557
54.730 9.063808
54.735 9.23895
54.740 9.381703
54.745 9.531077
54.750 9.620646
54.755 10.177608
54.760 10.112157
54.765 10.115537
54.770 10.179623
54.775 9.99109
54.780 9.899975
54.785 10.127364
54.790 9.773472
54.795 10.036104
54.800 10.505962
54.805 10.401525
54.810 10.706351
54.815 10.489001
54.820 10.359569
54.825 10.713329
54.830 11.172154
54.835 11.182342
54.840 10.871226
54.845 11.164344
54.850 11.365278
54.855 11.273277
54.860 11.088238
54.865 10.521634
54.870 10.235049
54.875 10.466399
54.880 10.233529
54.885 10.303858
54.890 10.298344
54.895 9.871257
54.900 10.065234
54.905 10.019971
54.910 9.657516
54.915 9.54597
54.920 9.897099
54.925 10.38594
54.930 10.856394
54.935 10.955968
54.940 11.111388
54.945 11.697099
54.950 11.892195
54.955 11.790453
54.960 11.983038
54.965 11.864481
54.970 11.654677
54.975 11.62254
54.980 11.162724
54.985 10.879915
54.990 10.649645
54.995 10.312904
55.000 10.20948
55.005 10.107963
55.010 10.195093
55.015 10.151635
55.020 9.929175
55.025 9.730378
55.030 9.600646
55.035 9.463642
55.040 9.556964
55.045 9.627461
55.050 9.716132
55.055 10.036065
55.060 10.284279
55.065 10.317654
55.070 10.542162
55.075 10.825966
55.080 10.901757
55.085 11.109494
55.090 11.082347
55.095 10.885048
55.100 11.121699
55.105 11.221639
55.110 10.856886
55.115 10.330089
55.120 10.525298
55.125 10.684594
55.130 10.602786
55.135 10.836186
55.140 10.490609
55.145 10.768188
55.150 10.57443
55.155 9.9158
55.160 9.344755
55.165 9.517667
55.170 9.630001
55.175 9.808329
55.180 9.914768
55.185 10.539501
55.190 11.022037
55.195 11.434541
55.200 11.122912
55.205 10.905087
55.210 10.916046
55.215 10.728369
55.220 10.600696
55.225 10.609819
55.230 10.352122
55.235 10.216423
55.240 10.105022
55.245 10.226823
55.250 10.618132
55.255 10.608894
55.260 9.997
55.265 10.415614
55.270 10.727461
55.275 11.02974
55.280 11.104061
55.285 10.854496
55.290 10.917883
55.295 10.941836
55.300 10.616739
55.305 10.635498
55.310 10.32586
55.315 10.161141
55.320 10.164586
55.325 10.565616
55.330 11.133007
55.335 11.322317
55.340 11.173926
55.345 11.038202
55.350 11.422116
55.355 11.687511
55.360 11.532593
55.365 10.952731
55.370 11.010859
55.375 11.18793
55.380 11.254281
55.385 10.703219
55.390 10.442784
55.395 10.694493
55.400 10.841247
55.405 10.865849
55.410 10.936013
55.415 11.366158
55.420 11.826486
55.425 11.810923
55.430 11.56213
55.435 10.976187
55.440 10.704077
55.445 10.616847
55.450 9.751212
55.455 9.720293
55.460 9.443645
55.465 9.869222
55.470 10.206638
55.475 9.746084
55.480 10.174391
55.485 10.74282
55.490 11.046021
55.495 11.24021
55.500 11.143738
55.505 11.729781
55.510 12.177974
55.515 11.750093
55.520 11.561416
55.525 11.343825
55.530 11.003238
55.535 11.110579
55.540 10.766126
55.545 9.959007
55.550 10.143927
55.555 9.878141
55.560 9.608225
55.565 9.789652
55.570 9.60366
55.575 10.207234
55.580 10.627213
55.585 10.622284
55.590 10.989802
55.595 11.031074
55.600 10.40147
55.605 9.983182
55.610 9.927117
55.615 9.90116
55.620 9.921268
55.625 9.593022
55.630 10.337556
55.635 10.977018
55.640 11.332561
55.645 11.606812
55.650 12.098432
55.655 12.015102
55.660 12.253895
55.665 11.616947
55.670 11.823131
55.675 11.28498
55.680 11.104091
55.685 11.210185
55.690 11.22216
55.695 11.079498
55.700 10.965701
55.705 10.652924
55.710 11.090203
55.715 10.835664
55.720 11.014658
55.725 11.698131
55.730 11.566509
55.735 11.261338
55.740 11.491179
55.745 11.500361
55.750 11.531643
55.755 10.782232
55.760 10.252867
55.765 10.826649
55.770 11.699409
55.775 11.866282
55.780 11.770458
55.785 11.482679
55.790 11.601461
55.795 11.441017
55.800 11.114361
55.805 10.519972
55.810 10.49434
55.815 10.989102
55.820 11.401179
55.825 11.858756
55.830 11.756774
55.835 12.141459
55.840 12.682479
55.845 12.526011
55.850 12.115221
55.855 11.722631
55.860 11.650741
55.865 12.03275
55.870 11.543525
55.875 11.032148
55.880 11.620305
55.885 11.86186
55.890 11.906592
55.895 11.682382
55.900 11.370395
55.905 11.361281
55.910 11.414056
55.915 10.714577
55.920 10.479695
55.925 10.661729
55.930 10.926924
55.935 11.441409
55.940 12.11892
55.945 12.535477
55.950 13.021039
55.955 13.577098
55.960 13.409385
55.965 12.763099
55.970 12.623108
55.975 12.617671
55.980 12.421849
55.985 12.038604
55.990 11.521996
55.995 11.293156
56.000 11.37198
56.005 11.119272
56.010 10.757881
56.015 10.661195
56.020 10.54754
56.025 10.917685
56.030 11.405892
56.035 11.57886
56.040 11.630404
56.045 11.36694
56.050 11.289107
56.055 11.418161
56.060 11.224145
56.065 11.27845
56.070 10.960752
56.075 11.114002
56.080 11.397274
56.085 11.34184
56.090 11.8329
56.095 12.721952
56.100 13.308239
56.105 14.011859
56.110 13.885291
56.115 13.88407
56.120 14.10428
56.125 13.729379
56.130 12.875096
56.135 12.298251
56.140 11.588969
56.145 11.965205
56.150 12.275812
56.155 12.469312
56.160 12.322995
56.165 12.722066
56.170 13.25979
56.175 13.185997
56.180 12.701687
56.185 12.568623
56.190 12.417555
56.195 12.385097
56.200 12.30147
56.205 12.013945
56.210 11.837932
56.215 11.832095
56.220 11.972175
56.225 12.463573
56.230 12.601601
56.235 12.628272
56.240 13.064913
56.245 13.656418
56.250 14.572662
56.255 14.096076
56.260 13.734387
56.265 13.45342
56.270 12.959166
56.275 12.513969
56.280 11.910304
56.285 11.185249
56.290 11.497569
56.295 12.01279
56.300 11.94241
56.305 12.017502
56.310 12.394135
56.315 12.634965
56.320 12.589661
56.325 12.064436
56.330 11.921308
56.335 12.323366
56.340 12.517546
56.345 12.633565
56.350 12.418917
56.355 12.138505
56.360 12.365284
56.365 12.241639
56.370 12.062561
56.375 11.768316
56.380 11.653607
56.385 11.644585
56.390 11.532262
56.395 11.326952
56.400 11.348275
56.405 11.673485
56.410 11.847791
56.415 11.703994
56.420 11.887921
56.425 12.095286
56.430 12.570348
56.435 12.429253
56.440 12.180521
56.445 12.012272
56.450 12.138212
56.455 12.044043
56.460 11.861718
56.465 11.439766
56.470 11.450442
56.475 11.496839
56.480 11.827497
56.485 12.059151
56.490 12.45668
56.495 12.61725
56.500 12.443002
56.505 12.729641
56.510 13.036609
56.515 12.720872
56.520 12.422542
56.525 12.173382
56.530 11.933815
56.535 11.947414
56.540 11.900121
56.545 11.687871
56.550 11.817342
56.555 12.153521
56.560 12.122715
56.565 12.309781
56.570 12.45242
56.575 12.538719
56.580 12.835038
56.585 12.534839
56.590 12.223631
56.595 12.476804
56.600 12.996832
56.605 12.727165
56.610 11.949021
56.615 12.252731
56.620 12.662739
56.625 12.403855
56.630 12.489692
56.635 11.717983
56.640 11.824993
56.645 12.121363
56.650 11.605896
56.655 11.733232
56.660 12.010537
56.665 11.736906
56.670 11.910161
56.675 12.204836
56.680 12.994055
56.685 13.192006
56.690 12.672298
56.695 13.129496
56.700 13.702628
56.705 14.130582
56.710 13.875202
56.715 13.140879
56.720 13.293596
56.725 13.566455
56.730 13.564359
56.735 13.373578
56.740 13.336373
56.745 13.136314
56.750 13.366207
56.755 13.506755
56.760 13.574235
56.765 13.288292
56.770 13.340998
56.775 13.312782
56.780 13.668284
56.785 13.763611
56.790 13.525198
56.795 13.496083
56.800 13.65273
56.805 13.66859
56.810 13.42551
56.815 13.402575
56.820 13.098577
56.825 13.510618
56.830 13.780449
56.835 13.598295
56.840 13.623617
56.845 13.525178
56.850 13.046545
56.855 13.297626
56.860 13.140964
56.865 12.825482
56.870 12.941891
56.875 13.152717
56.880 13.822564
56.885 14.048836
56.890 13.359654
56.895 12.926289
56.900 12.981544
56.905 12.511176
56.910 12.176947
56.915 11.963261
56.920 11.699227
56.925 11.811255
56.930 12.035738
56.935 12.095847
56.940 12.609953
56.945 13.364303
56.950 13.521873
56.955 13.991632
56.960 14.575687
56.965 14.782631
56.970 14.618418
56.975 14.428994
56.980 13.210826
56.985 13.079116
56.990 12.804873
56.995 12.078115
57.000 11.978272
57.005 12.13321
57.010 11.802482
57.015 12.393806
57.020 12.600043
57.025 12.696372
57.030 12.825945
57.035 12.709427
57.040 12.874903
57.045 13.109118
57.050 12.99117
57.055 12.30436
57.060 11.672579
57.065 11.8006
57.070 12.22072
57.075 12.776829
57.080 13.16146
57.085 13.845153
57.090 14.580518
57.095 15.215108
57.100 15.166701
57.105 14.677754
57.110 14.192778
57.115 14.183586
57.120 13.505186
57.125 13.884188
57.130 13.930251
57.135 14.222644
57.140 14.261955
57.145 14.094953
57.150 13.528371
57.155 13.451176
57.160 13.065349
57.165 12.889958
57.170 13.278126
57.175 13.391388
57.180 13.134678
57.185 13.080695
57.190 13.104048
57.195 13.138366
57.200 13.062778
57.205 12.540073
57.210 12.751015
57.215 12.729108
57.220 12.912898
57.225 12.718966
57.230 12.518355
57.235 12.378513
57.240 12.494767
57.245 12.379793
57.250 12.576569
57.255 12.350351
57.260 12.149223
57.265 12.687769
57.270 12.832658
57.275 12.307624
57.280 12.309041
57.285 12.28777
57.290 12.465821
57.295 13.055327
57.300 12.88111
57.305 12.869819
57.310 13.034769
57.315 13.079265
57.320 13.60524
57.325 13.761444
57.330 13.315243
57.335 13.084695
57.340 13.402141
57.345 13.959595
57.350 14.559027
57.355 14.13341
57.360 14.057355
57.365 14.837088
57.370 15.071524
57.375 14.853517
57.380 14.206065
57.385 13.969753
57.390 13.925036
57.395 14.195618
57.400 14.209149
57.405 14.185998
57.410 14.24239
57.415 14.254341
57.420 13.914021
57.425 14.405729
57.430 13.866181
57.435 13.307648
57.440 13.296196
57.445 13.478213
57.450 13.946193
57.455 14.263063
57.460 14.057336
57.465 14.057109
57.470 14.261158
57.475 13.972587
57.480 14.07423
57.485 13.80841
57.490 13.755921
57.495 13.76808
57.500 14.040877
57.505 14.691191
57.510 14.869835
57.515 14.914227
57.520 14.753857
57.525 14.795335
57.530 14.877554
57.535 14.607408
57.540 13.973323
57.545 13.888939
57.550 14.168979
57.555 14.377535
57.560 14.508361
57.565 14.738661
57.570 14.972358
57.575 14.807702
57.580 14.913163
57.585 14.606255
57.590 14.823723
57.595 14.939496
57.600 14.579038
57.605 14.68762
57.610 14.895243
57.615 14.535743
57.620 14.645389
57.625 14.332057
57.630 13.846113
57.635 13.911954
57.640 13.591976
57.645 13.629493
57.650 13.700508
57.655 13.329545
57.660 12.916368
57.665 13.071798
57.670 12.846822
57.675 12.671178
57.680 12.674318
57.685 12.623406
57.690 13.092453
57.695 13.862905
57.700 13.997329
57.705 14.075397
57.710 14.421704
57.715 15.01088
57.720 15.817995
57.725 15.711555
57.730 15.348281
57.735 15.316061
57.740 15.100184
57.745 14.629866
57.750 13.980726
57.755 13.409931
57.760 13.39799
57.765 13.228799
57.770 12.950818
57.775 13.335982
57.780 13.958834
57.785 14.230585
57.790 13.884584
57.795 13.88468
57.800 14.263174
57.805 15.086353
57.810 15.308661
57.815 14.654404
57.820 14.263613
57.825 14.488527
57.830 14.254696
57.835 13.754528
57.840 12.850571
57.845 12.641246
57.850 13.149126
57.855 13.782476
57.860 13.865966
57.865 13.991763
57.870 13.773337
57.875 13.890725
57.880 13.47266
57.885 13.163517
57.890 12.712426
57.895 12.754546
57.900 12.544515
57.905 12.410577
57.910 12.647264
57.915 13.254773
57.920 12.994254
57.925 13.600768
57.930 14.067601
57.935 14.730022
57.940 15.325316
57.945 15.099496
57.950 14.909319
57.955 14.967845
57.960 14.567661
57.965 14.202627
57.970 13.833774
57.975 13.722438
57.980 13.758947
57.985 13.969486
57.990 13.884272
57.995 13.999424
58.000 14.175981
58.005 14.219032
58.010 14.304891
58.015 14.50226
58.020 14.347372
58.025 14.469037
58.030 14.651745
58.035 14.766484
58.040 15.46029
58.045 15.583418
58.050 15.217674
58.055 15.554563
58.060 15.486259
58.065 15.164083
58.070 15.14725
58.075 15.209188
58.080 15.132769
58.085 15.456774
58.090 15.391351
58.095 15.465747
58.100 15.416807
58.105 15.222466
58.110 14.267965
58.115 14.438766
58.120 14.259444
58.125 14.278749
58.130 13.826064
58.135 13.507331
58.140 13.804226
58.145 14.232092
58.150 14.240667
58.155 14.209423
58.160 13.943127
58.165 14.3381
58.170 14.499346
58.175 14.251365
58.180 14.053319
58.185 13.51989
58.190 13.50688
58.195 13.671257
58.200 13.91898
58.205 13.880108
58.210 14.190187
58.215 14.34852
58.220 14.536442
58.225 14.39136
58.230 14.117706
58.235 13.752382
58.240 13.917933
58.245 13.287508
58.250 12.994423
58.255 12.94259
58.260 12.909005
58.265 12.890397
58.270 13.076361
58.275 12.772079
58.280 13.405798
58.285 14.30631
58.290 14.751631
58.295 15.060329
58.300 15.021548
58.305 14.900223
58.310 15.260416
58.315 15.012295
58.320 14.46467
58.325 14.671049
58.330 14.424587
58.335 14.548366
58.340 14.333572
58.345 14.717148
58.350 15.195292
58.355 14.77386
58.360 14.40824
58.365 14.761745
58.370 14.883674
58.375 14.821716
58.380 14.102592
58.385 13.451062
58.390 13.463538
58.395 13.004074
58.400 12.600778
58.405 13.097538
58.410 13.608013
58.415 13.854608
58.420 14.290149
58.425 14.546679
58.430 15.235424
58.435 15.734449
58.440 15.136616
58.445 14.99609
58.450 14.968821
58.455 14.858925
58.460 14.8833
58.465 14.961027
58.470 14.915424
58.475 14.694949
58.480 14.682301
58.485 14.878613
58.490 14.870418
58.495 14.679677
58.500 14.528439
58.505 14.317191
58.510 14.324606
58.515 14.041938
58.520 13.565897
58.525 13.454346
