!@!!GADDS PLOTSO FILE: Chi integration type
!@!!Title/SampleName: map-df
!@!!Comment: ?
!@!!User: Bruker Instrument Administrator
!@!!Site: University of Illinois Chicago
!@!!Frame: map-df_01_000.gfrm
!@!!Wavelengths    1.54184   1.54056   1.54439
!@!!Frame angles: 2Theta: 63.000 Omega: 50.000 Phi: 0.000 Chi: 90.000
!@!!Integration range: 2Theta: 53.000 to 73.000  Gamma: -105.000 to -75.000
!@!!Integration method: bin normalized
!@!N
!@!SS
!@!M
!@!L 0.0 0.0 0.0 0.0
!@!XDegrees
!@!YCounts
53.000 5.822567
53.005 5.728015
53.010 5.534003
53.015 5.584243
53.020 5.728916
53.025 5.821982
53.030 5.756754
53.035 5.603439
53.040 5.442933
53.045 5.369801
53.050 5.411025
53.055 5.458561
53.060 5.764399
53.065 5.63605
53.070 5.990695
53.075 6.40824
53.080 6.431481
53.085 6.388473
53.090 6.002551
53.095 5.940051
53.100 5.967496
53.105 5.89055
53.110 5.899877
53.115 6.029335
53.120 5.875809
53.125 5.935049
53.130 6.106923
53.135 6.221735
53.140 6.317862
53.145 6.361528
53.150 6.306645
53.155 6.497072
53.160 6.638081
53.165 6.369043
53.170 6.190773
53.175 6.063663
53.180 6.098847
53.185 5.961108
53.190 5.896693
53.195 5.776191
53.200 5.529629
53.205 5.45221
53.210 5.292047
53.215 5.179238
53.220 5.511035
53.225 5.56879
53.230 5.526096
53.235 5.865516
53.240 5.827235
53.245 5.991111
53.250 5.92818
53.255 5.852643
53.260 5.903108
53.265 6.116087
53.270 6.199928
53.275 6.252046
53.280 6.154927
53.285 6.276005
53.290 6.162258
53.295 6.359711
53.300 6.106455
53.305 6.3392
53.310 6.464568
53.315 6.555232
53.320 6.400483
53.325 6.521188
53.330 6.533144
53.335 6.68687
53.340 6.275637
53.345 6.290612
53.350 6.541398
53.355 6.79897
53.360 6.530118
53.365 6.687671
53.370 6.834668
53.375 6.601651
53.380 6.327068
53.385 6.242261
53.390 6.263061
53.395 6.23836
53.400 6.349458
53.405 6.444799
53.410 6.868479
53.415 6.877733
53.420 6.838076
53.425 6.921174
53.430 6.676807
53.435 6.287169
53.440 5.867147
53.445 5.646577
53.450 5.756099
53.455 6.05971
53.460 6.320051
53.465 6.559818
53.470 6.629369
53.475 6.914448
53.480 6.826576
53.485 6.702124
53.490 6.375822
53.495 6.381387
53.500 6.669273
53.505 6.915483
53.510 6.629651
53.515 6.633373
53.520 6.91651
53.525 7.275585
53.530 7.173207
53.535 6.761544
53.540 6.483507
53.545 6.369998
53.550 6.64412
53.555 6.437061
53.560 6.209158
53.565 6.378767
53.570 6.658318
53.575 7.280038
53.580 7.621715
53.585 6.969289
53.590 6.884974
53.595 6.970955
53.600 6.582048
53.605 6.238669
53.610 6.062584
53.615 6.127061
53.620 6.294059
53.625 5.939015
53.630 5.868756
53.635 6.487231
53.640 6.566471
53.645 6.358632
53.650 6.184336
53.655 6.249382
53.660 6.709926
53.665 6.977878
53.670 6.61738
53.675 6.656176
53.680 6.679871
53.685 6.56163
53.690 6.262105
53.695 5.969089
53.700 5.779072
53.705 5.836106
53.710 5.760231
53.715 5.855362
53.720 5.957373
53.725 6.262347
53.730 6.592677
53.735 6.599313
53.740 6.712595
53.745 6.901742
53.750 6.9969
53.755 6.77342
53.760 6.583211
53.765 6.221152
53.770 6.388096
53.775 6.34853
53.780 6.363124
53.785 6.538176
53.790 7.06333
53.795 7.333472
53.800 7.660045
53.805 7.839603
53.810 7.971927
53.815 8.140256
53.820 8.074066
53.825 7.718653
53.830 7.608415
53.835 7.119722
53.840 7.139264
53.845 7.086343
53.850 7.207541
53.855 7.55667
53.860 7.68236
53.865 7.808164
53.870 7.788217
53.875 8.054808
53.880 8.021149
53.885 7.793811
53.890 7.902443
53.895 7.827184
53.900 7.863037
53.905 7.821497
53.910 7.524847
53.915 7.10712
53.920 6.875834
53.925 6.581159
53.930 6.272592
53.935 6.313469
53.940 6.153192
53.945 6.302317
53.950 6.927486
53.955 7.307046
53.960 7.391496
53.965 7.902937
53.970 7.872564
53.975 8.224803
53.980 7.936048
53.985 7.673334
53.990 7.642608
53.995 7.942418
54.000 7.652667
54.005 7.35535
54.010 7.380874
54.015 7.972038
54.020 7.982413
54.025 7.813515
54.030 7.676073
54.035 7.994855
54.040 8.48225
54.045 8.823971
54.050 8.892852
54.055 8.998279
54.060 9.082761
54.065 9.56775
54.070 9.520442
54.075 9.154486
54.080 8.70436
54.085 8.49861
54.090 8.515131
54.095 8.446738
54.100 7.697481
54.105 7.728778
54.110 8.201506
54.115 8.265221
54.120 8.556529
54.125 9.026444
54.130 8.871243
54.135 8.871981
54.140 8.127681
54.145 7.240619
54.150 7.032587
54.155 6.374813
54.160 6.004781
54.165 5.865312
54.170 6.110333
54.175 6.604326
54.180 7.367692
54.185 7.83172
54.190 7.992449
54.195 8.000653
54.200 8.354096
54.205 8.472529
54.210 8.115709
54.215 8.059202
54.220 7.942025
54.225 7.869579
54.230 8.223289
54.235 7.854824
54.240 7.799819
54.245 8.128714
54.250 7.908436
54.255 7.898381
54.260 7.94215
54.265 7.812633
54.270 7.995531
54.275 7.721673
54.280 7.412118
54.285 7.209375
54.290 7.17477
54.295 7.15976
54.300 7.282069
54.305 7.815135
54.310 8.085001
54.315 8.268466
54.320 8.206417
54.325 8.047039
54.330 7.893039
54.335 7.887688
54.340 8.289407
54.345 8.508781
54.350 8.871133
54.355 9.249369
54.360 9.358015
54.365 9.3373
54.370 9.299993
54.375 8.82121
54.380 8.909899
54.385 8.574368
54.390 8.21228
54.395 8.607382
54.400 8.696223
54.405 8.567142
54.410 8.569602
54.415 7.927538
54.420 8.090619
54.425 8.233603
54.430 8.062309
54.435 7.730061
54.440 7.442974
54.445 7.679697
54.450 8.083791
54.455 7.958274
54.460 8.009167
54.465 7.557203
54.470 7.613095
54.475 7.494991
54.480 6.854058
54.485 6.797692
54.490 6.886564
54.495 6.952265
54.500 7.159795
54.505 7.488997
54.510 7.825696
54.515 7.86984
54.520 7.421852
54.525 7.444001
54.530 7.53128
54.535 8.029765
54.540 7.936633
54.545 8.005774
54.550 8.487931
54.555 8.519116
54.560 8.570749
54.565 8.564323
54.570 8.266705
54.575 8.21907
54.580 8.336705
54.585 8.228499
54.590 8.299365
54.595 8.40537
54.600 8.456567
54.605 8.406903
54.610 8.156343
54.615 7.50102
54.620 7.612043
54.625 7.487606
54.630 7.198021
54.635 7.309904
54.640 7.766261
54.645 7.979249
54.650 8.411775
54.655 8.465572
54.660 8.633586
54.665 8.379372
54.670 7.886047
54.675 7.638629
54.680 7.879888
54.685 7.990238
54.690 8.182607
54.695 8.095773
54.700 8.210705
54.705 8.471527
54.710 8.445134
54.715 8.064424
54.720 8.181032
54.725 7.828046
54.730 7.871838
54.735 7.762979
54.740 7.715193
54.745 7.821964
54.750 8.080853
54.755 8.088556
54.760 8.457853
54.765 8.563506
54.770 8.85835
54.775 9.003065
54.780 9.476987
54.785 9.291059
54.790 8.913204
54.795 8.897463
54.800 8.687724
54.805 8.351658
54.810 8.015403
54.815 7.487197
54.820 7.947005
54.825 8.493545
54.830 8.574268
54.835 9.196331
54.840 9.41025
54.845 9.472872
54.850 9.335342
54.855 8.731055
54.860 8.464352
54.865 8.330315
54.870 8.203469
54.875 8.299004
54.880 8.481188
54.885 8.655184
54.890 8.717968
54.895 8.916848
54.900 9.466302
54.905 9.555942
54.910 9.644818
54.915 9.783539
54.920 9.887712
54.925 9.721311
54.930 9.768952
54.935 9.399711
54.940 9.360318
54.945 9.240127
54.950 9.609704
54.955 9.68996
54.960 9.890441
54.965 9.465832
54.970 9.241055
54.975 8.960826
54.980 8.98155
54.985 9.504867
54.990 9.510197
54.995 9.564164
55.000 9.527172
55.005 9.573336
55.010 9.607763
55.015 9.318024
55.020 8.673804
55.025 8.686474
55.030 8.71321
55.035 8.937126
55.040 9.040378
55.045 9.588305
55.050 9.689026
55.055 9.869889
55.060 9.89554
55.065 9.435912
55.070 9.450221
55.075 9.481784
55.080 9.224984
55.085 9.240724
55.090 9.020757
55.095 8.959407
55.100 9.314363
55.105 9.480119
55.110 9.572906
55.115 9.733707
55.120 9.954707
55.125 9.93242
55.130 9.840826
55.135 9.859387
55.140 9.790188
55.145 9.405767
55.150 8.77045
55.155 8.204741
55.160 8.271785
55.165 8.577309
55.170 8.75392
55.175 8.36728
55.180 8.536723
55.185 9.305627
55.190 9.655268
55.195 9.598324
55.200 9.416998
55.205 9.074689
55.210 9.521715
55.215 9.517852
55.220 9.607388
55.225 9.570946
55.230 9.652854
55.235 9.781648
55.240 10.066525
55.245 9.936441
55.250 10.241938
55.255 10.015469
55.260 9.869282
55.265 9.697893
55.270 9.262228
55.275 9.366303
55.280 9.230024
55.285 8.930885
55.290 8.75703
55.295 8.877337
55.300 9.30641
55.305 9.729601
55.310 9.832874
55.315 10.30062
55.320 10.0291
55.325 10.485956
55.330 10.546114
55.335 10.2012
55.340 9.951193
55.345 9.345923
55.350 9.152122
55.355 8.871292
55.360 8.538465
55.365 8.72519
55.370 8.849022
55.375 8.995527
55.380 9.087661
55.385 9.268354
55.390 9.946089
55.395 9.976266
55.400 9.85691
55.405 9.649827
55.410 10.036721
55.415 10.385009
55.420 10.124273
55.425 10.299706
55.430 10.338703
55.435 10.518377
55.440 10.563738
55.445 10.235769
55.450 10.143052
55.455 10.094442
55.460 9.732081
55.465 10.00269
55.470 10.103028
55.475 10.331542
55.480 10.599794
55.485 10.438083
55.490 10.667248
55.495 10.997013
55.500 10.603894
55.505 10.413268
55.510 10.251492
55.515 10.234259
55.520 11.001236
55.525 11.112396
55.530 10.81036
55.535 10.721869
55.540 10.503248
55.545 10.157429
55.550 9.843639
55.555 9.435362
55.560 9.356406
55.565 9.56593
55.570 9.766891
55.575 10.148911
55.580 10.5248
55.585 10.651962
55.590 10.342613
55.595 10.500512
55.600 10.358319
55.605 10.22382
55.610 10.444683
55.615 10.111823
55.620 10.032497
55.625 10.478769
55.630 10.340564
55.635 10.136621
55.640 10.09592
55.645 10.126936
55.650 10.496353
55.655 10.760564
55.660 10.848369
55.665 11.057643
55.670 11.678786
55.675 11.412009
55.680 11.003349
55.685 10.772019
55.690 10.247254
55.695 9.675376
55.700 9.560361
55.705 9.272851
55.710 9.696801
55.715 10.042808
55.720 10.312498
55.725 10.539536
55.730 10.771069
55.735 10.388817
55.740 10.519968
55.745 10.556445
55.750 10.689047
55.755 10.481021
55.760 10.413969
55.765 10.475424
55.770 10.801476
55.775 11.041137
55.780 10.688148
55.785 10.306989
55.790 10.505953
55.795 10.662243
55.800 10.380477
55.805 10.047888
55.810 9.095734
55.815 8.832521
55.820 9.465234
55.825 9.506312
55.830 9.542387
55.835 10.018085
55.840 10.805213
55.845 12.100073
55.850 11.909683
55.855 11.385599
55.860 11.094777
55.865 11.095774
55.870 10.73777
55.875 10.141312
55.880 9.897607
55.885 10.035601
55.890 10.036786
55.895 10.235012
55.900 10.03471
55.905 10.500884
55.910 10.444309
55.915 10.603324
55.920 10.583552
55.925 10.388113
55.930 10.266318
55.935 10.371857
55.940 10.225152
55.945 10.506624
55.950 10.457652
55.955 10.669145
55.960 10.789272
55.965 10.779769
55.970 10.642642
55.975 10.347991
55.980 10.097651
55.985 10.205581
55.990 10.86739
55.995 10.965947
56.000 11.016985
56.005 11.098907
56.010 11.302575
56.015 11.100311
56.020 11.154816
56.025 10.78397
56.030 10.782514
56.035 10.912086
56.040 11.145818
56.045 11.109921
56.050 10.837497
56.055 10.168468
56.060 9.808702
56.065 9.690974
56.070 9.613558
56.075 9.568776
56.080 9.529641
56.085 9.841304
56.090 10.412527
56.095 10.789662
56.100 11.10933
56.105 11.240858
56.110 11.09234
56.115 10.963632
56.120 11.021382
56.125 10.368721
56.130 10.042323
56.135 9.813291
56.140 9.707032
56.145 9.8369
56.150 10.368131
56.155 10.655155
56.160 11.503494
56.165 11.996111
56.170 12.227943
56.175 12.541955
56.180 12.080158
56.185 11.573667
56.190 11.55621
56.195 11.014404
56.200 11.214104
56.205 11.216848
56.210 11.206896
56.215 11.764203
56.220 12.002326
56.225 12.059301
56.230 12.299157
56.235 12.122527
56.240 12.142332
56.245 11.513417
56.250 11.485759
56.255 12.035642
56.260 12.069407
56.265 12.332432
56.270 12.202058
56.275 12.191561
56.280 12.709478
56.285 12.73755
56.290 12.427549
56.295 12.62982
56.300 12.54182
56.305 12.760662
56.310 12.71075
56.315 12.486868
56.320 12.113248
56.325 11.931378
56.330 11.641323
56.335 11.5743
56.340 11.823472
56.345 12.358823
56.350 12.338288
56.355 12.328092
56.360 12.530181
56.365 12.702616
56.370 12.734213
56.375 12.188412
56.380 11.922476
56.385 11.868336
56.390 11.582031
56.395 11.387443
56.400 11.32885
56.405 11.297017
56.410 11.288338
56.415 11.476138
56.420 11.936704
56.425 12.186187
56.430 12.562644
56.435 12.328577
56.440 11.894318
56.445 11.823389
56.450 11.787608
56.455 11.467587
56.460 11.543942
56.465 11.316612
56.470 11.423774
56.475 11.781233
56.480 11.480135
56.485 11.371833
56.490 12.026567
56.495 12.087433
56.500 11.870404
56.505 12.198699
56.510 12.641018
56.515 13.079332
56.520 13.253477
56.525 12.648467
56.530 12.48355
56.535 12.686978
56.540 12.623195
56.545 12.699234
56.550 12.334169
56.555 12.509346
56.560 12.51827
56.565 12.426377
56.570 11.965583
56.575 11.624746
56.580 11.238492
56.585 11.240894
56.590 10.846411
56.595 10.924465
56.600 11.252655
56.605 11.48123
56.610 11.232128
56.615 11.313422
56.620 11.7679
56.625 11.945399
56.630 12.106466
56.635 12.166818
56.640 12.294784
56.645 12.745614
56.650 12.874166
56.655 12.63317
56.660 12.83802
56.665 12.512686
56.670 12.442753
56.675 12.450177
56.680 12.686581
56.685 13.01401
56.690 13.071455
56.695 12.809839
56.700 12.739934
56.705 12.617659
56.710 12.548529
56.715 12.261979
56.720 11.782393
56.725 11.534192
56.730 11.735217
56.735 11.847445
56.740 11.775337
56.745 11.807888
56.750 12.044856
56.755 12.69367
56.760 13.279347
56.765 13.429216
56.770 13.492772
56.775 13.449789
56.780 13.784413
56.785 13.519353
56.790 12.746052
56.795 12.424521
56.800 12.126612
56.805 12.429103
56.810 12.524278
56.815 12.212259
56.820 12.10473
56.825 12.262127
56.830 12.21462
56.835 12.117197
56.840 11.712369
56.845 11.686
56.850 11.914637
56.855 12.139257
56.860 11.958143
56.865 12.456926
56.870 12.984283
56.875 13.00112
56.880 12.390654
56.885 12.38439
56.890 12.119066
56.895 11.820066
56.900 11.573908
56.905 11.602811
56.910 11.310319
56.915 11.891487
56.920 12.108584
56.925 12.403103
56.930 12.897707
56.935 12.82395
56.940 12.78859
56.945 13.174906
56.950 12.666883
56.955 12.468164
56.960 12.515308
56.965 12.187537
56.970 12.112983
56.975 12.529582
56.980 12.842259
56.985 13.033403
56.990 13.241461
56.995 13.272148
57.000 13.491504
57.005 13.610467
57.010 13.550432
57.015 13.567779
57.020 13.612247
57.025 13.361718
57.030 13.098308
57.035 13.092681
57.040 13.196193
57.045 12.992813
57.050 13.180086
57.055 13.311833
57.060 13.144805
57.065 13.461688
57.070 13.161142
57.075 12.733377
57.080 12.625639
57.085 12.054965
57.090 11.712082
57.095 11.955629
57.100 12.061422
57.105 12.049239
57.110 11.737494
57.115 11.325911
57.120 11.867097
57.125 12.067017
57.130 12.108741
57.135 12.328085
57.140 12.440813
57.145 12.526626
57.150 12.66319
57.155 12.354394
57.160 12.262046
57.165 12.254707
57.170 11.769563
57.175 11.926341
57.180 12.363148
57.185 12.897678
57.190 12.812698
57.195 12.967168
57.200 12.928819
57.205 13.287794
57.210 13.450577
57.215 13.289558
57.220 12.988997
57.225 13.254414
57.230 13.327068
57.235 12.897006
57.240 12.997701
57.245 13.567636
57.250 13.826517
57.255 13.696393
57.260 14.111023
57.265 14.472056
57.270 14.65728
57.275 14.311254
57.280 13.522274
57.285 13.07987
57.290 13.057654
57.295 12.792042
57.300 13.166535
57.305 13.571939
57.310 13.608519
57.315 13.859344
57.320 14.381748
57.325 14.625415
57.330 14.250526
57.335 14.149361
57.340 13.980247
57.345 14.153393
57.350 14.554636
57.355 14.816126
57.360 14.420922
57.365 14.574368
57.370 14.333379
57.375 14.125958
57.380 14.143715
57.385 14.519931
57.390 14.793185
57.395 14.845802
57.400 15.162498
57.405 15.279845
57.410 15.407238
57.415 15.379266
57.420 14.439169
57.425 14.006824
57.430 13.83483
57.435 13.396247
57.440 12.966936
57.445 12.620202
57.450 12.862041
57.455 12.778386
57.460 12.866733
57.465 12.881321
57.470 13.246911
57.475 13.788046
57.480 14.048084
57.485 13.664457
57.490 13.831091
57.495 14.13121
57.500 14.413887
57.505 14.140143
57.510 14.243914
57.515 14.511756
57.520 14.996625
57.525 14.847102
57.530 14.258677
57.535 14.214389
57.540 13.925037
57.545 13.543227
57.550 12.982813
57.555 12.950621
57.560 13.808244
57.565 14.409799
57.570 14.37091
57.575 14.493509
57.580 14.376084
57.585 14.747384
57.590 14.855245
57.595 13.905311
57.600 13.432855
57.605 12.999652
57.610 13.157372
57.615 13.675711
57.620 13.794691
57.625 13.425019
57.630 13.482693
57.635 13.954647
57.640 14.492903
57.645 14.629006
57.650 14.762816
57.655 14.869693
57.660 14.838455
57.665 14.904809
57.670 15.229767
57.675 15.291862
57.680 14.931705
57.685 14.268648
57.690 14.013899
57.695 13.801033
57.700 13.598156
57.705 13.479035
57.710 13.53655
57.715 13.732533
57.720 13.531509
57.725 13.741114
57.730 14.161514
57.735 14.41993
57.740 14.223727
57.745 13.940458
57.750 13.913322
57.755 13.685472
57.760 13.628459
57.765 13.858895
57.770 13.586544
57.775 13.543315
57.780 13.719726
57.785 14.241712
57.790 14.532495
57.795 14.452692
57.800 14.425668
57.805 14.751067
57.810 15.142883
57.815 15.361167
57.820 15.094018
57.825 15.621197
57.830 15.62128
57.835 15.469776
57.840 15.154496
57.845 14.602955
57.850 14.050543
57.855 14.039621
57.860 13.637786
57.865 13.689835
57.870 13.439702
57.875 13.35709
57.880 13.983306
57.885 14.543974
57.890 14.965007
57.895 15.304406
57.900 15.677115
57.905 15.798163
57.910 15.467362
57.915 15.009976
57.920 14.634843
57.925 14.20173
57.930 13.909723
57.935 13.736344
57.940 13.845137
57.945 14.08532
57.950 13.931919
57.955 13.717238
57.960 13.709007
57.965 13.650068
57.970 13.510382
57.975 13.53604
57.980 13.264676
57.985 13.897078
57.990 14.412517
57.995 14.536077
58.000 14.811804
58.005 15.282727
58.010 15.36272
58.015 15.582003
58.020 15.271555
58.025 14.612016
58.030 14.439267
58.035 14.377355
58.040 14.164086
58.045 14.322283
58.050 14.331759
58.055 15.37918
58.060 15.934366
58.065 16.401972
58.070 16.537025
58.075 17.224882
58.080 17.971231
58.085 17.759876
58.090 17.068899
58.095 16.896013
58.100 17.045214
58.105 17.035555
58.110 16.779438
58.115 16.51931
58.120 16.35465
58.125 16.55232
58.130 16.90974
58.135 16.647589
58.140 17.105072
58.145 16.953163
58.150 16.958441
58.155 17.436609
58.160 16.802755
58.165 16.681738
58.170 16.956997
58.175 16.524818
58.180 16.420929
58.185 16.605951
58.190 16.550089
58.195 16.786873
58.200 16.801434
58.205 16.43614
58.210 16.43672
58.215 16.552782
58.220 16.454519
58.225 16.938475
58.230 17.653496
58.235 17.935347
58.240 17.949129
58.245 18.092484
58.250 18.126921
58.255 17.649057
58.260 17.327654
58.265 16.827629
58.270 17.183754
58.275 17.3295
58.280 17.112787
58.285 17.908632
58.290 18.576366
58.295 19.369284
58.300 19.840929
58.305 19.629585
58.310 20.750195
58.315 21.556803
58.320 21.04575
58.325 21.018053
58.330 20.88896
58.335 21.686266
58.340 22.677994
58.345 22.610922
58.350 22.382631
58.355 23.469887
58.360 24.058439
58.365 23.995146
58.370 23.705492
58.375 23.831383
58.380 24.446184
58.385 24.934984
58.390 24.396942
58.395 23.790958
58.400 23.565622
58.405 23.407257
58.410 22.943844
58.415 22.971437
58.420 23.107996
58.425 23.295919
58.430 24.066669
58.435 24.715725
58.440 24.631342
58.445 24.969398
58.450 25.27104
58.455 25.748045
58.460 25.436451
58.465 25.412138
58.470 25.780046
58.475 25.97216
58.480 26.261921
58.485 26.417974
58.490 26.782394
58.495 27.479834
58.500 27.70318
58.505 27.743404
58.510 27.12816
58.515 26.427147
58.520 25.9268
58.525 25.639353
58.530 25.529982
58.535 25.116739
58.540 24.532907
58.545 25.064796
58.550 25.327034
58.555 24.961208
58.560 25.352076
58.565 25.676092
58.570 26.100994
58.575 26.586411
58.580 26.80307
58.585 27.240219
