!@!!GADDS PLOTSO FILE: Chi integration type
!@!!Title/SampleName: map-82
!@!!Comment: ?
!@!!User: Bruker Instrument Administrator
!@!!Site: University of Illinois Chicago
!@!!Frame: map-82_01_000.gfrm
!@!!Wavelengths    1.54184   1.54056   1.54439
!@!!Frame angles: 2Theta: 63.000 Omega: 50.000 Phi: 0.000 Chi: 90.000
!@!!Integration range: 2Theta: 53.000 to 73.000  Gamma: -105.000 to -75.000
!@!!Integration method: bin normalized
!@!N
!@!SS
!@!M
!@!L 0.0 0.0 0.0 0.0
!@!XDegrees
!@!YCounts
53.000 9.803144
53.005 10.160941
53.010 10.173641
53.015 10.195144
53.020 10.051661
53.025 9.694613
53.030 9.937402
53.035 9.256841
53.040 9.24069
53.045 9.60981
53.050 9.721974
53.055 9.741241
53.060 9.707522
53.065 9.146132
53.070 9.294696
53.075 9.50276
53.080 8.938348
53.085 8.776219
53.090 8.893892
53.095 9.724414
53.100 10.697792
53.105 10.991282
53.110 10.746532
53.115 10.876255
53.120 10.848779
53.125 10.763122
53.130 10.402101
53.135 9.536157
53.140 9.10808
53.145 8.859205
53.150 8.443139
53.155 8.020145
53.160 7.675929
53.165 7.962774
53.170 8.433171
53.175 8.76803
53.180 9.339951
53.185 9.534973
53.190 10.009065
53.195 10.293733
53.200 10.062098
53.205 10.340126
53.210 10.459786
53.215 10.517206
53.220 11.023571
53.225 11.36651
53.230 11.392431
53.235 11.246737
53.240 10.858942
53.245 10.649857
53.250 9.91116
53.255 9.569354
53.260 9.486142
53.265 9.479295
53.270 9.392824
53.275 9.300229
53.280 9.786766
53.285 10.175695
53.290 9.609541
53.295 9.155058
53.300 9.467477
53.305 9.507236
53.310 9.105471
53.315 8.652555
53.320 8.716301
53.325 8.905621
53.330 9.696503
53.335 9.717182
53.340 10.122899
53.345 10.9357
53.350 11.197473
53.355 11.490335
53.360 11.104446
53.365 10.445964
53.370 10.133891
53.375 10.218585
53.380 10.120855
53.385 9.914932
53.390 10.21591
53.395 9.886646
53.400 9.825379
53.405 9.980547
53.410 9.959123
53.415 9.741886
53.420 9.572606
53.425 9.556859
53.430 9.855073
53.435 10.139281
53.440 9.896456
53.445 10.121804
53.450 10.000595
53.455 9.921625
53.460 9.92853
53.465 10.226152
53.470 10.089688
53.475 10.081161
53.480 9.772159
53.485 10.127389
53.490 9.758939
53.495 9.327938
53.500 9.235045
53.505 9.397989
53.510 9.742309
53.515 9.807892
53.520 10.168884
53.525 10.595649
53.530 11.092049
53.535 11.271988
53.540 11.223178
53.545 11.032123
53.550 11.218476
53.555 10.963682
53.560 11.037255
53.565 11.201229
53.570 11.368175
53.575 11.903161
53.580 12.085219
53.585 11.786585
53.590 11.664793
53.595 11.608355
53.600 12.048366
53.605 11.456435
53.610 10.790335
53.615 10.666405
53.620 11.087001
53.625 11.239408
53.630 10.702834
53.635 10.036695
53.640 10.178459
53.645 9.825043
53.650 9.26368
53.655 9.26799
53.660 9.047696
53.665 8.926404
53.670 9.33067
53.675 9.578399
53.680 9.862056
53.685 10.097136
53.690 10.033457
53.695 10.24713
53.700 9.983653
53.705 9.523447
53.710 9.842976
53.715 10.256922
53.720 9.937492
53.725 9.488662
53.730 10.014637
53.735 10.337366
53.740 10.229321
53.745 9.91048
53.750 9.972908
53.755 10.142887
53.760 10.546649
53.765 10.565769
53.770 10.707417
53.775 10.874662
53.780 10.874267
53.785 10.634009
53.790 10.280606
53.795 9.665386
53.800 9.536923
53.805 9.673354
53.810 9.692519
53.815 9.217595
53.820 9.447127
53.825 9.760225
53.830 9.869208
53.835 9.44618
53.840 9.267809
53.845 9.444709
53.850 9.730394
53.855 9.452875
53.860 9.349434
53.865 9.38861
53.870 9.765029
53.875 9.750555
53.880 9.586339
53.885 9.44145
53.890 9.645662
53.895 10.168473
53.900 10.126033
53.905 9.893968
53.910 9.89018
53.915 9.985777
53.920 10.252103
53.925 9.873799
53.930 9.750023
53.935 9.671432
53.940 9.710856
53.945 9.643423
53.950 9.76177
53.955 9.805717
53.960 9.779518
53.965 9.505378
53.970 9.783172
53.975 9.830953
53.980 9.574861
53.985 9.215021
53.990 9.44241
53.995 9.746633
54.000 10.139554
54.005 9.975121
54.010 10.423588
54.015 11.102518
54.020 11.960252
54.025 11.981354
54.030 11.324352
54.035 10.86218
54.040 10.372939
54.045 10.270448
54.050 9.838936
54.055 9.112988
54.060 9.242964
54.065 9.945838
54.070 10.434414
54.075 10.412638
54.080 10.37759
54.085 10.383045
54.090 10.642834
54.095 10.362218
54.100 9.995555
54.105 9.785873
54.110 9.752059
54.115 9.694307
54.120 9.911965
54.125 10.035991
54.130 10.283669
54.135 10.53222
54.140 10.852396
54.145 10.658955
54.150 10.270371
54.155 10.005282
54.160 9.633367
54.165 9.967049
54.170 9.965977
54.175 10.0745
54.180 10.486375
54.185 10.530004
54.190 10.73173
54.195 10.5867
54.200 10.579238
54.205 10.180573
54.210 10.211292
54.215 10.260092
54.220 10.266607
54.225 10.809044
54.230 11.157075
54.235 11.548312
54.240 11.951491
54.245 11.729172
54.250 11.528891
54.255 11.468466
54.260 11.195151
54.265 10.946958
54.270 10.740554
54.275 11.160047
54.280 11.828259
54.285 12.406147
54.290 12.249792
54.295 11.860288
54.300 12.094382
54.305 12.175113
54.310 11.813043
54.315 11.616375
54.320 11.25982
54.325 11.565257
54.330 11.442583
54.335 11.457994
54.340 11.481707
54.345 11.08544
54.350 10.902888
54.355 11.056923
54.360 11.254274
54.365 11.537282
54.370 11.514306
54.375 11.339371
54.380 11.041541
54.385 10.722405
54.390 11.05126
54.395 10.90582
54.400 10.652968
54.405 10.220069
54.410 10.455558
54.415 11.132791
54.420 11.234079
54.425 10.939392
54.430 11.273229
54.435 10.984132
54.440 11.847463
54.445 11.903693
54.450 11.945871
54.455 12.065122
54.460 11.577135
54.465 11.467324
54.470 11.431479
54.475 10.869281
54.480 10.724262
54.485 10.246459
54.490 10.043382
54.495 10.260391
54.500 10.610938
54.505 10.657972
54.510 10.504643
54.515 10.380371
54.520 10.244417
54.525 10.545191
54.530 10.552851
54.535 10.283935
54.540 10.208272
54.545 10.478498
54.550 10.797876
54.555 11.025312
54.560 10.817632
54.565 10.757693
54.570 10.824417
54.575 10.829828
54.580 10.864875
54.585 10.915634
54.590 11.025665
54.595 11.461583
54.600 11.47279
54.605 11.58002
54.610 11.637579
54.615 11.214039
54.620 11.221758
54.625 11.066322
54.630 10.404422
54.635 10.592065
54.640 10.773629
54.645 10.425932
54.650 10.493609
54.655 10.697867
54.660 10.670872
54.665 10.668344
54.670 10.400128
54.675 10.148157
54.680 10.363374
54.685 10.409018
54.690 10.186203
54.695 10.505653
54.700 10.589103
54.705 10.461555
54.710 10.791591
54.715 11.085439
54.720 11.208889
54.725 11.238961
54.730 11.411323
54.735 11.797826
54.740 12.215125
54.745 12.426539
54.750 12.825123
54.755 12.877648
54.760 12.872369
54.765 12.473276
54.770 12.055962
54.775 12.101552
54.780 11.630085
54.785 11.078462
54.790 10.919523
54.795 11.001415
54.800 11.396204
54.805 11.623593
54.810 11.801333
54.815 12.174709
54.820 11.977064
54.825 11.987294
54.830 11.717957
54.835 11.272471
54.840 10.8345
54.845 10.304558
54.850 10.346252
54.855 10.57474
54.860 10.677333
54.865 11.349957
54.870 11.969248
54.875 12.425339
54.880 12.64202
54.885 12.889212
54.890 13.012249
54.895 13.270226
54.900 12.766461
54.905 12.814927
54.910 13.177513
54.915 12.607985
54.920 12.623608
54.925 12.529785
54.930 12.245038
54.935 11.629064
54.940 10.72369
54.945 10.527522
54.950 11.449967
54.955 11.461517
54.960 11.642741
54.965 12.07285
54.970 12.369942
54.975 12.7642
54.980 12.868611
54.985 12.904283
54.990 12.48684
54.995 12.517526
55.000 12.470505
55.005 12.316759
55.010 11.949391
55.015 11.146318
55.020 10.705947
55.025 10.421417
55.030 9.891914
55.035 10.101065
55.040 10.244047
55.045 10.632312
55.050 11.10372
55.055 11.048791
55.060 11.318253
55.065 11.640485
55.070 11.396257
55.075 11.27793
55.080 10.954982
55.085 11.234448
55.090 10.92909
55.095 10.694269
55.100 10.372534
55.105 10.536576
55.110 10.735207
55.115 10.879438
55.120 10.831987
55.125 11.333212
55.130 12.031435
55.135 12.571177
55.140 12.694708
55.145 12.81526
55.150 12.921618
55.155 12.802057
55.160 13.079648
55.165 12.561947
55.170 12.178047
55.175 12.250079
55.180 12.378728
55.185 12.561903
55.190 13.020494
55.195 12.961534
55.200 12.920162
55.205 12.552375
55.210 12.149854
55.215 11.799139
55.220 11.334215
55.225 10.843999
55.230 10.651715
55.235 11.123174
55.240 11.685564
55.245 11.543715
55.250 11.452514
55.255 11.343845
55.260 10.79975
55.265 10.599319
55.270 10.139678
55.275 10.120085
55.280 10.436697
55.285 11.072033
55.290 11.317163
55.295 12.042273
55.300 11.82693
55.305 12.117153
55.310 12.055259
55.315 11.905342
55.320 11.654738
55.325 11.543346
55.330 11.21926
55.335 11.580132
55.340 11.802809
55.345 11.662629
55.350 11.04472
55.355 11.111674
55.360 11.541955
55.365 11.269618
55.370 10.588992
55.375 10.166109
55.380 11.047366
55.385 11.62771
55.390 11.588561
55.395 12.227115
55.400 12.671644
55.405 12.954003
55.410 12.862871
55.415 12.369421
55.420 12.142645
55.425 11.610806
55.430 10.607646
55.435 11.024335
55.440 11.398911
55.445 11.396004
55.450 11.10957
55.455 11.428649
55.460 11.582484
55.465 12.250068
55.470 11.698901
55.475 11.698057
55.480 12.318637
55.485 12.484058
55.490 12.310473
55.495 12.411372
55.500 12.719441
55.505 13.384436
55.510 13.286407
55.515 12.969209
55.520 13.303741
55.525 13.297663
55.530 12.499407
55.535 11.956534
55.540 11.447709
55.545 11.120831
55.550 10.856588
55.555 10.258833
55.560 10.689667
55.565 11.608296
55.570 11.457162
55.575 11.513087
55.580 11.535521
55.585 12.029765
55.590 11.770653
55.595 11.537813
55.600 11.574156
55.605 11.731907
55.610 12.361419
55.615 12.224989
55.620 11.997544
55.625 12.132336
55.630 12.451595
55.635 12.416693
55.640 12.022575
55.645 10.997313
55.650 11.310494
55.655 11.361049
55.660 11.60354
55.665 10.759856
55.670 10.55208
55.675 11.00003
55.680 11.686273
55.685 12.138593
55.690 12.458279
55.695 12.545941
55.700 13.254972
55.705 13.219926
55.710 13.104229
55.715 13.202616
55.720 12.757838
55.725 13.363577
55.730 13.158278
55.735 12.702072
55.740 12.523169
55.745 12.460809
55.750 12.576071
55.755 12.258663
55.760 11.369602
55.765 11.455748
55.770 11.646355
55.775 11.601272
55.780 11.451642
55.785 11.46489
55.790 11.896523
55.795 12.044677
55.800 12.217769
55.805 12.424657
55.810 12.491713
55.815 12.611122
55.820 12.897284
55.825 13.262871
55.830 13.960757
55.835 13.689203
55.840 14.5988
55.845 14.894383
55.850 14.639761
55.855 13.944656
55.860 13.132571
55.865 12.532413
55.870 12.250749
55.875 12.026493
55.880 12.409169
55.885 12.356285
55.890 12.31273
55.895 12.739563
55.900 12.88871
55.905 12.846307
55.910 12.530901
55.915 12.610177
55.920 13.065625
55.925 13.214618
55.930 12.874787
55.935 12.844223
55.940 13.096713
55.945 13.227349
55.950 12.85529
55.955 12.429567
55.960 12.605722
55.965 12.725219
55.970 12.500708
55.975 12.075093
55.980 11.368278
55.985 11.227962
55.990 11.084131
55.995 10.895876
56.000 11.06958
56.005 11.572376
56.010 11.785564
56.015 12.214718
56.020 12.801788
56.025 13.216769
56.030 13.535407
56.035 13.921767
56.040 13.956596
56.045 13.802577
56.050 12.965876
56.055 11.95348
56.060 11.994077
56.065 11.76028
56.070 11.286446
56.075 11.108426
56.080 11.531712
56.085 12.618896
56.090 13.265933
56.095 12.91114
56.100 13.174449
56.105 13.4326
56.110 13.285554
56.115 13.493616
56.120 13.794818
56.125 14.188572
56.130 14.392155
56.135 14.295559
56.140 14.663755
56.145 14.720127
56.150 14.490987
56.155 14.378846
56.160 13.995959
56.165 14.022446
56.170 13.796969
56.175 13.30235
56.180 12.83974
56.185 12.332569
56.190 12.187737
56.195 12.008359
56.200 11.977215
56.205 11.892949
56.210 11.865177
56.215 11.853763
56.220 11.690723
56.225 11.577559
56.230 11.782353
56.235 11.960519
56.240 11.921805
56.245 12.293159
56.250 12.414177
56.255 12.749623
56.260 12.575047
56.265 12.006167
56.270 11.959193
56.275 11.814548
56.280 11.497358
56.285 11.604783
56.290 11.913201
56.295 12.119802
56.300 12.636111
56.305 12.2632
56.310 12.472754
56.315 12.945849
56.320 12.697617
56.325 12.217537
56.330 12.016943
56.335 11.762589
56.340 12.221255
56.345 12.409367
56.350 12.015326
56.355 11.990917
56.360 12.088849
56.365 12.060368
56.370 11.879636
56.375 11.60546
56.380 11.875701
56.385 12.170588
56.390 12.24356
56.395 12.16234
56.400 12.164001
56.405 12.398218
56.410 12.654259
56.415 12.379257
56.420 12.672112
56.425 12.642224
56.430 12.898582
56.435 13.279702
56.440 13.180103
56.445 12.467946
56.450 12.127922
56.455 11.603127
56.460 11.427639
56.465 11.368905
56.470 11.670826
56.475 12.102683
56.480 12.507537
56.485 12.677824
56.490 13.560774
56.495 13.631756
56.500 13.804901
56.505 13.188851
56.510 12.901429
56.515 12.804852
56.520 12.734531
56.525 12.225027
56.530 11.94536
56.535 11.548917
56.540 11.327527
56.545 11.428767
56.550 11.86965
56.555 12.405822
56.560 12.631012
56.565 12.927388
56.570 12.872584
56.575 13.062674
56.580 13.14721
56.585 12.701745
56.590 12.408055
56.595 12.836744
56.600 12.355422
56.605 12.568748
56.610 11.992059
56.615 11.437209
56.620 11.390817
56.625 11.484161
56.630 11.485826
56.635 12.264358
56.640 12.102679
56.645 12.329926
56.650 12.618049
56.655 12.800079
56.660 12.177855
56.665 11.948905
56.670 11.488988
56.675 12.094338
56.680 12.49159
56.685 12.924767
56.690 13.31654
56.695 14.2267
56.700 14.51085
56.705 14.582357
56.710 14.266405
56.715 14.211896
56.720 14.12079
56.725 14.04683
56.730 13.795156
56.735 13.814171
56.740 13.82422
56.745 13.73885
56.750 13.842657
56.755 13.706426
56.760 13.443061
56.765 13.473741
56.770 13.087474
56.775 13.45068
56.780 14.000613
56.785 14.010962
56.790 14.06787
56.795 13.91821
56.800 14.405272
56.805 15.204276
56.810 14.858488
56.815 14.664019
56.820 15.073262
56.825 15.182894
56.830 14.960086
56.835 14.175047
56.840 13.939557
56.845 13.995887
56.850 13.500888
56.855 13.100773
56.860 13.083674
56.865 13.213149
56.870 12.979391
56.875 12.737766
56.880 12.635629
56.885 12.743923
56.890 12.657082
56.895 12.628755
56.900 12.938823
56.905 13.23286
56.910 13.37873
56.915 13.450057
56.920 13.506466
56.925 13.766158
56.930 13.641132
56.935 12.970906
56.940 13.002273
56.945 13.074287
56.950 13.194276
56.955 12.749658
56.960 12.649471
56.965 12.846378
56.970 13.505238
56.975 13.432674
56.980 13.289167
56.985 13.450239
56.990 13.698423
56.995 14.022922
57.000 13.757002
57.005 13.826181
57.010 14.231359
57.015 14.503308
57.020 14.119973
57.025 13.901045
57.030 13.407804
57.035 13.83952
57.040 13.503051
57.045 12.84903
57.050 12.917489
57.055 13.039533
57.060 13.09271
57.065 13.108099
57.070 12.687816
57.075 13.327189
57.080 14.160292
57.085 13.864874
57.090 14.493845
57.095 14.232101
57.100 14.078506
57.105 14.503166
57.110 14.128004
57.115 13.659444
57.120 13.912269
57.125 13.927044
57.130 14.464819
57.135 14.686368
57.140 14.241852
57.145 14.565431
57.150 15.140456
57.155 15.237934
57.160 15.32225
57.165 15.274726
57.170 15.498834
57.175 15.402986
57.180 15.108516
57.185 14.608993
57.190 14.28287
57.195 14.259408
57.200 14.188558
57.205 13.681429
57.210 13.566342
57.215 13.770752
57.220 14.635024
57.225 14.604908
57.230 13.952532
57.235 13.964244
57.240 13.932137
57.245 13.757955
57.250 13.557343
57.255 13.135422
57.260 12.956708
57.265 12.933974
57.270 13.141585
57.275 13.59656
57.280 13.875287
57.285 13.499994
57.290 13.666717
57.295 14.2342
57.300 14.429442
57.305 14.482046
57.310 14.764213
57.315 14.496918
57.320 14.105162
57.325 13.575132
57.330 13.312893
57.335 13.593811
57.340 13.330106
57.345 13.209881
57.350 13.280265
57.355 13.655348
57.360 13.612938
57.365 13.851344
57.370 13.843637
57.375 13.836178
57.380 14.155456
57.385 14.421676
57.390 14.618143
57.395 14.764214
57.400 14.975564
57.405 15.099697
57.410 15.221199
57.415 14.944572
57.420 14.79595
57.425 14.469873
57.430 14.594534
57.435 13.877773
57.440 13.904763
57.445 14.395741
57.450 14.891234
57.455 15.368353
57.460 15.586937
57.465 15.574587
57.470 15.960224
57.475 16.07988
57.480 15.646027
57.485 14.798198
57.490 14.67373
57.495 14.905181
57.500 14.967319
57.505 15.064512
57.510 15.000291
57.515 14.710758
57.520 14.578848
57.525 13.548695
57.530 12.691482
57.535 12.245666
57.540 12.070842
57.545 11.97167
57.550 12.1835
57.555 12.817743
57.560 13.81226
57.565 14.042941
57.570 14.456051
57.575 14.538057
57.580 14.85661
57.585 15.266633
57.590 15.265358
57.595 15.452659
57.600 15.29977
57.605 15.514563
57.610 15.357218
57.615 14.89873
57.620 14.780993
57.625 14.875659
57.630 14.915827
57.635 14.838472
57.640 14.094811
57.645 13.897379
57.650 13.815889
57.655 13.455034
57.660 13.222614
57.665 13.082452
57.670 13.549774
57.675 14.261603
57.680 14.572543
57.685 14.572602
57.690 15.077398
57.695 15.257224
57.700 15.490955
57.705 15.401249
57.710 15.057969
57.715 14.714644
57.720 14.787432
57.725 14.449954
57.730 14.761899
57.735 14.422287
57.740 14.366581
57.745 15.03957
57.750 15.144855
57.755 15.167919
57.760 14.574458
57.765 14.580987
57.770 14.898225
57.775 14.717464
57.780 14.26111
57.785 14.331754
57.790 14.324256
57.795 14.351815
57.800 13.885867
57.805 13.483235
57.810 13.358538
57.815 13.750662
57.820 14.159656
57.825 14.533298
57.830 15.012367
57.835 15.352117
57.840 15.963121
57.845 15.869717
57.850 15.205519
57.855 14.930563
57.860 14.475371
57.865 14.080999
57.870 14.335381
57.875 14.104507
57.880 14.12888
57.885 14.315747
57.890 14.611773
57.895 14.78129
57.900 14.480281
57.905 14.220981
57.910 14.287637
57.915 14.770501
57.920 14.479636
57.925 14.172415
57.930 14.097388
57.935 14.266621
57.940 14.477407
57.945 14.508668
57.950 13.973525
57.955 14.390838
57.960 14.436423
57.965 15.130383
57.970 15.22488
57.975 14.646243
57.980 14.532676
57.985 14.485202
57.990 14.222034
57.995 14.751195
58.000 15.157873
58.005 15.10397
58.010 15.429901
58.015 15.381713
58.020 15.498768
58.025 15.530723
58.030 14.891931
58.035 14.77848
58.040 14.964194
58.045 14.930527
58.050 15.065246
58.055 15.386929
58.060 15.394435
58.065 15.368238
58.070 15.115084
58.075 15.373003
58.080 15.769154
58.085 16.017788
58.090 16.266088
58.095 16.349459
58.100 16.343927
58.105 16.466446
58.110 16.007736
58.115 15.682615
58.120 15.105661
58.125 14.690454
58.130 14.838399
58.135 15.2268
58.140 15.19198
58.145 14.907268
58.150 14.796258
58.155 15.030877
58.160 14.746812
58.165 14.36677
58.170 13.650934
58.175 13.311023
58.180 13.545533
58.185 13.126374
58.190 12.976807
58.195 13.279626
58.200 13.547059
58.205 13.962783
58.210 14.323299
58.215 14.583964
58.220 14.87055
58.225 15.195938
58.230 15.082754
58.235 14.987587
58.240 14.979211
58.245 14.80137
58.250 15.262519
58.255 15.87433
58.260 15.710879
58.265 15.140413
58.270 14.956687
58.275 14.572172
58.280 14.609546
58.285 14.327538
58.290 13.990907
58.295 14.066909
58.300 14.815547
58.305 15.335741
58.310 15.446239
58.315 15.429962
58.320 15.693611
58.325 15.831807
58.330 15.822303
58.335 16.213739
58.340 16.256632
58.345 16.279997
58.350 15.862071
58.355 15.419722
58.360 15.370034
58.365 15.318179
58.370 14.980585
58.375 14.954726
58.380 14.49642
58.385 14.467626
58.390 14.455729
58.395 14.248964
58.400 14.128887
58.405 14.33184
58.410 14.58332
58.415 15.175194
58.420 15.54474
58.425 15.80022
58.430 15.807447
58.435 15.802402
58.440 15.154316
58.445 14.799902
58.450 14.656418
58.455 14.55345
58.460 14.396427
58.465 14.503456
58.470 14.11216
58.475 13.901731
58.480 13.824133
