!@!!GADDS PLOTSO FILE: Chi integration type
!@!!Title/SampleName: map-20
!@!!Comment: ?
!@!!User: Bruker Instrument Administrator
!@!!Site: University of Illinois Chicago
!@!!Frame: map-20_01_000.gfrm
!@!!Wavelengths    1.54184   1.54056   1.54439
!@!!Frame angles: 2Theta: 63.000 Omega: 50.000 Phi: 0.000 Chi: 90.000
!@!!Integration range: 2Theta: 53.000 to 73.000  Gamma: -105.000 to -75.000
!@!!Integration method: bin normalized
!@!N
!@!SS
!@!M
!@!L 0.0 0.0 0.0 0.0
!@!XDegrees
!@!YCounts
53.000 9.305281
53.005 9.068752
53.010 9.008217
53.015 8.81217
53.020 8.631829
53.025 8.670654
53.030 8.295671
53.035 8.10301
53.040 8.810524
53.045 9.019882
53.050 9.292067
53.055 9.129463
53.060 9.275666
53.065 9.61983
53.070 9.576163
53.075 9.299639
53.080 9.480048
53.085 9.715645
53.090 9.379616
53.095 9.146169
53.100 8.881784
53.105 8.849304
53.110 8.876281
53.115 8.82643
53.120 8.657543
53.125 8.828872
53.130 8.777602
53.135 8.856444
53.140 9.118608
53.145 8.893816
53.150 9.12016
53.155 9.03046
53.160 9.240475
53.165 9.365807
53.170 9.024404
53.175 8.566357
53.180 8.465684
53.185 8.231319
53.190 8.143676
53.195 8.150114
53.200 8.032578
53.205 8.601315
53.210 9.356555
53.215 9.418044
53.220 9.528147
53.225 9.716879
53.230 9.780519
53.235 9.76174
53.240 9.603851
53.245 9.078809
53.250 9.645081
53.255 9.858288
53.260 9.755988
53.265 9.288869
53.270 9.256626
53.275 8.971297
53.280 8.921642
53.285 8.387828
53.290 7.841225
53.295 7.975007
53.300 8.152612
53.305 7.902502
53.310 7.987286
53.315 7.765726
53.320 7.750821
53.325 8.010118
53.330 7.723514
53.335 7.822478
53.340 8.024884
53.345 8.385598
53.350 8.432982
53.355 8.672826
53.360 8.671929
53.365 8.82701
53.370 8.675166
53.375 8.484924
53.380 8.235741
53.385 8.390841
53.390 8.300701
53.395 8.378207
53.400 8.574816
53.405 9.014882
53.410 9.388105
53.415 9.399276
53.420 9.221365
53.425 9.232334
53.430 9.137188
53.435 9.276662
53.440 9.047471
53.445 9.032355
53.450 9.227159
53.455 9.375809
53.460 9.392982
53.465 9.082801
53.470 8.586535
53.475 8.34148
53.480 7.857027
53.485 7.995656
53.490 8.23997
53.495 8.474549
53.500 8.962519
53.505 9.192584
53.510 9.393339
53.515 9.837239
53.520 9.531162
53.525 9.30148
53.530 9.118242
53.535 9.035032
53.540 9.141683
53.545 9.136312
53.550 8.877074
53.555 8.641184
53.560 8.345337
53.565 8.310218
53.570 8.037656
53.575 7.841894
53.580 7.611532
53.585 7.540479
53.590 7.837613
53.595 7.878256
53.600 8.133397
53.605 8.353105
53.610 8.370393
53.615 8.572964
53.620 8.760867
53.625 8.180417
53.630 8.154175
53.635 7.807434
53.640 7.697342
53.645 7.773577
53.650 7.853144
53.655 7.905103
53.660 8.784121
53.665 9.693239
53.670 10.109412
53.675 10.102857
53.680 9.987429
53.685 9.957278
53.690 10.251327
53.695 10.103706
53.700 9.539946
53.705 9.496745
53.710 9.8604
53.715 9.928829
53.720 9.810835
53.725 9.509666
53.730 9.19546
53.735 9.295575
53.740 8.872331
53.745 8.765433
53.750 8.853144
53.755 8.996647
53.760 9.007877
53.765 9.024146
53.770 9.416529
53.775 9.560997
53.780 9.656322
53.785 9.726173
53.790 10.105743
53.795 10.217487
53.800 10.30518
53.805 10.025804
53.810 9.906451
53.815 9.793322
53.820 9.902354
53.825 9.864647
53.830 10.03666
53.835 9.955143
53.840 10.168286
53.845 10.438341
53.850 10.585015
53.855 10.560849
53.860 10.449001
53.865 10.188558
53.870 9.883035
53.875 9.743909
53.880 9.272902
53.885 9.409709
53.890 9.187072
53.895 8.458497
53.900 8.404444
53.905 8.697592
53.910 9.098438
53.915 9.289803
53.920 8.787288
53.925 9.017177
53.930 9.90582
53.935 9.901009
53.940 9.98602
53.945 9.846983
53.950 10.181984
53.955 11.126471
53.960 11.709879
53.965 11.378327
53.970 11.491995
53.975 11.599302
53.980 11.848259
53.985 11.739971
53.990 11.135195
53.995 10.743073
54.000 10.70471
54.005 10.651361
54.010 10.458453
54.015 10.442632
54.020 10.445806
54.025 11.004486
54.030 11.402315
54.035 11.618291
54.040 11.988619
54.045 11.855332
54.050 11.367324
54.055 10.816034
54.060 10.264935
54.065 9.949478
54.070 9.518413
54.075 8.884102
54.080 8.766967
54.085 8.878765
54.090 8.649407
54.095 8.764192
54.100 8.743613
54.105 8.836251
54.110 8.667663
54.115 8.934545
54.120 9.407141
54.125 9.584793
54.130 9.165049
54.135 9.074247
54.140 8.978747
54.145 9.265728
54.150 8.778746
54.155 8.09914
54.160 8.008212
54.165 8.052495
54.170 8.356183
54.175 8.538959
54.180 8.718442
54.185 8.996593
54.190 9.595202
54.195 10.108943
54.200 10.012061
54.205 9.979173
54.210 10.112124
54.215 9.861486
54.220 9.77702
54.225 9.975272
54.230 9.869288
54.235 9.853559
54.240 9.469891
54.245 9.446421
54.250 9.712955
54.255 9.440273
54.260 8.964536
54.265 8.889057
54.270 9.365561
54.275 9.336697
54.280 9.208428
54.285 9.590093
54.290 9.841524
54.295 10.38153
54.300 10.335781
54.305 10.405112
54.310 10.405842
54.315 10.42455
54.320 10.014788
54.325 9.725388
54.330 9.414001
54.335 9.410963
54.340 9.373124
54.345 9.750563
54.350 9.975184
54.355 10.17909
54.360 9.935282
54.365 9.94538
54.370 10.565097
54.375 10.538477
54.380 10.521968
54.385 10.810064
54.390 10.711022
54.395 10.935006
54.400 10.809953
54.405 10.553355
54.410 10.558479
54.415 9.978457
54.420 9.689895
54.425 9.893373
54.430 9.918604
54.435 9.890963
54.440 9.748231
54.445 9.902605
54.450 10.115775
54.455 10.12839
54.460 10.145471
54.465 9.783102
54.470 9.416454
54.475 9.306415
54.480 9.445683
54.485 9.712052
54.490 9.417717
54.495 9.604761
54.500 10.290165
54.505 10.637127
54.510 10.833838
54.515 11.021738
54.520 11.169885
54.525 11.295882
54.530 11.322551
54.535 10.910192
54.540 10.808505
54.545 10.388104
54.550 10.081132
54.555 10.26924
54.560 10.346045
54.565 10.130397
54.570 10.086453
54.575 10.524886
54.580 10.858983
54.585 10.900444
54.590 10.753068
54.595 10.493349
54.600 11.107075
54.605 11.180615
54.610 10.881935
54.615 10.748722
54.620 10.747151
54.625 10.577146
54.630 10.561591
54.635 10.318211
54.640 10.467461
54.645 10.510736
54.650 10.467237
54.655 10.280648
54.660 10.222752
54.665 10.175732
54.670 9.700355
54.675 9.333997
54.680 9.11741
54.685 8.983484
54.690 9.33698
54.695 9.893342
54.700 10.407133
54.705 10.993079
54.710 11.270121
54.715 11.573604
54.720 11.283092
54.725 10.464962
54.730 9.940671
54.735 9.316283
54.740 8.907398
54.745 8.677319
54.750 8.357015
54.755 8.365047
54.760 8.821058
54.765 8.810456
54.770 8.973507
54.775 9.39312
54.780 9.905933
54.785 10.196016
54.790 10.71324
54.795 10.816961
54.800 11.284466
54.805 11.327209
54.810 11.46918
54.815 11.077393
54.820 11.30649
54.825 11.126475
54.830 11.185136
54.835 11.169225
54.840 11.406157
54.845 11.32253
54.850 11.39829
54.855 11.454835
54.860 11.480845
54.865 11.068131
54.870 10.683231
54.875 10.547046
54.880 10.388408
54.885 10.133194
54.890 9.800599
54.895 10.193511
54.900 10.046863
54.905 10.193737
54.910 10.457596
54.915 10.372317
54.920 10.814436
54.925 10.89541
54.930 10.870377
54.935 11.451259
54.940 11.491164
54.945 11.465708
54.950 11.831017
54.955 11.509944
54.960 11.4453
54.965 11.174067
54.970 10.83112
54.975 10.561843
54.980 10.160978
54.985 10.108014
54.990 10.283763
54.995 10.392348
55.000 10.392066
55.005 10.431873
55.010 10.248742
55.015 10.571743
55.020 11.098893
55.025 10.977025
55.030 10.68716
55.035 10.745346
55.040 10.537917
55.045 10.445745
55.050 10.090775
55.055 9.671661
55.060 9.965049
55.065 9.827668
55.070 9.433983
55.075 9.699873
55.080 9.875713
55.085 9.970321
55.090 10.053535
55.095 10.08252
55.100 10.495209
55.105 11.190621
55.110 11.121837
55.115 10.838821
55.120 10.349092
55.125 9.766101
55.130 9.572767
55.135 9.407439
55.140 9.192491
55.145 9.6435
55.150 9.858509
55.155 9.655493
55.160 9.755695
55.165 9.839237
55.170 9.65863
55.175 9.201923
55.180 8.738021
55.185 8.946198
55.190 9.802885
55.195 10.357685
55.200 11.033482
55.205 11.506084
55.210 12.338982
55.215 12.641542
55.220 12.958856
55.225 12.609672
55.230 11.998281
55.235 11.637551
55.240 11.176842
55.245 10.781342
55.250 10.73859
55.255 10.65162
55.260 10.512066
55.265 10.66665
55.270 10.786425
55.275 11.023561
55.280 11.261721
55.285 11.144968
55.290 11.068682
55.295 11.234881
55.300 11.239903
55.305 11.104362
55.310 11.110048
55.315 11.165071
55.320 11.073016
55.325 11.378187
55.330 11.262469
55.335 11.305929
55.340 11.63905
55.345 11.520892
55.350 11.792165
55.355 11.986846
55.360 12.410467
55.365 12.692753
55.370 12.721015
55.375 12.193929
55.380 12.069381
55.385 11.543147
55.390 10.978518
55.395 10.35893
55.400 9.847882
55.405 9.765555
55.410 9.648406
55.415 9.409643
55.420 9.770699
55.425 10.11793
55.430 10.172717
55.435 10.340384
55.440 10.360944
55.445 10.718601
55.450 10.936597
55.455 10.635799
55.460 11.080342
55.465 11.452872
55.470 11.762396
55.475 11.891085
55.480 12.125084
55.485 12.26042
55.490 11.911009
55.495 11.677268
55.500 11.510692
55.505 11.285087
55.510 10.958212
55.515 10.798258
55.520 11.104687
55.525 11.340868
55.530 11.244374
55.535 11.681751
55.540 11.735865
55.545 11.566081
55.550 11.602992
55.555 11.294566
55.560 11.200444
55.565 10.772611
55.570 9.887825
55.575 10.093669
55.580 10.566866
55.585 10.898419
55.590 11.102612
55.595 10.771936
55.600 11.308219
55.605 11.529096
55.610 11.279873
55.615 11.33024
55.620 10.940979
55.625 11.512183
55.630 11.531567
55.635 11.425949
55.640 11.439772
55.645 11.181773
55.650 10.78815
55.655 10.578172
55.660 10.664156
55.665 10.733618
55.670 11.191551
55.675 11.256001
55.680 11.803921
55.685 12.119532
55.690 12.003191
55.695 11.832583
55.700 11.885785
55.705 11.482637
55.710 11.44282
55.715 11.197968
55.720 11.488834
55.725 11.55263
55.730 11.151463
55.735 11.192165
55.740 11.494821
55.745 11.572363
55.750 11.615465
55.755 11.687699
55.760 12.071498
55.765 12.135543
55.770 11.893944
55.775 11.669316
55.780 11.306182
55.785 11.055215
55.790 10.650438
55.795 10.370649
55.800 10.56305
55.805 10.698471
55.810 11.179791
55.815 11.453941
55.820 11.740804
55.825 11.960596
55.830 12.17658
55.835 12.298037
55.840 12.27588
55.845 11.955385
55.850 12.250805
55.855 12.26604
55.860 11.778749
55.865 11.873057
55.870 11.880239
55.875 12.265117
55.880 12.191929
55.885 11.860901
55.890 11.931788
55.895 11.9095
55.900 11.502921
55.905 11.29318
55.910 11.393205
55.915 11.61904
55.920 11.461166
55.925 11.331227
55.930 11.938797
55.935 12.640614
55.940 12.586079
55.945 12.934094
55.950 13.215826
55.955 13.944173
55.960 14.050475
55.965 13.925885
55.970 13.446862
55.975 13.178393
55.980 13.014762
55.985 12.587546
55.990 11.793536
55.995 11.733809
56.000 11.796079
56.005 11.923003
56.010 11.719441
56.015 11.364462
56.020 11.674593
56.025 12.109838
56.030 11.714384
56.035 11.648868
56.040 11.558406
56.045 11.645906
56.050 11.722256
56.055 11.470956
56.060 11.347816
56.065 11.542888
56.070 11.393326
56.075 11.518209
56.080 11.31093
56.085 11.345668
56.090 11.461855
56.095 11.736805
56.100 11.620491
56.105 11.78159
56.110 12.345155
56.115 12.801727
56.120 12.673964
56.125 12.380905
56.130 12.024235
56.135 12.149232
56.140 12.329752
56.145 11.701647
56.150 11.26792
56.155 11.123791
56.160 11.21872
56.165 11.325854
56.170 11.456129
56.175 11.079581
56.180 10.900171
56.185 10.68074
56.190 10.944637
56.195 11.062419
56.200 11.363891
56.205 11.521486
56.210 12.29866
56.215 12.616217
56.220 13.023266
56.225 12.805526
56.230 12.97665
56.235 12.979523
56.240 12.664669
56.245 12.014606
56.250 11.839181
56.255 11.631492
56.260 11.584195
56.265 11.017485
56.270 10.822445
56.275 11.274789
56.280 11.982389
56.285 12.136655
56.290 12.115405
56.295 12.580227
56.300 13.126284
56.305 13.19828
56.310 12.269721
56.315 12.439393
56.320 13.016725
56.325 13.22828
56.330 12.917895
56.335 12.230416
56.340 12.311628
56.345 12.994501
56.350 12.507416
56.355 11.87121
56.360 12.377925
56.365 12.627542
56.370 12.862523
56.375 12.86242
56.380 12.682778
56.385 12.927573
56.390 12.801641
56.395 12.344602
56.400 12.592447
56.405 13.153453
56.410 13.473693
56.415 13.54615
56.420 13.690715
56.425 13.715136
56.430 13.748537
56.435 13.622416
56.440 13.355082
56.445 12.629264
56.450 12.554327
56.455 12.420523
56.460 13.061275
56.465 13.048913
56.470 12.719014
56.475 12.504476
56.480 12.70327
56.485 12.727284
56.490 13.326565
56.495 13.240949
56.500 13.31194
56.505 13.35846
56.510 13.209884
56.515 13.144622
56.520 13.634552
56.525 13.833144
56.530 13.794056
56.535 14.10532
56.540 14.196138
56.545 14.5954
56.550 14.543488
56.555 14.374743
56.560 13.876626
56.565 13.570186
56.570 13.129736
56.575 13.351956
56.580 13.661377
56.585 13.51956
56.590 12.993227
56.595 12.947973
56.600 12.859621
56.605 12.802305
56.610 12.452685
56.615 12.291673
56.620 12.555868
56.625 12.773376
56.630 13.045244
56.635 13.351003
56.640 13.543988
56.645 13.304113
56.650 13.299397
56.655 12.972713
56.660 12.637062
56.665 11.833873
56.670 11.551705
56.675 11.805194
56.680 12.130896
56.685 12.019789
56.690 11.969773
56.695 12.246887
56.700 12.67672
56.705 12.282778
56.710 12.275837
56.715 12.324647
56.720 12.731599
56.725 12.951002
56.730 12.940458
56.735 13.252719
56.740 13.746531
56.745 13.840674
56.750 13.774959
56.755 13.848961
56.760 14.394527
56.765 14.514673
56.770 14.547821
56.775 14.248585
56.780 13.691514
56.785 14.116
56.790 13.716672
56.795 12.882673
56.800 12.625587
56.805 12.831458
56.810 13.192348
56.815 13.713553
56.820 13.526165
56.825 13.681136
56.830 13.817333
56.835 13.94418
56.840 13.823378
56.845 13.798959
56.850 13.73305
56.855 13.283833
56.860 13.136911
56.865 13.217219
56.870 12.698218
56.875 12.845002
56.880 12.638791
56.885 12.25697
56.890 12.342707
56.895 12.334266
56.900 12.481757
56.905 12.754827
56.910 12.180938
56.915 11.969323
56.920 11.711014
56.925 11.535411
56.930 11.788094
56.935 12.091557
56.940 12.353482
56.945 12.507708
56.950 12.442502
56.955 12.588428
56.960 12.775672
56.965 12.701642
56.970 12.73116
56.975 12.372243
56.980 12.134942
56.985 12.414018
56.990 12.52247
56.995 12.396312
57.000 12.125709
57.005 11.728213
57.010 12.043102
57.015 12.699908
57.020 12.558599
57.025 12.708385
57.030 13.102148
57.035 13.022203
57.040 13.084549
57.045 12.43392
57.050 11.772576
57.055 11.494192
57.060 11.219508
57.065 11.003022
57.070 11.178082
57.075 11.201075
57.080 12.307302
57.085 13.13308
57.090 13.628451
57.095 13.86472
57.100 14.012704
57.105 14.193154
57.110 14.087622
57.115 13.386273
57.120 12.925823
57.125 12.963778
57.130 13.021932
57.135 13.273052
57.140 13.327875
57.145 13.520383
57.150 13.234359
57.155 13.652242
57.160 14.091335
57.165 14.416723
57.170 14.034983
57.175 13.940544
57.180 13.705848
57.185 14.175878
57.190 14.13359
57.195 13.621579
57.200 13.686529
57.205 13.506346
57.210 13.566211
57.215 14.21161
57.220 14.081129
57.225 13.758758
57.230 13.391048
57.235 13.254707
57.240 13.306511
57.245 12.946372
57.250 12.779296
57.255 12.950661
57.260 13.112611
57.265 12.892956
57.270 13.058284
57.275 12.867685
57.280 12.7773
57.285 12.321564
57.290 12.058107
57.295 12.471551
57.300 12.82629
57.305 12.631906
57.310 13.307004
57.315 13.768653
57.320 14.019699
57.325 14.068316
57.330 14.1761
57.335 14.360483
57.340 14.106478
57.345 14.0438
57.350 14.000216
57.355 14.234972
57.360 14.524494
57.365 14.021286
57.370 13.561098
57.375 13.722069
57.380 13.388146
57.385 13.383251
57.390 12.81415
57.395 12.209634
57.400 12.688968
57.405 13.059109
57.410 13.145345
57.415 13.681145
57.420 13.947978
57.425 14.494828
57.430 14.506141
57.435 14.463983
57.440 14.70194
57.445 14.779275
57.450 14.77566
57.455 15.111416
57.460 14.95706
57.465 15.725189
57.470 16.172169
57.475 15.835047
57.480 15.56601
57.485 14.846254
57.490 14.486996
57.495 14.278074
57.500 13.656413
57.505 13.275157
57.510 13.126661
57.515 13.272747
57.520 13.383639
57.525 12.983767
57.530 13.121951
57.535 12.921754
57.540 13.276287
57.545 13.771396
57.550 13.559888
57.555 13.798469
57.560 14.20416
57.565 14.290255
57.570 14.134745
57.575 13.929274
57.580 13.761665
57.585 13.917183
57.590 13.990146
57.595 13.88274
57.600 13.635247
57.605 13.550224
57.610 13.54931
57.615 13.657356
57.620 13.924674
57.625 13.913717
57.630 13.659384
57.635 13.798384
57.640 13.776081
57.645 13.864676
57.650 13.594036
57.655 13.352888
57.660 13.40054
57.665 13.625963
57.670 13.516327
57.675 13.233396
57.680 12.788553
57.685 12.83079
57.690 12.441169
57.695 12.256649
57.700 12.318798
57.705 12.766455
57.710 13.167208
57.715 13.482348
57.720 13.649763
57.725 13.873417
57.730 14.183388
57.735 14.368566
57.740 14.655866
57.745 14.397387
57.750 14.254644
57.755 14.273115
57.760 14.440619
57.765 13.871249
57.770 13.593173
57.775 13.159961
57.780 12.916006
57.785 13.162481
57.790 13.639845
57.795 13.723212
57.800 13.943522
57.805 13.891146
57.810 14.321128
57.815 15.139959
57.820 15.235687
57.825 15.05614
57.830 15.232071
57.835 15.495532
57.840 15.612425
57.845 15.03543
57.850 14.722851
57.855 14.612532
57.860 14.401996
57.865 14.289045
57.870 14.199139
57.875 14.033917
57.880 14.075914
57.885 13.823967
57.890 13.696667
57.895 13.710629
57.900 13.448343
57.905 13.411337
57.910 13.873673
57.915 14.333837
57.920 14.404861
57.925 14.338847
57.930 14.261539
57.935 14.695425
57.940 14.445493
57.945 14.30382
57.950 14.236888
57.955 14.469544
57.960 14.788718
57.965 14.833679
57.970 14.719849
57.975 14.902896
57.980 14.70226
57.985 14.536919
57.990 14.218987
57.995 14.261148
58.000 14.231401
58.005 13.724993
58.010 13.668096
58.015 13.329885
58.020 13.376659
58.025 13.787268
58.030 13.747543
58.035 13.931992
58.040 14.493508
58.045 14.721843
58.050 15.042549
58.055 15.09845
58.060 14.98753
58.065 15.008109
58.070 14.619849
58.075 14.060406
58.080 13.497659
58.085 13.580426
58.090 13.319477
58.095 12.908707
58.100 12.587176
58.105 12.642269
58.110 13.062913
58.115 13.702727
58.120 13.630773
58.125 13.800698
58.130 13.970199
58.135 14.256574
58.140 14.698609
58.145 14.335626
58.150 14.057714
58.155 14.283124
58.160 14.268516
58.165 14.388284
58.170 14.57747
58.175 14.556702
58.180 14.695853
58.185 14.752343
58.190 14.614055
58.195 14.323034
58.200 13.942642
58.205 13.707513
58.210 13.953677
58.215 14.512488
58.220 14.814651
58.225 14.927289
58.230 15.237602
58.235 15.086544
58.240 15.263245
58.245 14.965219
58.250 14.105235
58.255 13.513955
58.260 13.61286
58.265 14.341037
58.270 14.818555
58.275 14.838394
58.280 14.827882
58.285 15.707887
58.290 15.80851
58.295 15.349619
58.300 14.735326
58.305 14.92515
58.310 14.696841
58.315 14.24205
58.320 13.590804
58.325 14.14076
58.330 14.595608
58.335 14.877772
58.340 14.95729
58.345 15.094431
58.350 15.354761
58.355 15.486111
58.360 15.492773
58.365 15.479417
58.370 14.894249
58.375 14.415689
58.380 14.163562
58.385 13.9052
58.390 13.773593
58.395 13.131557
58.400 13.100424
58.405 13.81459
58.410 13.970099
58.415 14.516788
58.420 14.66572
58.425 15.08071
58.430 15.183106
58.435 15.000709
58.440 14.833711
58.445 15.143753
58.450 14.886587
58.455 15.141978
58.460 15.153711
58.465 14.852941
58.470 14.473419
58.475 14.080027
58.480 13.934681
58.485 14.188094
58.490 14.745207
58.495 15.138691
58.500 15.56627
58.505 15.737401
58.510 15.699829
58.515 15.326632
58.520 14.962306
58.525 14.329114
