!@!!GADDS PLOTSO FILE: Chi integration type
!@!!Title/SampleName: map-e5
!@!!Comment: ?
!@!!User: Bruker Instrument Administrator
!@!!Site: University of Illinois Chicago
!@!!Frame: map-e5_01_000.gfrm
!@!!Wavelengths    1.54184   1.54056   1.54439
!@!!Frame angles: 2Theta: 63.000 Omega: 50.000 Phi: 0.000 Chi: 90.000
!@!!Integration range: 2Theta: 53.000 to 73.000  Gamma: -105.000 to -75.000
!@!!Integration method: bin normalized
!@!N
!@!SS
!@!M
!@!L 0.0 0.0 0.0 0.0
!@!XDegrees
!@!YCounts
53.000 8.042195
53.005 8.418048
53.010 8.416321
53.015 8.253089
53.020 8.25673
53.025 7.973676
53.030 8.092118
53.035 7.699265
53.040 7.464285
53.045 7.44312
53.050 7.512645
53.055 8.186866
53.060 8.356894
53.065 8.458565
53.070 8.617182
53.075 8.54766
53.080 8.31685
53.085 7.408168
53.090 7.066669
53.095 6.99422
53.100 7.281084
53.105 7.131792
53.110 6.968524
53.115 7.115077
53.120 7.472511
53.125 7.067007
53.130 7.014816
53.135 7.261868
53.140 7.673637
53.145 8.165848
53.150 8.505066
53.155 8.711914
53.160 8.898787
53.165 8.791468
53.170 8.604843
53.175 8.692629
53.180 8.868587
53.185 8.885953
53.190 8.556462
53.195 8.461095
53.200 8.627087
53.205 8.50456
53.210 8.235119
53.215 8.080027
53.220 8.153825
53.225 8.292834
53.230 7.993971
53.235 7.753905
53.240 7.602741
53.245 7.512745
53.250 7.688403
53.255 7.246982
53.260 7.631226
53.265 7.971415
53.270 7.912824
53.275 8.009516
53.280 7.724364
53.285 7.582241
53.290 7.537588
53.295 7.185848
53.300 7.031935
53.305 7.070511
53.310 6.616418
53.315 6.673878
53.320 6.948739
53.325 7.116796
53.330 7.153788
53.335 7.227303
53.340 7.586738
53.345 7.909214
53.350 7.768558
53.355 7.939542
53.360 8.155982
53.365 8.302872
53.370 8.14407
53.375 7.948766
53.380 8.186185
53.385 8.220828
53.390 8.114854
53.395 7.807805
53.400 8.097088
53.405 8.480463
53.410 8.327868
53.415 7.722312
53.420 7.471693
53.425 7.500015
53.430 7.638628
53.435 7.621193
53.440 7.473551
53.445 7.630893
53.450 7.832139
53.455 8.103313
53.460 8.274928
53.465 7.867173
53.470 7.468133
53.475 7.254586
53.480 7.127367
53.485 7.370387
53.490 6.781197
53.495 6.689461
53.500 6.87306
53.505 7.08242
53.510 7.097257
53.515 6.833389
53.520 6.476061
53.525 6.625211
53.530 6.93384
53.535 6.996076
53.540 7.06343
53.545 7.651146
53.550 7.964385
53.555 8.363489
53.560 8.446816
53.565 8.649466
53.570 8.649078
53.575 8.198584
53.580 8.088037
53.585 8.133349
53.590 8.281514
53.595 8.041405
53.600 7.852859
53.605 7.892531
53.610 8.229735
53.615 8.026652
53.620 7.860533
53.625 7.78379
53.630 8.056323
53.635 8.073657
53.640 8.225277
53.645 8.206037
53.650 8.171466
53.655 8.120533
53.660 7.987072
53.665 7.779427
53.670 7.755928
53.675 8.015044
53.680 7.973394
53.685 8.248286
53.690 8.262382
53.695 8.739705
53.700 9.004201
53.705 9.085556
53.710 9.045612
53.715 9.121728
53.720 9.196957
53.725 9.213997
53.730 9.073485
53.735 9.636046
53.740 10.019668
53.745 10.191775
53.750 9.8571
53.755 9.914654
53.760 9.869017
53.765 9.485255
53.770 8.940285
53.775 8.715096
53.780 8.44264
53.785 8.672829
53.790 8.125078
53.795 8.287041
53.800 8.24733
53.805 8.060443
53.810 8.495088
53.815 8.630657
53.820 8.65699
53.825 9.095641
53.830 8.662583
53.835 8.465746
53.840 8.041075
53.845 7.636172
53.850 7.811576
53.855 8.406912
53.860 8.790235
53.865 9.185974
53.870 9.65051
53.875 9.911222
53.880 10.114948
53.885 9.947637
53.890 9.44325
53.895 9.033542
53.900 8.920075
53.905 8.909924
53.910 9.222847
53.915 9.106295
53.920 9.082154
53.925 9.270563
53.930 9.648311
53.935 9.839773
53.940 9.696405
53.945 9.442895
53.950 9.997953
53.955 10.271461
53.960 9.691495
53.965 9.301787
53.970 9.22381
53.975 9.452763
53.980 9.458363
53.985 9.117073
53.990 9.063942
53.995 9.060129
54.000 9.057962
54.005 8.90046
54.010 8.356542
54.015 8.25297
54.020 8.205445
54.025 8.429338
54.030 8.664634
54.035 8.358788
54.040 8.671222
54.045 8.974785
54.050 8.961139
54.055 8.642587
54.060 8.440588
54.065 8.374122
54.070 8.673101
54.075 8.859938
54.080 8.947222
54.085 8.896404
54.090 9.330474
54.095 9.35681
54.100 9.544398
54.105 9.563272
54.110 9.486748
54.115 9.800775
54.120 9.653672
54.125 9.319902
54.130 9.217124
54.135 9.303829
54.140 9.512958
54.145 9.416806
54.150 9.291607
54.155 9.513765
54.160 9.973788
54.165 9.923567
54.170 9.223859
54.175 8.85685
54.180 8.790208
54.185 8.758608
54.190 8.561711
54.195 8.140599
54.200 8.432583
54.205 9.094334
54.210 9.068655
54.215 8.655462
54.220 8.573562
54.225 8.94588
54.230 9.14887
54.235 9.218205
54.240 9.422932
54.245 9.673037
54.250 10.350064
54.255 10.424673
54.260 10.159688
54.265 10.163361
54.270 10.002323
54.275 9.477045
54.280 9.264787
54.285 8.876831
54.290 9.157747
54.295 9.460385
54.300 9.59736
54.305 9.425714
54.310 9.446868
54.315 9.881788
54.320 9.887237
54.325 9.864144
54.330 9.93405
54.335 10.25377
54.340 10.457964
54.345 10.556828
54.350 9.871984
54.355 9.984278
54.360 9.947192
54.365 9.680153
54.370 9.660825
54.375 10.024634
54.380 10.353355
54.385 10.426058
54.390 9.84191
54.395 10.177623
54.400 10.161732
54.405 9.52041
54.410 8.835816
54.415 9.049691
54.420 9.785208
54.425 10.053544
54.430 9.755548
54.435 9.828905
54.440 10.539849
54.445 10.143237
54.450 10.058459
54.455 10.002674
54.460 9.720353
54.465 10.144911
54.470 10.141245
54.475 10.076903
54.480 10.521274
54.485 10.155828
54.490 9.87245
54.495 9.746987
54.500 8.843453
54.505 8.345724
54.510 8.325639
54.515 8.274964
54.520 8.819212
54.525 8.926288
54.530 8.72755
54.535 9.112063
54.540 9.501551
54.545 9.74494
54.550 9.656818
54.555 9.656707
54.560 9.970377
54.565 10.24151
54.570 10.38803
54.575 10.053514
54.580 9.74766
54.585 9.328662
54.590 8.845798
54.595 8.676154
54.600 8.679641
54.605 8.550546
54.610 8.904963
54.615 8.92567
54.620 9.276025
54.625 9.538026
54.630 9.59377
54.635 9.432184
54.640 9.215187
54.645 9.467308
54.650 9.872726
54.655 9.815009
54.660 9.876313
54.665 9.934042
54.670 10.236391
54.675 10.74493
54.680 10.503726
54.685 9.857091
54.690 9.336039
54.695 8.991029
54.700 8.979281
54.705 9.185515
54.710 8.561099
54.715 8.562915
54.720 8.591805
54.725 8.953218
54.730 9.250146
54.735 9.099411
54.740 8.763112
54.745 8.95472
54.750 8.854621
54.755 9.090073
54.760 9.050204
54.765 8.959879
54.770 9.487814
54.775 9.591516
54.780 9.819364
54.785 10.273228
54.790 10.567251
54.795 10.706202
54.800 10.931046
54.805 10.75974
54.810 10.917859
54.815 10.771775
54.820 10.528522
54.825 10.43532
54.830 10.082026
54.835 9.850781
54.840 9.636039
54.845 10.036323
54.850 10.103177
54.855 9.918647
54.860 10.281106
54.865 10.866087
54.870 11.259173
54.875 11.504176
54.880 11.409747
54.885 11.534244
54.890 11.587931
54.895 11.559946
54.900 11.060739
54.905 10.43188
54.910 9.961128
54.915 9.632035
54.920 9.576542
54.925 9.331906
54.930 9.244345
54.935 9.319
54.940 9.573644
54.945 9.84555
54.950 9.969938
54.955 10.062381
54.960 10.720542
54.965 10.625316
54.970 10.803155
54.975 10.720888
54.980 10.137204
54.985 9.795359
54.990 9.818398
54.995 9.535642
55.000 9.49313
55.005 9.566483
55.010 9.727383
55.015 10.51396
55.020 10.860142
55.025 10.716461
55.030 11.002963
55.035 10.874365
55.040 10.750782
55.045 10.520092
55.050 10.710464
55.055 10.636702
55.060 10.849516
55.065 10.484364
55.070 10.797973
55.075 10.995831
55.080 11.135636
55.085 10.979789
55.090 11.304954
55.095 11.146387
55.100 10.96323
55.105 10.800892
55.110 10.776981
55.115 10.655146
55.120 10.426978
55.125 9.787497
55.130 9.854862
55.135 9.848503
55.140 9.785091
55.145 10.101784
55.150 9.93537
55.155 9.498733
55.160 9.58167
55.165 9.638445
55.170 10.144017
55.175 10.184366
55.180 9.929968
55.185 9.890051
55.190 10.189158
55.195 10.759117
55.200 10.934796
55.205 10.639821
55.210 10.694068
55.215 11.282573
55.220 12.019035
55.225 11.93483
55.230 11.130466
55.235 11.162405
55.240 11.413973
55.245 11.188711
55.250 10.708286
55.255 10.411295
55.260 10.776882
55.265 11.223882
55.270 11.054604
55.275 11.783954
55.280 11.605017
55.285 11.254567
55.290 10.780031
55.295 10.527608
55.300 10.278104
55.305 10.120111
55.310 9.616462
55.315 10.24357
55.320 10.477235
55.325 10.74349
55.330 10.898465
55.335 11.09191
55.340 10.705132
55.345 10.361182
55.350 10.266011
55.355 10.557903
55.360 10.941186
55.365 11.0614
55.370 10.773557
55.375 11.053553
55.380 11.265401
55.385 11.330691
55.390 10.9613
55.395 10.624109
55.400 10.815709
55.405 10.902652
55.410 10.521205
55.415 10.299943
55.420 10.5379
55.425 10.975635
55.430 11.340203
55.435 11.291405
55.440 11.538263
55.445 11.893877
55.450 11.64337
55.455 10.953278
55.460 10.383041
55.465 9.826545
55.470 9.695882
55.475 9.412691
55.480 9.461609
55.485 9.578159
55.490 9.865245
55.495 9.943149
55.500 10.022526
55.505 9.94549
55.510 10.046196
55.515 9.887451
55.520 10.022234
55.525 9.972987
55.530 9.926719
55.535 10.377405
55.540 10.266905
55.545 10.999124
55.550 11.276848
55.555 11.029183
55.560 10.872033
55.565 11.172805
55.570 10.683263
55.575 11.217052
55.580 10.820401
55.585 11.429923
55.590 12.247141
55.595 12.479308
55.600 12.753123
55.605 12.765597
55.610 12.522032
55.615 11.978862
55.620 11.543469
55.625 11.182499
55.630 11.211535
55.635 10.792682
55.640 10.745747
55.645 10.805592
55.650 11.245885
55.655 11.05168
55.660 10.473417
55.665 10.783145
55.670 10.922501
55.675 10.944634
55.680 10.266066
55.685 9.727367
55.690 9.87748
55.695 10.335521
55.700 10.109835
55.705 10.141044
55.710 10.236612
55.715 10.693174
55.720 10.888251
55.725 11.165764
55.730 10.823871
55.735 10.816495
55.740 10.652995
55.745 10.633977
55.750 10.221233
55.755 10.260681
55.760 10.179087
55.765 10.331148
55.770 10.709776
55.775 11.106736
55.780 11.415374
55.785 11.938866
55.790 11.565852
55.795 11.78307
55.800 11.784545
55.805 11.205154
55.810 10.990874
55.815 10.754208
55.820 10.877395
55.825 11.320203
55.830 11.349017
55.835 11.876307
55.840 12.573187
55.845 12.862536
55.850 12.615043
55.855 11.94616
55.860 11.500603
55.865 11.280467
55.870 11.047464
55.875 10.520513
55.880 10.747146
55.885 10.838139
55.890 10.925805
55.895 10.95962
55.900 10.958481
55.905 11.206396
55.910 11.779367
55.915 11.779337
55.920 12.156765
55.925 12.208431
55.930 12.382566
55.935 12.273531
55.940 11.413592
55.945 11.106046
55.950 11.078294
55.955 11.050929
55.960 11.460351
55.965 11.243692
55.970 11.046932
55.975 11.570645
55.980 11.305243
55.985 11.575082
55.990 11.400916
55.995 11.334074
56.000 11.816343
56.005 12.253799
56.010 12.230613
56.015 12.473819
56.020 12.412176
56.025 12.494397
56.030 12.456358
56.035 12.01668
56.040 11.607886
56.045 11.67314
56.050 11.552378
56.055 11.384213
56.060 11.064052
56.065 11.112307
56.070 11.436185
56.075 11.818764
56.080 11.433279
56.085 11.483819
56.090 11.472057
56.095 11.781059
56.100 11.950506
56.105 11.726914
56.110 11.457422
56.115 11.560254
56.120 11.651999
56.125 11.875024
56.130 11.995004
56.135 11.784344
56.140 11.731102
56.145 11.996302
56.150 11.982556
56.155 11.770888
56.160 11.740676
56.165 11.221009
56.170 11.174418
56.175 11.325407
56.180 11.49245
56.185 11.379986
56.190 10.885275
56.195 10.407495
56.200 10.612898
56.205 10.725904
56.210 10.397691
56.215 9.653107
56.220 9.433964
56.225 10.294155
56.230 11.318102
56.235 11.872552
56.240 11.778361
56.245 11.942473
56.250 12.556907
56.255 12.718364
56.260 12.051606
56.265 11.045827
56.270 10.677843
56.275 10.456898
56.280 10.539661
56.285 10.426344
56.290 10.432326
56.295 11.200079
56.300 11.621675
56.305 11.379982
56.310 11.661786
56.315 11.563056
56.320 11.378195
56.325 11.447107
56.330 11.371776
56.335 11.412375
56.340 11.655837
56.345 12.015176
56.350 12.703412
56.355 12.802807
56.360 12.901017
56.365 12.583302
56.370 12.693443
56.375 12.864506
56.380 12.740561
56.385 12.355871
56.390 11.939911
56.395 11.689459
56.400 12.001491
56.405 11.874669
56.410 11.459788
56.415 11.26007
56.420 11.067566
56.425 11.40441
56.430 11.39608
56.435 11.413337
56.440 11.98511
56.445 12.191219
56.450 12.041561
56.455 12.189812
56.460 12.348859
56.465 12.490871
56.470 12.280856
56.475 11.96876
56.480 11.61622
56.485 11.700629
56.490 12.434756
56.495 12.576915
56.500 12.889843
56.505 13.04615
56.510 13.345155
56.515 13.755116
56.520 13.329088
56.525 12.817724
56.530 12.561416
56.535 12.231874
56.540 11.750489
56.545 11.620587
56.550 11.911617
56.555 12.473892
56.560 12.729835
56.565 12.663495
56.570 12.978291
56.575 12.779875
56.580 12.659385
56.585 12.058433
56.590 11.655444
56.595 11.686309
56.600 12.10806
56.605 11.817758
56.610 11.974298
56.615 12.205533
56.620 11.99653
56.625 11.531494
56.630 11.02882
56.635 10.421201
56.640 10.476499
56.645 10.585271
56.650 10.261035
56.655 10.635227
56.660 10.831264
56.665 10.960386
56.670 11.056231
56.675 11.419975
56.680 11.243431
56.685 11.349374
56.690 11.57116
56.695 12.475311
56.700 12.851483
56.705 13.100694
56.710 12.596532
56.715 12.543571
56.720 12.597979
56.725 12.736207
56.730 12.273127
56.735 11.668245
56.740 11.711928
56.745 11.937282
56.750 11.845072
56.755 11.584618
56.760 11.38295
56.765 11.091859
56.770 11.423537
56.775 12.164027
56.780 12.686625
56.785 13.044826
56.790 13.310265
56.795 13.160237
56.800 13.130193
56.805 12.668503
56.810 11.578812
56.815 11.364604
56.820 11.207427
56.825 11.259891
56.830 11.313351
56.835 11.927822
56.840 12.399202
56.845 12.350526
56.850 12.205222
56.855 12.057427
56.860 12.085031
56.865 12.530005
56.870 12.861723
56.875 12.862555
56.880 13.142502
56.885 12.815286
56.890 12.785952
56.895 13.192406
56.900 13.180497
56.905 12.486671
56.910 12.160274
56.915 12.388167
56.920 12.720446
56.925 12.886773
56.930 12.444059
56.935 12.210648
56.940 12.17622
56.945 12.260022
56.950 11.977728
56.955 11.865159
56.960 11.707255
56.965 11.619237
56.970 11.25635
56.975 11.375766
56.980 11.65871
56.985 11.847023
56.990 12.124977
56.995 12.248776
57.000 12.287102
57.005 12.654991
57.010 12.748517
57.015 12.6991
57.020 12.339543
57.025 12.761044
57.030 12.647799
57.035 12.598469
57.040 12.700697
57.045 12.876075
57.050 13.429048
57.055 14.204586
57.060 14.149262
57.065 14.411977
57.070 13.974854
57.075 13.937062
57.080 13.368044
57.085 12.865265
57.090 12.773499
57.095 12.61415
57.100 12.177666
57.105 12.430084
57.110 12.884585
57.115 13.237868
57.120 13.721982
57.125 13.606109
57.130 13.975516
57.135 14.623009
57.140 15.255599
57.145 15.414043
57.150 15.301769
57.155 14.202996
57.160 13.840932
57.165 13.889077
57.170 13.648754
57.175 13.247479
57.180 12.922083
57.185 12.678171
57.190 12.96778
57.195 13.335076
57.200 12.905348
57.205 12.876169
57.210 12.895769
57.215 12.893078
57.220 12.852036
57.225 12.812572
57.230 12.451048
57.235 12.339999
57.240 12.229353
57.245 11.911624
57.250 12.07503
57.255 12.553353
57.260 13.016562
57.265 13.735115
57.270 13.792135
57.275 13.484811
57.280 13.651514
57.285 13.881781
57.290 13.331626
57.295 12.949821
57.300 13.079795
57.305 13.364689
57.310 13.252965
57.315 12.967742
57.320 13.172101
57.325 13.488104
57.330 13.113183
57.335 12.749053
57.340 12.942909
57.345 13.835349
57.350 13.993173
57.355 13.832101
57.360 13.650563
57.365 13.918543
57.370 14.324845
57.375 14.740575
57.380 14.50263
57.385 14.544051
57.390 14.841343
57.395 14.7661
57.400 15.269381
57.405 15.204036
57.410 14.694384
57.415 14.784172
57.420 15.157555
57.425 15.102463
57.430 15.32772
57.435 14.472578
57.440 13.661159
57.445 13.969942
57.450 14.339465
57.455 14.508382
57.460 14.807188
57.465 14.994885
57.470 15.332481
57.475 16.196432
57.480 15.826915
57.485 15.392223
57.490 14.612707
57.495 14.005195
57.500 14.251907
57.505 14.106344
57.510 13.848355
57.515 14.186831
57.520 13.98849
57.525 14.171646
57.530 14.556094
57.535 14.298935
57.540 13.709177
57.545 13.398577
57.550 13.359083
57.555 13.930915
57.560 14.355259
57.565 14.358345
57.570 14.716748
57.575 15.172359
57.580 15.437888
57.585 15.458508
57.590 14.934111
57.595 14.642366
57.600 14.636841
57.605 14.452918
57.610 14.223366
57.615 13.522891
57.620 13.152365
57.625 13.322034
57.630 13.329542
57.635 13.512523
57.640 13.262273
57.645 13.680375
57.650 13.789118
57.655 14.011394
57.660 14.188836
57.665 13.861025
57.670 13.465333
57.675 13.688519
57.680 13.776507
57.685 13.967799
57.690 13.850483
57.695 13.986506
57.700 13.937084
57.705 14.00674
57.710 14.126858
57.715 14.136194
57.720 14.073438
57.725 13.587579
57.730 13.711092
57.735 13.750757
57.740 13.3067
57.745 13.125008
57.750 13.450316
57.755 14.065168
57.760 14.109713
57.765 13.478105
57.770 12.657241
57.775 12.647715
57.780 12.576741
57.785 12.069692
57.790 12.34364
57.795 12.707108
57.800 12.687905
57.805 12.864695
57.810 12.357357
57.815 12.243536
57.820 12.381699
57.825 12.035459
57.830 11.947188
57.835 12.227244
57.840 12.481978
57.845 12.815152
57.850 12.67127
57.855 12.5896
57.860 12.543484
57.865 12.838094
57.870 13.40924
57.875 13.74648
57.880 13.895368
57.885 14.470744
57.890 14.530099
57.895 14.709717
57.900 14.937004
57.905 15.005819
57.910 15.089075
57.915 15.080427
57.920 14.680295
57.925 15.140926
57.930 15.597379
57.935 15.920256
57.940 16.207615
57.945 16.504004
57.950 16.593981
57.955 16.296932
57.960 15.449556
57.965 14.619295
57.970 13.734041
57.975 12.974244
57.980 12.639444
57.985 13.056942
57.990 13.609202
57.995 13.911126
58.000 14.502186
58.005 14.961804
58.010 15.441092
58.015 15.21876
58.020 14.825698
58.025 15.061335
58.030 15.169999
58.035 15.153565
58.040 15.316528
58.045 16.191193
58.050 17.011395
58.055 17.077852
58.060 16.726511
58.065 16.559031
58.070 17.026247
58.075 17.068663
58.080 16.66774
58.085 16.492762
58.090 16.857803
58.095 16.954655
58.100 16.883669
58.105 16.676098
58.110 16.596233
58.115 16.059402
58.120 15.951774
58.125 15.645562
58.130 15.765376
58.135 16.093071
58.140 15.835876
58.145 16.106955
58.150 16.665314
58.155 17.098822
58.160 17.50617
58.165 17.184853
58.170 16.974258
58.175 17.397018
58.180 17.709995
58.185 17.308985
58.190 17.753328
58.195 17.448647
58.200 17.716484
58.205 18.304176
58.210 18.097868
58.215 18.320484
58.220 18.610897
58.225 18.516901
58.230 18.83073
58.235 18.752796
58.240 18.675753
58.245 18.304405
58.250 18.018696
58.255 19.010345
58.260 19.344122
58.265 19.589258
58.270 19.709671
58.275 19.473467
58.280 20.314323
58.285 21.281609
58.290 20.559879
58.295 20.293407
58.300 20.507223
58.305 20.613987
58.310 21.019608
58.315 21.003803
58.320 20.40896
58.325 20.127293
58.330 20.574717
58.335 21.133028
58.340 21.743635
58.345 22.058105
58.350 22.122812
58.355 22.784756
58.360 22.975063
58.365 23.043005
58.370 22.743542
58.375 22.131542
58.380 22.022913
58.385 21.524487
58.390 21.401943
58.395 22.230553
58.400 22.15605
58.405 22.147572
58.410 22.735447
58.415 23.206371
58.420 24.106525
58.425 23.740763
58.430 23.455673
58.435 23.880821
58.440 24.164383
58.445 23.7878
58.450 23.648247
58.455 23.254677
58.460 23.724344
58.465 23.720781
58.470 23.506968
58.475 23.6485
58.480 23.839441
58.485 23.4023
58.490 23.528385
58.495 23.006245
58.500 23.297705
58.505 23.149677
58.510 24.074615
58.515 24.267504
58.520 24.379219
58.525 24.963272
58.530 25.518337
58.535 25.101238
58.540 24.635696
