!@!!GADDS PLOTSO FILE: Chi integration type
!@!!Title/SampleName: map-ef
!@!!Comment: ?
!@!!User: Bruker Instrument Administrator
!@!!Site: University of Illinois Chicago
!@!!Frame: map-ef_01_000.gfrm
!@!!Wavelengths    1.54184   1.54056   1.54439
!@!!Frame angles: 2Theta: 63.000 Omega: 50.000 Phi: 0.000 Chi: 90.000
!@!!Integration range: 2Theta: 53.000 to 73.000  Gamma: -105.000 to -75.000
!@!!Integration method: bin normalized
!@!N
!@!SS
!@!M
!@!L 0.0 0.0 0.0 0.0
!@!XDegrees
!@!YCounts
53.000 6.938764
53.005 6.959351
53.010 6.697674
53.015 6.928897
53.020 7.19564
53.025 6.917041
53.030 7.359784
53.035 7.519197
53.040 7.602158
53.045 7.599903
53.050 6.963431
53.055 6.927538
53.060 6.873734
53.065 6.753148
53.070 6.673656
53.075 6.781187
53.080 7.129003
53.085 7.383661
53.090 7.517514
53.095 7.399354
53.100 7.09308
53.105 7.292372
53.110 7.02894
53.115 7.170974
53.120 6.933443
53.125 6.721857
53.130 6.999615
53.135 7.334729
53.140 7.467591
53.145 7.374212
53.150 7.183284
53.155 7.682211
53.160 7.5847
53.165 7.113714
53.170 6.420249
53.175 6.253664
53.180 6.268707
53.185 6.204859
53.190 6.094819
53.195 6.15305
53.200 6.419737
53.205 6.545863
53.210 6.824232
53.215 6.856737
53.220 6.685388
53.225 6.79504
53.230 6.662175
53.235 6.716821
53.240 6.891093
53.245 6.647699
53.250 6.8488
53.255 7.112911
53.260 6.921418
53.265 7.267446
53.270 7.374635
53.275 7.571619
53.280 7.372771
53.285 6.796085
53.290 6.557966
53.295 6.200434
53.300 5.896721
53.305 5.797123
53.310 5.857725
53.315 6.273118
53.320 6.849917
53.325 7.039495
53.330 7.719828
53.335 7.773624
53.340 7.944579
53.345 7.988036
53.350 7.808419
53.355 8.322247
53.360 8.087078
53.365 7.69117
53.370 7.724527
53.375 7.307714
53.380 7.073192
53.385 7.142949
53.390 7.21127
53.395 7.557549
53.400 7.535669
53.405 7.827273
53.410 8.08392
53.415 8.468735
53.420 7.964471
53.425 7.998187
53.430 8.077897
53.435 7.630763
53.440 7.754899
53.445 7.889807
53.450 8.101932
53.455 8.322075
53.460 8.000877
53.465 8.475908
53.470 8.84088
53.475 8.471866
53.480 8.094931
53.485 7.393102
53.490 7.13252
53.495 6.983623
53.500 6.618238
53.505 6.872288
53.510 7.351916
53.515 7.448224
53.520 7.564716
53.525 7.893395
53.530 8.218161
53.535 8.128134
53.540 7.687963
53.545 7.381979
53.550 7.654099
53.555 7.486375
53.560 7.163779
53.565 6.826724
53.570 6.590306
53.575 6.669358
53.580 6.872107
53.585 6.902911
53.590 7.577183
53.595 7.380448
53.600 7.576674
53.605 8.064665
53.610 7.973347
53.615 8.221423
53.620 8.069289
53.625 7.569046
53.630 8.172548
53.635 8.247636
53.640 7.68554
53.645 7.597678
53.650 7.531529
53.655 7.816579
53.660 7.798144
53.665 7.440299
53.670 7.85373
53.675 8.082458
53.680 7.928551
53.685 7.824233
53.690 7.772106
53.695 8.051334
53.700 8.153131
53.705 7.666708
53.710 7.653319
53.715 7.530604
53.720 7.513355
53.725 7.529865
53.730 7.580328
53.735 7.491239
53.740 7.22433
53.745 7.06773
53.750 7.041305
53.755 7.432465
53.760 7.567478
53.765 7.247801
53.770 7.428857
53.775 7.80071
53.780 7.604759
53.785 7.471601
53.790 6.801011
53.795 7.155951
53.800 7.00545
53.805 6.749308
53.810 7.375302
53.815 7.884429
53.820 7.944435
53.825 8.057456
53.830 7.665764
53.835 7.932764
53.840 8.052794
53.845 7.981054
53.850 8.261038
53.855 8.503616
53.860 8.470313
53.865 8.640419
53.870 8.705217
53.875 8.884389
53.880 8.539945
53.885 8.116228
53.890 8.258629
53.895 8.489902
53.900 8.390555
53.905 8.312216
53.910 7.954579
53.915 8.31914
53.920 8.534434
53.925 8.306486
53.930 8.232882
53.935 8.6263
53.940 8.371819
53.945 8.363416
53.950 8.249425
53.955 8.285698
53.960 8.08394
53.965 8.028247
53.970 7.863649
53.975 7.871243
53.980 7.990022
53.985 8.081111
53.990 8.237975
53.995 8.60474
54.000 8.387865
54.005 8.756596
54.010 9.137408
54.015 8.891791
54.020 8.676538
54.025 8.620509
54.030 8.77367
54.035 8.668723
54.040 8.531205
54.045 8.481812
54.050 8.575353
54.055 8.638589
54.060 8.809685
54.065 8.723082
54.070 8.76691
54.075 8.405154
54.080 8.405262
54.085 8.256341
54.090 8.152942
54.095 8.461879
54.100 8.89492
54.105 9.134253
54.110 9.405272
54.115 9.807215
54.120 9.755994
54.125 9.488238
54.130 8.835207
54.135 8.170872
54.140 8.349071
54.145 8.352085
54.150 7.926197
54.155 7.903876
54.160 7.873826
54.165 8.26843
54.170 8.910392
54.175 8.999545
54.180 8.812665
54.185 8.952112
54.190 9.30918
54.195 9.842057
54.200 9.701913
54.205 9.358168
54.210 8.850306
54.215 9.194669
54.220 9.395118
54.225 9.029507
54.230 8.528774
54.235 8.804543
54.240 8.670408
54.245 9.080566
54.250 9.304399
54.255 9.168766
54.260 9.396733
54.265 9.244091
54.270 9.478461
54.275 9.542196
54.280 9.266211
54.285 8.919489
54.290 8.838169
54.295 8.571681
54.300 8.485856
54.305 8.3319
54.310 8.493966
54.315 8.542746
54.320 8.604073
54.325 8.401233
54.330 8.514929
54.335 8.428515
54.340 8.814674
54.345 8.71294
54.350 8.593797
54.355 8.820361
54.360 9.191021
54.365 9.15253
54.370 9.208752
54.375 9.170437
54.380 9.343517
54.385 9.020336
54.390 8.901325
54.395 8.94573
54.400 9.174951
54.405 8.699104
54.410 8.431835
54.415 8.358526
54.420 8.656768
54.425 8.460548
54.430 8.383876
54.435 8.312665
54.440 8.370465
54.445 8.605683
54.450 8.724216
54.455 9.002519
54.460 9.232486
54.465 9.431917
54.470 9.30999
54.475 9.376482
54.480 9.065526
54.485 9.031404
54.490 8.580607
54.495 7.998907
54.500 7.656478
54.505 7.436503
54.510 7.012874
54.515 7.060022
54.520 7.027903
54.525 7.385461
54.530 7.490085
54.535 7.398802
54.540 7.678759
54.545 7.85494
54.550 7.831622
54.555 8.029554
54.560 8.105715
54.565 8.497743
54.570 8.623033
54.575 8.570054
54.580 8.368345
54.585 8.337902
54.590 8.377043
54.595 8.585297
54.600 8.848574
54.605 9.365728
54.610 9.665621
54.615 10.103775
54.620 10.226171
54.625 9.822533
54.630 9.61842
54.635 9.155374
54.640 8.94522
54.645 8.63464
54.650 8.536236
54.655 8.798008
54.660 9.118106
54.665 8.944494
54.670 9.329619
54.675 9.163381
54.680 9.26169
54.685 9.382996
54.690 9.291637
54.695 9.992824
54.700 10.390501
54.705 9.715861
54.710 10.092455
54.715 10.251843
54.720 10.120527
54.725 9.824214
54.730 9.122427
54.735 9.203429
54.740 9.480073
54.745 9.379498
54.750 9.119648
54.755 8.724965
54.760 8.416039
54.765 8.392491
54.770 8.404405
54.775 8.176199
54.780 7.598882
54.785 8.006259
54.790 8.550272
54.795 8.746284
54.800 8.938215
54.805 8.896124
54.810 9.299907
54.815 9.358974
54.820 9.007403
54.825 8.504259
54.830 8.318577
54.835 8.044702
54.840 8.145707
54.845 8.643651
54.850 9.524806
54.855 9.369459
54.860 9.565719
54.865 9.548168
54.870 9.474235
54.875 9.461045
54.880 8.622618
54.885 8.187517
54.890 8.398153
54.895 8.408289
54.900 8.825314
54.905 9.376713
54.910 9.304091
54.915 9.537636
54.920 9.643965
54.925 9.862416
54.930 9.983112
54.935 9.522283
54.940 9.626589
54.945 10.101005
54.950 10.101125
54.955 10.268295
54.960 10.321973
54.965 10.381625
54.970 10.296936
54.975 9.782652
54.980 9.966654
54.985 10.279334
54.990 10.219177
54.995 10.440125
55.000 10.064716
55.005 9.929025
55.010 10.081626
55.015 9.676988
55.020 9.30092
55.025 9.159255
55.030 8.839994
55.035 8.998311
55.040 9.231605
55.045 8.979181
55.050 9.223908
55.055 9.246048
55.060 9.309559
55.065 9.589479
55.070 9.507887
55.075 9.185678
55.080 9.349418
55.085 9.375079
55.090 9.047297
55.095 8.860559
55.100 8.778235
55.105 9.336595
55.110 9.286976
55.115 8.881014
55.120 8.999915
55.125 9.297408
55.130 9.046863
55.135 8.879036
55.140 8.713819
55.145 8.705224
55.150 8.828603
55.155 8.760318
55.160 8.98438
55.165 9.325133
55.170 9.299183
55.175 9.701044
55.180 9.740002
55.185 9.612532
55.190 9.619156
55.195 9.638894
55.200 9.847214
55.205 9.915779
55.210 9.899915
55.215 10.429704
55.220 10.146213
55.225 9.93912
55.230 9.827685
55.235 9.905696
55.240 9.860095
55.245 9.578168
55.250 9.46898
55.255 9.373157
55.260 9.286734
55.265 8.972165
55.270 8.341712
55.275 8.621881
55.280 8.764158
55.285 8.780382
55.290 9.159334
55.295 9.75214
55.300 10.335171
55.305 10.850699
55.310 10.798315
55.315 10.859017
55.320 11.065869
55.325 10.862372
55.330 10.032432
55.335 9.682661
55.340 9.527369
55.345 9.346717
55.350 9.14122
55.355 8.782912
55.360 9.160379
55.365 9.538689
55.370 9.520234
55.375 9.12631
55.380 8.802168
55.385 8.616099
55.390 8.676906
55.395 8.683152
55.400 8.688382
55.405 9.464254
55.410 9.754238
55.415 9.971654
55.420 10.142658
55.425 9.805832
55.430 9.627936
55.435 9.610489
55.440 9.407463
55.445 9.70564
55.450 9.898424
55.455 10.165055
55.460 10.534385
55.465 11.062644
55.470 10.989799
55.475 10.416782
55.480 10.6943
55.485 10.891668
55.490 11.093287
55.495 10.761809
55.500 10.404192
55.505 10.16597
55.510 10.20219
55.515 9.754505
55.520 9.935901
55.525 9.91685
55.530 9.75481
55.535 10.148493
55.540 10.224798
55.545 10.130788
55.550 10.099843
55.555 9.636283
55.560 9.765119
55.565 9.914508
55.570 9.608956
55.575 9.506736
55.580 9.818294
55.585 10.050182
55.590 10.529614
55.595 10.856047
55.600 10.838536
55.605 10.610329
55.610 10.764842
55.615 10.311694
55.620 9.913015
55.625 9.752027
55.630 9.490743
55.635 9.335711
55.640 9.577638
55.645 9.984075
55.650 10.328574
55.655 10.657845
55.660 10.461764
55.665 10.881847
55.670 11.13788
55.675 10.776813
55.680 10.326917
55.685 9.914039
55.690 9.76087
55.695 9.958447
55.700 9.358068
55.705 9.567265
55.710 9.643311
55.715 9.377334
55.720 9.86791
55.725 9.928553
55.730 9.762949
55.735 9.504314
55.740 9.833756
55.745 10.114435
55.750 10.490271
55.755 10.023812
55.760 10.110304
55.765 10.178953
55.770 10.170568
55.775 10.142102
55.780 10.536366
55.785 10.680619
55.790 10.529511
55.795 10.191534
55.800 10.099325
55.805 10.194296
55.810 9.645366
55.815 9.150669
55.820 9.142988
55.825 9.524014
55.830 9.362619
55.835 9.23405
55.840 9.420712
55.845 9.954252
55.850 10.64252
55.855 10.485685
55.860 10.404142
55.865 10.920287
55.870 10.87156
55.875 10.742193
55.880 10.390271
55.885 10.135993
55.890 10.397875
55.895 10.123142
55.900 9.839862
55.905 9.879983
55.910 9.708366
55.915 9.606235
55.920 9.681894
55.925 9.696014
55.930 9.944611
55.935 10.161825
55.940 10.190987
55.945 10.064451
55.950 10.289873
55.955 10.291924
55.960 10.383136
55.965 10.461929
55.970 10.434008
55.975 10.458782
55.980 10.306587
55.985 10.250894
55.990 10.160873
55.995 9.843811
56.000 10.14718
56.005 10.217673
56.010 10.290387
56.015 10.430354
56.020 10.020844
56.025 10.01451
56.030 10.270046
56.035 10.040475
56.040 10.375765
56.045 10.402699
56.050 10.605927
56.055 11.004973
56.060 11.017341
56.065 10.858861
56.070 10.637727
56.075 9.889344
56.080 10.057078
56.085 9.843926
56.090 9.608742
56.095 9.241446
56.100 8.92135
56.105 8.833954
56.110 9.457722
56.115 9.617999
56.120 9.500683
56.125 9.932751
56.130 10.597136
56.135 10.969856
56.140 11.214359
56.145 11.078946
56.150 10.680028
56.155 11.016239
56.160 10.800685
56.165 10.549412
56.170 10.987747
56.175 10.878249
56.180 10.704928
56.185 11.122235
56.190 10.804997
56.195 10.647657
56.200 10.662434
56.205 10.201169
56.210 10.147239
56.215 10.326914
56.220 10.506039
56.225 11.26983
56.230 11.682636
56.235 11.421809
56.240 11.623597
56.245 12.016988
56.250 12.472735
56.255 11.962209
56.260 11.21665
56.265 11.40208
56.270 11.58093
56.275 11.523482
56.280 11.212924
56.285 10.690801
56.290 11.041724
56.295 11.114715
56.300 11.061249
56.305 11.336908
56.310 11.665498
56.315 12.01829
56.320 11.692812
56.325 11.512556
56.330 11.459157
56.335 11.403964
56.340 11.163182
56.345 10.681357
56.350 10.182578
56.355 10.193843
56.360 10.144873
56.365 9.835207
56.370 9.458323
56.375 9.447194
56.380 9.687725
56.385 10.079845
56.390 10.03851
56.395 10.257036
56.400 10.771139
56.405 11.094767
56.410 11.467901
56.415 11.425492
56.420 11.354404
56.425 11.510526
56.430 11.353155
56.435 10.851349
56.440 10.216761
56.445 10.024001
56.450 10.032147
56.455 10.083517
56.460 10.429723
56.465 9.755342
56.470 9.99166
56.475 10.298056
56.480 10.365067
56.485 10.335356
56.490 10.572833
56.495 10.929178
56.500 11.522897
56.505 11.385626
56.510 11.385551
56.515 11.181868
56.520 11.167908
56.525 10.710722
56.530 10.207297
56.535 10.639044
56.540 11.003426
56.545 10.72764
56.550 10.87192
56.555 10.789082
56.560 10.840693
56.565 10.818807
56.570 10.51757
56.575 10.342684
56.580 10.322914
56.585 9.58177
56.590 9.566154
56.595 9.479211
56.600 9.528217
56.605 9.458766
56.610 9.661791
56.615 10.213054
56.620 11.016337
56.625 10.859551
56.630 11.190002
56.635 11.462187
56.640 11.590786
56.645 11.873308
56.650 11.796532
56.655 11.785486
56.660 12.232152
56.665 11.987093
56.670 11.785264
56.675 11.751775
56.680 11.463997
56.685 11.22628
56.690 10.832829
56.695 10.894233
56.700 10.985445
56.705 10.989143
56.710 10.923918
56.715 11.088391
56.720 11.187895
56.725 11.499288
56.730 11.267421
56.735 11.700756
56.740 11.755621
56.745 11.627453
56.750 11.560956
56.755 11.870603
56.760 11.813393
56.765 11.648211
56.770 10.823274
56.775 10.570987
56.780 10.839757
56.785 10.773128
56.790 10.660606
56.795 10.531572
56.800 11.294908
56.805 11.804652
56.810 12.378573
56.815 12.147799
56.820 12.129357
56.825 12.235807
56.830 12.23425
56.835 12.020564
56.840 12.373026
56.845 11.811267
56.850 11.64335
56.855 11.385342
56.860 11.16993
56.865 10.859444
56.870 10.31481
56.875 10.160814
56.880 10.450689
56.885 10.474134
56.890 10.530404
56.895 10.795208
56.900 11.407446
56.905 11.888218
56.910 11.529135
56.915 11.272071
56.920 11.321624
56.925 11.900504
56.930 11.720147
56.935 11.861267
56.940 12.235922
56.945 11.72714
56.950 11.819455
56.955 12.147223
56.960 11.831662
56.965 11.950202
56.970 11.270178
56.975 11.520848
56.980 12.24376
56.985 12.365704
56.990 12.506015
56.995 12.454541
57.000 12.120975
57.005 12.169327
57.010 11.615584
57.015 11.520042
57.020 11.079551
57.025 10.803898
57.030 10.926818
57.035 10.600406
57.040 10.34233
57.045 10.144306
57.050 10.461088
57.055 10.83286
57.060 10.835704
57.065 10.886043
57.070 10.840067
57.075 10.894958
57.080 11.671405
57.085 12.029781
57.090 12.111485
57.095 12.201035
57.100 12.523318
57.105 13.308792
57.110 13.14712
57.115 12.429933
57.120 12.012425
57.125 12.163583
57.130 12.10366
57.135 12.215306
57.140 12.055592
57.145 12.036851
57.150 12.163081
57.155 12.263731
57.160 12.357871
57.165 12.742409
57.170 12.272721
57.175 12.50941
57.180 12.623508
57.185 12.860466
57.190 12.983497
57.195 12.525191
57.200 12.508318
57.205 12.632122
57.210 12.253082
57.215 11.973752
57.220 11.216607
57.225 11.463814
57.230 11.479909
57.235 11.034213
57.240 10.886333
57.245 11.152604
57.250 11.416677
57.255 11.362473
57.260 11.19102
57.265 11.364456
57.270 11.540539
57.275 11.733896
57.280 11.560152
57.285 11.578438
57.290 11.992376
57.295 11.627055
57.300 11.732268
57.305 12.206613
57.310 12.071157
57.315 12.234663
57.320 12.574514
57.325 12.372849
57.330 12.826612
57.335 12.691617
57.340 12.562534
57.345 12.598874
57.350 12.262145
57.355 12.064222
57.360 11.76712
57.365 11.158823
57.370 10.99346
57.375 10.765108
57.380 11.134271
57.385 11.448982
57.390 11.56589
57.395 11.699902
57.400 12.526075
57.405 12.665919
57.410 13.029991
57.415 12.836016
57.420 12.605396
57.425 12.44822
57.430 12.254313
57.435 11.622651
57.440 11.708697
57.445 12.052021
57.450 11.898047
57.455 12.01073
57.460 11.924917
57.465 12.224784
57.470 12.576456
57.475 12.173953
57.480 11.694194
57.485 12.562513
57.490 12.618857
57.495 12.775702
57.500 12.438482
57.505 12.328095
57.510 12.639306
57.515 13.107462
57.520 12.920922
57.525 12.938753
57.530 12.836757
57.535 13.545382
57.540 13.539674
57.545 13.597194
57.550 13.792296
57.555 13.610823
57.560 14.065661
57.565 14.752025
57.570 14.526798
57.575 14.550838
57.580 13.966222
57.585 13.418352
57.590 13.731792
57.595 13.603122
57.600 13.027536
57.605 12.934258
57.610 12.804582
57.615 12.825817
57.620 12.648414
57.625 12.410734
57.630 12.382487
57.635 12.584035
57.640 12.727569
57.645 13.019955
57.650 12.999374
57.655 13.56629
57.660 13.710985
57.665 13.58844
57.670 13.685067
57.675 13.253581
57.680 12.840992
57.685 12.940443
57.690 12.524585
57.695 12.046398
57.700 12.231062
57.705 12.109326
57.710 12.455409
57.715 12.556267
57.720 12.416332
57.725 12.461052
57.730 12.718158
57.735 12.567674
57.740 12.795511
57.745 13.004867
57.750 13.157856
57.755 13.121032
57.760 13.067015
57.765 13.137452
57.770 13.088472
57.775 12.875905
57.780 12.841955
57.785 13.390038
57.790 13.788325
57.795 13.543363
57.800 12.787889
57.805 12.720067
57.810 12.613784
57.815 13.010921
57.820 12.745882
57.825 13.336986
57.830 14.158895
57.835 15.184917
57.840 15.856934
57.845 15.573863
57.850 15.305408
57.855 15.201596
57.860 14.831115
57.865 14.534209
57.870 14.271789
57.875 13.75559
57.880 13.960752
57.885 14.227857
57.890 14.027376
57.895 13.72509
57.900 13.740622
57.905 13.658285
57.910 14.03951
57.915 14.056447
57.920 14.125692
57.925 14.014531
57.930 13.948446
57.935 14.054934
57.940 14.185603
57.945 13.984909
57.950 13.759492
57.955 13.320552
57.960 12.848504
57.965 12.644698
57.970 12.241088
57.975 11.872428
57.980 12.207266
57.985 12.061039
57.990 12.38903
57.995 13.194964
58.000 13.692917
58.005 14.49876
58.010 14.644767
58.015 14.935928
58.020 15.524356
58.025 15.29997
58.030 14.944089
58.035 14.544888
58.040 14.949226
58.045 14.861692
58.050 14.260201
58.055 14.536063
58.060 15.06641
58.065 14.954916
58.070 15.139025
58.075 14.741419
58.080 14.758592
58.085 15.064176
58.090 14.622597
58.095 14.694954
58.100 15.062328
58.105 15.258038
58.110 15.231034
58.115 15.331122
58.120 15.206989
58.125 15.29569
58.130 15.058746
58.135 14.841671
58.140 14.842576
58.145 15.19244
58.150 16.066982
58.155 16.446524
58.160 16.367096
58.165 16.664877
58.170 17.010693
58.175 16.47962
58.180 16.377832
58.185 15.613439
58.190 15.058147
58.195 14.791219
58.200 14.280802
58.205 14.170318
58.210 14.263132
58.215 14.100981
58.220 14.226755
58.225 15.133352
58.230 15.229658
58.235 15.649189
58.240 15.542737
58.245 15.063285
58.250 15.000833
58.255 14.772697
58.260 14.338568
58.265 14.41812
58.270 14.793347
58.275 15.1093
58.280 15.643473
58.285 15.483227
58.290 15.408232
58.295 15.719818
58.300 16.385281
58.305 16.292465
58.310 16.684216
58.315 16.667379
58.320 16.785816
58.325 16.832222
58.330 16.599594
58.335 16.395323
58.340 16.228209
58.345 15.97051
58.350 17.132299
58.355 18.053083
58.360 17.907616
58.365 18.353205
58.370 18.44989
58.375 18.765631
58.380 18.605438
58.385 18.539852
58.390 18.708372
58.395 19.154421
58.400 19.246761
58.405 19.270025
58.410 19.389984
58.415 20.101315
58.420 19.861609
58.425 20.102444
58.430 20.260195
58.435 20.253347
58.440 20.946302
58.445 21.324818
58.450 21.190886
58.455 21.400219
58.460 21.806293
58.465 22.220972
58.470 22.858261
58.475 22.921358
58.480 23.28863
58.485 23.895401
58.490 24.438398
58.495 24.675018
58.500 24.636137
58.505 24.567999
58.510 25.01565
58.515 25.31407
58.520 24.999893
58.525 24.854115
58.530 24.52492
58.535 24.680801
58.540 24.479704
58.545 24.776125
58.550 24.861351
58.555 25.232058
58.560 25.772131
58.565 26.13286
58.570 26.294336
58.575 26.729122
58.580 26.932875
58.585 27.524454
