!@!!GADDS PLOTSO FILE: Chi integration type
!@!!Title/SampleName: map-b5
!@!!Comment: ?
!@!!User: Bruker Instrument Administrator
!@!!Site: University of Illinois Chicago
!@!!Frame: map-b5_01_000.gfrm
!@!!Wavelengths    1.54184   1.54056   1.54439
!@!!Frame angles: 2Theta: 63.000 Omega: 50.000 Phi: 0.000 Chi: 90.000
!@!!Integration range: 2Theta: 53.000 to 73.000  Gamma: -105.000 to -75.000
!@!!Integration method: bin normalized
!@!N
!@!SS
!@!M
!@!L 0.0 0.0 0.0 0.0
!@!XDegrees
!@!YCounts
53.000 9.333914
53.005 9.520934
53.010 9.445308
53.015 9.577306
53.020 9.532725
53.025 9.071656
53.030 8.622943
53.035 8.0702
53.040 7.902291
53.045 8.135944
53.050 7.775001
53.055 7.919418
53.060 8.072087
53.065 8.199971
53.070 8.379498
53.075 8.10587
53.080 8.359093
53.085 8.57985
53.090 8.799627
53.095 8.932466
53.100 9.180141
53.105 9.760139
53.110 9.861392
53.115 9.522135
53.120 9.109342
53.125 8.868697
53.130 8.93265
53.135 8.722961
53.140 8.587676
53.145 8.742458
53.150 9.02765
53.155 8.985905
53.160 9.510143
53.165 10.246747
53.170 10.446826
53.175 10.498564
53.180 10.616175
53.185 11.033825
53.190 11.44115
53.195 10.524789
53.200 10.159474
53.205 9.920357
53.210 9.800329
53.215 9.81676
53.220 9.387658
53.225 9.138414
53.230 9.295451
53.235 8.742309
53.240 8.929096
53.245 9.01579
53.250 9.009928
53.255 9.066812
53.260 9.319457
53.265 9.440761
53.270 9.350781
53.275 9.27385
53.280 9.024179
53.285 9.299859
53.290 9.525019
53.295 9.620635
53.300 9.83411
53.305 10.13873
53.310 10.362738
53.315 10.541319
53.320 10.073939
53.325 10.070697
53.330 9.779467
53.335 9.458709
53.340 9.09635
53.345 9.119037
53.350 8.737953
53.355 8.896709
53.360 8.83364
53.365 8.985672
53.370 9.067122
53.375 8.892705
53.380 8.816068
53.385 8.902061
53.390 8.510172
53.395 8.728454
53.400 9.397899
53.405 9.881662
53.410 9.921115
53.415 10.12204
53.420 10.130699
53.425 10.409913
53.430 9.748363
53.435 9.360716
53.440 9.349931
53.445 9.223343
53.450 9.225993
53.455 9.557428
53.460 9.907862
53.465 10.649472
53.470 10.261376
53.475 10.516165
53.480 10.788656
53.485 10.662035
53.490 10.819512
53.495 10.320289
53.500 9.972041
53.505 9.914225
53.510 9.219033
53.515 9.07516
53.520 9.377853
53.525 9.239683
53.530 9.291824
53.535 9.587667
53.540 9.780502
53.545 10.255744
53.550 10.274993
53.555 9.83339
53.560 10.36829
53.565 10.127972
53.570 10.112506
53.575 10.638124
53.580 10.465788
53.585 10.22156
53.590 10.185738
53.595 10.01158
53.600 10.080523
53.605 9.794983
53.610 9.303703
53.615 9.672228
53.620 9.727261
53.625 9.093451
53.630 8.803443
53.635 8.834141
53.640 9.13192
53.645 9.23413
53.650 8.99823
53.655 9.097813
53.660 9.206738
53.665 9.61459
53.670 9.691488
53.675 9.617982
53.680 9.718243
53.685 9.447297
53.690 9.585977
53.695 9.48976
53.700 9.233794
53.705 9.684402
53.710 9.960621
53.715 9.78729
53.720 9.812353
53.725 10.101697
53.730 11.135712
53.735 11.19588
53.740 10.895797
53.745 10.775848
53.750 10.914314
53.755 10.89202
53.760 10.539918
53.765 9.965588
53.770 9.939706
53.775 10.311862
53.780 10.718534
53.785 10.75234
53.790 10.813002
53.795 10.626416
53.800 10.218484
53.805 9.901399
53.810 9.196892
53.815 9.194583
53.820 9.611001
53.825 10.035387
53.830 10.147698
53.835 10.711489
53.840 10.818533
53.845 10.959708
53.850 11.020226
53.855 10.646289
53.860 10.555975
53.865 10.753428
53.870 10.991839
53.875 11.039727
53.880 10.63631
53.885 10.263512
53.890 10.120247
53.895 10.191278
53.900 9.785682
53.905 9.506678
53.910 9.664668
53.915 9.937093
53.920 10.153849
53.925 10.32923
53.930 9.759967
53.935 9.958469
53.940 9.738977
53.945 9.531839
53.950 9.1547
53.955 8.847721
53.960 8.82351
53.965 9.404376
53.970 9.583026
53.975 9.572203
53.980 9.686489
53.985 10.556555
53.990 10.623184
53.995 10.698479
54.000 10.597953
54.005 10.29406
54.010 10.189951
54.015 9.727017
54.020 9.526092
54.025 9.769614
54.030 9.606736
54.035 9.615435
54.040 9.66991
54.045 10.189099
54.050 10.419968
54.055 10.38706
54.060 10.277078
54.065 10.209464
54.070 10.640367
54.075 10.907402
54.080 11.134778
54.085 10.923268
54.090 10.705597
54.095 10.517979
54.100 10.093324
54.105 10.00386
54.110 9.9907
54.115 9.66844
54.120 9.600553
54.125 9.943188
54.130 10.506681
54.135 10.981267
54.140 10.985494
54.145 11.035132
54.150 11.31487
54.155 11.845016
54.160 11.577432
54.165 11.81267
54.170 11.695742
54.175 11.706194
54.180 11.848172
54.185 11.962201
54.190 11.601929
54.195 11.511687
54.200 11.438492
54.205 11.568802
54.210 11.444967
54.215 11.509929
54.220 11.378237
54.225 11.576628
54.230 11.657554
54.235 11.731055
54.240 11.288035
54.245 11.301092
54.250 11.199599
54.255 11.206608
54.260 11.327743
54.265 10.906525
54.270 10.129543
54.275 10.213675
54.280 10.158635
54.285 10.382594
54.290 10.312805
54.295 10.485341
54.300 10.688425
54.305 10.955966
54.310 10.673378
54.315 10.145967
54.320 9.658089
54.325 9.411678
54.330 8.821739
54.335 8.850454
54.340 8.613573
54.345 8.900124
54.350 9.458818
54.355 9.720804
54.360 9.89362
54.365 10.243965
54.370 10.497522
54.375 10.898717
54.380 10.758813
54.385 10.561806
54.390 10.415563
54.395 10.298127
54.400 9.918954
54.405 10.241387
54.410 9.996236
54.415 10.040206
54.420 10.156305
54.425 10.434424
54.430 10.565244
54.435 10.853724
54.440 10.786656
54.445 10.863262
54.450 10.562222
54.455 10.410116
54.460 10.361523
54.465 9.77741
54.470 9.553745
54.475 9.516982
54.480 9.770278
54.485 9.916731
54.490 10.095548
54.495 10.668781
54.500 11.15126
54.505 11.815872
54.510 11.855651
54.515 12.254654
54.520 12.186483
54.525 12.016509
54.530 12.009871
54.535 12.238432
54.540 11.896566
54.545 11.898359
54.550 12.068622
54.555 12.551703
54.560 12.161483
54.565 11.867433
54.570 11.596501
54.575 11.454532
54.580 11.264883
54.585 11.095523
54.590 11.078941
54.595 10.753333
54.600 10.943797
54.605 11.393289
54.610 11.460641
54.615 11.254394
54.620 10.96294
54.625 11.229934
54.630 11.483607
54.635 11.102176
54.640 10.973691
54.645 11.161415
54.650 10.935571
54.655 10.777226
54.660 10.598396
54.665 10.655575
54.670 10.406393
54.675 9.876286
54.680 9.532091
54.685 9.611485
54.690 9.627314
54.695 9.705517
54.700 9.850643
54.705 10.178884
54.710 10.385093
54.715 10.838161
54.720 10.865671
54.725 11.092353
54.730 11.17279
54.735 11.037676
54.740 10.937418
54.745 10.774254
54.750 10.742438
54.755 10.620649
54.760 10.147433
54.765 9.856759
54.770 9.806651
54.775 10.010466
54.780 10.014045
54.785 9.980011
54.790 10.500338
54.795 10.755545
54.800 11.163794
54.805 11.741705
54.810 11.368815
54.815 11.198814
54.820 11.116025
54.825 11.047989
54.830 10.799159
54.835 10.385409
54.840 9.959013
54.845 10.802888
54.850 11.572426
54.855 12.019288
54.860 11.974487
54.865 12.248273
54.870 12.43824
54.875 12.31244
54.880 12.375948
54.885 12.291769
54.890 11.940798
54.895 12.444297
54.900 12.683856
54.905 13.12173
54.910 13.172066
54.915 12.381042
54.920 12.200547
54.925 12.158776
54.930 11.611054
54.935 11.345694
54.940 11.284154
54.945 11.708036
54.950 11.976076
54.955 12.222813
54.960 12.480062
54.965 12.156154
54.970 11.712949
54.975 11.299754
54.980 11.092088
54.985 10.628153
54.990 10.150747
54.995 10.080924
55.000 10.023741
55.005 10.55578
55.010 11.086003
55.015 11.063593
55.020 11.41604
55.025 11.580051
55.030 11.650669
55.035 12.027085
55.040 12.058437
55.045 12.042689
55.050 11.689901
55.055 11.680891
55.060 11.302435
55.065 11.437574
55.070 11.477052
55.075 10.827709
55.080 10.738213
55.085 11.238463
55.090 11.174318
55.095 11.37843
55.100 11.802686
55.105 12.182681
55.110 12.430739
55.115 12.569061
55.120 12.634747
55.125 12.321188
55.130 12.141164
55.135 11.658272
55.140 11.170362
55.145 11.411632
55.150 11.436425
55.155 11.717512
55.160 12.025915
55.165 11.855742
55.170 11.836765
55.175 11.833536
55.180 11.984944
55.185 12.101306
55.190 12.161511
55.195 11.899291
55.200 11.771617
55.205 12.13938
55.210 12.392371
55.215 11.7874
55.220 11.617554
55.225 11.829809
55.230 12.185541
55.235 12.928667
55.240 12.969441
55.245 13.136638
55.250 13.64217
55.255 13.597564
55.260 13.468342
55.265 13.481802
55.270 13.511704
55.275 13.373194
55.280 13.114393
55.285 12.714664
55.290 13.211068
55.295 13.317226
55.300 12.962935
55.305 12.524594
55.310 12.294494
55.315 12.022477
55.320 11.83178
55.325 10.753939
55.330 10.514823
55.335 10.526854
55.340 10.451539
55.345 10.107008
55.350 10.420102
55.355 10.722698
55.360 11.235993
55.365 11.256179
55.370 11.249245
55.375 10.940694
55.380 11.210935
55.385 11.282633
55.390 11.432549
55.395 11.573442
55.400 11.770997
55.405 11.542353
55.410 11.846222
55.415 12.274767
55.420 12.637773
55.425 12.852371
55.430 12.25745
55.435 11.748636
55.440 11.984052
55.445 11.658731
55.450 11.150908
55.455 10.557998
55.460 10.536029
55.465 11.141538
55.470 11.095989
55.475 11.352085
55.480 11.902421
55.485 11.962402
55.490 12.064751
55.495 12.155094
55.500 12.273848
55.505 12.9885
55.510 12.675028
55.515 12.209522
55.520 12.434194
55.525 12.17262
55.530 11.73717
55.535 11.927264
55.540 11.681568
55.545 11.799332
55.550 11.825029
55.555 11.49113
55.560 11.465569
55.565 11.512499
55.570 10.875772
55.575 10.559832
55.580 11.028183
55.585 11.298507
55.590 11.471705
55.595 11.85877
55.600 12.115021
55.605 12.340635
55.610 12.232183
55.615 11.424657
55.620 11.412293
55.625 11.410267
55.630 10.748902
55.635 10.516313
55.640 10.112627
55.645 10.232595
55.650 10.537335
55.655 10.042065
55.660 10.149663
55.665 10.015644
55.670 9.949311
55.675 10.696172
55.680 10.924269
55.685 10.970757
55.690 11.446342
55.695 11.482712
55.700 12.591488
55.705 13.150028
55.710 12.809419
55.715 12.67771
55.720 12.868263
55.725 12.622003
55.730 12.514774
55.735 11.885201
55.740 11.836693
55.745 11.93708
55.750 11.870017
55.755 11.615792
55.760 11.369023
55.765 10.875554
55.770 10.778887
55.775 10.964776
55.780 11.152152
55.785 11.340752
55.790 11.708934
55.795 12.312922
55.800 12.947179
55.805 13.323361
55.810 13.561384
55.815 13.513982
55.820 13.656622
55.825 13.85607
55.830 13.638509
55.835 13.593805
55.840 13.079885
55.845 12.774978
55.850 12.924753
55.855 12.937251
55.860 12.758101
55.865 13.269867
55.870 13.412021
55.875 14.126976
55.880 14.088497
55.885 14.29133
55.890 14.145895
55.895 14.267493
55.900 13.757272
55.905 13.727483
55.910 13.697401
55.915 14.10673
55.920 13.672499
55.925 13.560756
55.930 13.448097
55.935 13.904408
55.940 13.727168
55.945 13.895885
55.950 13.806225
55.955 13.891337
55.960 14.260914
55.965 14.128425
55.970 13.688202
55.975 13.207536
55.980 12.423576
55.985 12.048658
55.990 11.725849
55.995 11.382269
56.000 11.85088
56.005 11.95239
56.010 12.660268
56.015 13.343623
56.020 13.687175
56.025 13.930413
56.030 13.79536
56.035 13.221249
56.040 13.128124
56.045 12.751486
56.050 12.54734
56.055 12.424153
56.060 12.41353
56.065 12.428384
56.070 12.095062
56.075 11.973233
56.080 12.020522
56.085 11.894279
56.090 11.681921
56.095 11.845959
56.100 12.325828
56.105 12.930407
56.110 13.05094
56.115 12.858269
56.120 12.47219
56.125 12.29271
56.130 11.727592
56.135 11.441905
56.140 11.379608
56.145 11.915184
56.150 12.135894
56.155 12.456049
56.160 12.337886
56.165 12.622934
56.170 12.658498
56.175 12.328463
56.180 12.270929
56.185 12.094908
56.190 11.706712
56.195 11.961835
56.200 12.301614
56.205 12.831015
56.210 13.148767
56.215 13.042136
56.220 13.706801
56.225 14.27196
56.230 14.765429
56.235 14.385571
56.240 14.088599
56.245 14.15113
56.250 13.478658
56.255 13.391226
56.260 13.621283
56.265 13.240491
56.270 13.395783
56.275 13.576427
56.280 13.553331
56.285 14.172541
56.290 14.246009
56.295 14.426713
56.300 14.401705
56.305 14.173029
56.310 13.791179
56.315 13.986668
56.320 13.568362
56.325 13.335716
56.330 12.834913
56.335 12.666534
56.340 12.891169
56.345 12.850865
56.350 13.090841
56.355 13.289989
56.360 13.336142
56.365 13.839195
56.370 14.345399
56.375 13.831976
56.380 13.33569
56.385 12.701449
56.390 12.862745
56.395 12.165998
56.400 11.527939
56.405 10.958063
56.410 11.569008
56.415 12.271362
56.420 12.670672
56.425 12.883243
56.430 13.249426
56.435 13.72542
56.440 14.135041
56.445 13.99483
56.450 13.484159
56.455 12.929487
56.460 13.04097
56.465 13.264868
56.470 12.510645
56.475 12.465991
56.480 12.743013
56.485 13.05812
56.490 13.525126
56.495 13.10467
56.500 13.152412
56.505 13.318364
56.510 13.183234
56.515 13.391861
56.520 13.374907
56.525 13.453166
56.530 13.901075
56.535 13.823546
56.540 14.171178
56.545 14.542663
56.550 14.36332
56.555 14.049151
56.560 13.732825
56.565 13.637026
56.570 13.72922
56.575 13.289268
56.580 12.857344
56.585 12.76406
56.590 13.07948
56.595 13.674082
56.600 13.44422
56.605 13.458043
56.610 13.631419
56.615 14.164791
56.620 14.493625
56.625 14.265768
56.630 13.783505
56.635 13.543299
56.640 13.311939
56.645 13.198377
56.650 11.906063
56.655 11.325209
56.660 11.293976
56.665 11.758919
56.670 12.003854
56.675 11.944338
56.680 12.202675
56.685 12.770181
56.690 12.945373
56.695 12.570186
56.700 12.097383
56.705 12.25512
56.710 12.659983
56.715 13.197597
56.720 13.528013
56.725 14.093492
56.730 14.558184
56.735 15.201078
56.740 15.642172
56.745 15.50207
56.750 15.255843
56.755 14.91642
56.760 15.089161
56.765 14.349385
56.770 14.104984
56.775 13.733134
56.780 13.509584
56.785 13.253195
56.790 13.365922
56.795 13.273785
56.800 13.501021
56.805 13.301126
56.810 13.756763
56.815 14.080494
56.820 14.456043
56.825 14.895455
56.830 15.261316
56.835 15.986222
56.840 16.385265
56.845 16.382391
56.850 16.510199
56.855 16.058277
56.860 15.39642
56.865 14.698772
56.870 14.462661
56.875 14.13856
56.880 13.491176
56.885 13.558017
56.890 13.458646
56.895 13.254174
56.900 13.361052
56.905 12.841177
56.910 12.449637
56.915 12.871062
56.920 12.826068
56.925 13.24227
56.930 13.73153
56.935 14.23108
56.940 14.137376
56.945 14.393394
56.950 14.223121
56.955 14.466835
56.960 14.397323
56.965 14.103201
56.970 13.686562
56.975 14.026737
56.980 14.388185
56.985 14.252724
56.990 14.111576
56.995 14.134279
57.000 14.041721
57.005 13.695013
57.010 13.689629
57.015 13.934069
57.020 13.845826
57.025 13.830405
57.030 13.735909
57.035 13.957188
57.040 14.336016
57.045 14.209099
57.050 13.865359
57.055 14.502888
57.060 14.409753
57.065 14.781689
57.070 15.396107
57.075 15.500622
57.080 15.063456
57.085 14.689758
57.090 14.035066
57.095 13.925778
57.100 13.183679
57.105 12.440261
57.110 12.387984
57.115 12.756339
57.120 12.260725
57.125 12.766665
57.130 13.053416
57.135 13.457081
57.140 13.858095
57.145 13.885443
57.150 14.236292
57.155 14.756632
57.160 14.475522
57.165 14.556591
57.170 14.477086
57.175 14.385419
57.180 14.545068
57.185 14.403123
57.190 13.942858
57.195 13.404663
57.200 13.069459
57.205 13.000575
57.210 13.203535
57.215 12.76574
57.220 12.366481
57.225 12.307998
57.230 12.486919
57.235 12.482397
57.240 12.272596
57.245 12.204283
57.250 12.395468
57.255 12.758086
57.260 12.922861
57.265 13.60351
57.270 13.870716
57.275 14.040133
57.280 13.913358
57.285 13.725496
57.290 13.613209
57.295 13.893312
57.300 13.832867
57.305 14.746197
57.310 14.959663
57.315 14.860647
57.320 15.660994
57.325 16.613407
57.330 17.037966
57.335 16.602278
57.340 15.7015
57.345 15.726516
57.350 15.532774
57.355 15.437286
57.360 15.479465
57.365 15.023645
57.370 15.138268
57.375 15.513179
57.380 15.777098
57.385 15.912737
57.390 15.887401
57.395 15.382183
57.400 15.733315
57.405 15.738879
57.410 15.520509
57.415 15.222008
57.420 15.562187
57.425 15.234509
57.430 14.741899
57.435 14.367449
57.440 14.309271
57.445 14.321518
57.450 14.185545
57.455 14.148213
57.460 13.94961
57.465 14.37588
57.470 14.516955
57.475 14.353812
57.480 14.267739
57.485 14.36927
57.490 14.327202
57.495 14.841469
57.500 14.544847
57.505 14.407164
57.510 14.431478
57.515 14.670058
57.520 14.569617
57.525 14.293919
57.530 13.905643
57.535 13.951573
57.540 14.12573
57.545 13.521158
57.550 13.153477
57.555 13.593838
57.560 14.220082
57.565 14.716245
57.570 15.182836
57.575 14.983367
57.580 15.791572
57.585 16.371944
57.590 16.383623
57.595 15.716085
57.600 15.630207
57.605 15.39527
57.610 15.508347
57.615 15.235086
57.620 15.329386
57.625 15.632442
57.630 15.857201
57.635 15.814573
57.640 15.821027
57.645 15.862632
57.650 15.794656
57.655 15.496361
57.660 15.601422
57.665 15.642518
57.670 15.401383
57.675 15.207724
57.680 14.791446
57.685 14.527496
57.690 14.413526
57.695 14.060852
57.700 14.07841
57.705 14.103707
57.710 14.140241
57.715 14.191434
57.720 14.572598
57.725 14.737901
57.730 15.414689
57.735 15.673162
57.740 16.376936
57.745 16.619793
57.750 16.83073
57.755 16.671291
57.760 16.198881
57.765 15.097018
57.770 14.315231
57.775 14.077571
57.780 14.573263
57.785 14.864848
57.790 15.100098
57.795 15.854504
57.800 16.334242
57.805 16.735304
57.810 16.821913
57.815 17.370785
57.820 17.218348
57.825 16.809378
57.830 16.840031
57.835 17.510681
57.840 17.484524
57.845 17.039789
57.850 16.279528
57.855 16.198645
57.860 16.139793
57.865 15.526197
57.870 15.072731
57.875 15.232276
57.880 15.125059
57.885 15.283184
57.890 15.597995
57.895 15.515227
57.900 15.490541
57.905 15.278678
57.910 14.951401
57.915 15.123347
57.920 15.176771
57.925 15.184447
57.930 15.676596
57.935 16.091963
57.940 16.711224
57.945 17.305571
57.950 17.501471
57.955 17.164804
57.960 16.860016
57.965 16.956116
57.970 16.504223
57.975 16.583969
57.980 16.683029
57.985 16.241011
57.990 16.505308
57.995 16.291094
58.000 16.433741
58.005 17.115608
58.010 16.678614
58.015 16.834473
58.020 17.315464
58.025 17.32839
58.030 17.0769
58.035 16.543283
58.040 16.285677
58.045 15.708311
58.050 14.951974
58.055 14.95421
58.060 15.734228
58.065 16.348862
58.070 16.753414
58.075 17.228352
58.080 17.886497
58.085 17.978712
58.090 17.961876
58.095 18.097939
58.100 18.297626
58.105 18.408171
58.110 17.874893
58.115 17.505589
58.120 17.35181
58.125 17.067698
58.130 16.748255
58.135 17.166037
58.140 17.179222
58.145 17.549751
58.150 18.090618
58.155 18.474169
58.160 18.673466
58.165 18.448599
58.170 18.101881
58.175 18.269024
58.180 18.018499
58.185 18.143263
58.190 18.156055
58.195 17.976852
58.200 18.484997
58.205 18.373743
58.210 18.429243
58.215 18.937918
58.220 18.880095
58.225 18.851137
58.230 19.435656
58.235 18.919725
58.240 18.856518
58.245 19.029697
58.250 18.88975
58.255 18.886179
58.260 18.997955
58.265 18.675386
58.270 18.734568
58.275 19.245045
58.280 19.164209
58.285 19.768221
58.290 20.274166
58.295 20.688334
58.300 20.934282
58.305 21.130409
58.310 21.053663
58.315 20.549791
58.320 20.190887
58.325 20.238203
58.330 20.427479
58.335 20.930845
58.340 21.416502
58.345 21.488319
58.350 22.277401
58.355 22.486006
58.360 22.501238
58.365 22.509638
58.370 22.272835
58.375 22.318529
58.380 22.191616
58.385 21.831451
58.390 21.886501
58.395 21.623371
58.400 21.383352
58.405 21.006926
58.410 20.878073
58.415 20.947317
58.420 21.384157
58.425 21.48205
58.430 21.61149
58.435 21.633524
58.440 21.955723
58.445 22.277294
58.450 22.143572
58.455 21.34103
58.460 21.007488
58.465 20.93866
58.470 20.710657
58.475 20.710325
58.480 21.209461
58.485 21.498631
