!@!!GADDS PLOTSO FILE: Chi integration type
!@!!Title/SampleName: map-d3
!@!!Comment: ?
!@!!User: Bruker Instrument Administrator
!@!!Site: University of Illinois Chicago
!@!!Frame: map-d3_01_000.gfrm
!@!!Wavelengths    1.54184   1.54056   1.54439
!@!!Frame angles: 2Theta: 63.000 Omega: 50.000 Phi: 0.000 Chi: 90.000
!@!!Integration range: 2Theta: 53.000 to 73.000  Gamma: -105.000 to -75.000
!@!!Integration method: bin normalized
!@!N
!@!SS
!@!M
!@!L 0.0 0.0 0.0 0.0
!@!XDegrees
!@!YCounts
53.000 7.569862
53.005 7.626081
53.010 7.625356
53.015 8.149819
53.020 8.300053
53.025 8.420744
53.030 8.742146
53.035 9.154128
53.040 9.128373
53.045 9.152792
53.050 8.65597
53.055 8.941599
53.060 8.729893
53.065 8.338722
53.070 8.195915
53.075 8.026733
53.080 8.023531
53.085 8.292228
53.090 7.998396
53.095 8.690662
53.100 9.215441
53.105 9.314244
53.110 9.686139
53.115 9.289488
53.120 9.063194
53.125 8.827737
53.130 8.431381
53.135 8.112126
53.140 7.822327
53.145 7.539586
53.150 7.894581
53.155 7.824355
53.160 7.816997
53.165 7.821189
53.170 8.038049
53.175 8.429806
53.180 8.155606
53.185 7.675707
53.190 7.80292
53.195 8.228606
53.200 8.262427
53.205 8.143908
53.210 7.96619
53.215 8.255704
53.220 8.684775
53.225 8.459105
53.230 7.789302
53.235 7.375752
53.240 7.496672
53.245 7.853935
53.250 7.928242
53.255 8.200119
53.260 8.305525
53.265 8.899765
53.270 9.248916
53.275 9.017527
53.280 8.921542
53.285 8.74089
53.290 8.738011
53.295 9.293688
53.300 9.062847
53.305 8.983178
53.310 8.835092
53.315 8.975861
53.320 9.156599
53.325 9.122684
53.330 8.96989
53.335 9.252056
53.340 9.143689
53.345 9.173967
53.350 8.943095
53.355 8.752831
53.360 8.41918
53.365 7.891113
53.370 7.590296
53.375 7.619656
53.380 7.699939
53.385 7.831214
53.390 8.470626
53.395 8.647894
53.400 8.90014
53.405 9.241788
53.410 9.060158
53.415 9.038761
53.420 8.672129
53.425 8.082468
53.430 8.35183
53.435 8.186626
53.440 7.975182
53.445 8.32932
53.450 8.375305
53.455 8.516677
53.460 8.49497
53.465 8.365494
53.470 8.515644
53.475 8.663604
53.480 8.583391
53.485 8.444674
53.490 8.711188
53.495 8.549613
53.500 8.583592
53.505 8.930607
53.510 9.079382
53.515 9.039883
53.520 8.696608
53.525 8.225995
53.530 7.926992
53.535 7.875728
53.540 7.306297
53.545 7.035249
53.550 7.216202
53.555 7.767779
53.560 8.597105
53.565 8.632738
53.570 8.43266
53.575 8.58017
53.580 8.695505
53.585 8.409764
53.590 8.363364
53.595 8.349423
53.600 8.931234
53.605 9.102125
53.610 9.515389
53.615 9.653381
53.620 9.835424
53.625 9.837452
53.630 9.781353
53.635 9.280569
53.640 9.046808
53.645 8.469913
53.650 8.382815
53.655 8.350616
53.660 8.266668
53.665 8.686804
53.670 9.506098
53.675 9.670434
53.680 9.727417
53.685 9.680898
53.690 9.567348
53.695 8.996109
53.700 8.562596
53.705 8.283875
53.710 8.399766
53.715 8.407294
53.720 8.701234
53.725 8.436935
53.730 8.760595
53.735 9.128469
53.740 9.074173
53.745 9.268121
53.750 9.301164
53.755 9.206278
53.760 9.990473
53.765 10.05476
53.770 9.980776
53.775 9.769342
53.780 10.006534
53.785 9.904001
53.790 9.84429
53.795 9.277426
53.800 8.580794
53.805 8.814394
53.810 8.916931
53.815 8.827709
53.820 9.204619
53.825 9.118057
53.830 9.225758
53.835 9.059979
53.840 8.572083
53.845 8.573667
53.850 8.579388
53.855 8.427281
53.860 8.874227
53.865 9.029903
53.870 9.415809
53.875 9.586254
53.880 9.499929
53.885 9.135868
53.890 9.276454
53.895 9.352281
53.900 9.568033
53.905 9.652762
53.910 9.405738
53.915 9.391661
53.920 9.577872
53.925 9.395367
53.930 9.398412
53.935 8.675927
53.940 8.254789
53.945 8.553629
53.950 8.60114
53.955 8.341204
53.960 8.451583
53.965 8.718931
53.970 9.207249
53.975 9.559971
53.980 9.410144
53.985 9.774188
53.990 10.132854
53.995 10.018037
54.000 9.850878
54.005 9.846225
54.010 9.951791
54.015 10.057096
54.020 9.659935
54.025 9.946691
54.030 10.162601
54.035 10.158433
54.040 10.258261
54.045 10.573153
54.050 10.395694
54.055 10.357205
54.060 9.769198
54.065 9.858777
54.070 9.979179
54.075 9.674652
54.080 9.350183
54.085 9.164185
54.090 8.991575
54.095 8.760284
54.100 8.348784
54.105 8.56624
54.110 8.597869
54.115 8.544671
54.120 8.896465
54.125 9.073547
54.130 9.246169
54.135 9.513923
54.140 9.13989
54.145 9.031961
54.150 8.913108
54.155 9.343891
54.160 9.779975
54.165 9.765086
54.170 9.834063
54.175 9.768627
54.180 10.099319
54.185 9.981352
54.190 9.483018
54.195 9.601121
54.200 9.707915
54.205 9.761576
54.210 10.047758
54.215 10.371605
54.220 10.751392
54.225 10.738379
54.230 10.358997
54.235 10.496222
54.240 9.944106
54.245 9.785998
54.250 9.4915
54.255 9.369286
54.260 9.099853
54.265 8.994676
54.270 9.157928
54.275 9.969087
54.280 9.822895
54.285 10.096237
54.290 10.240868
54.295 10.975938
54.300 11.657248
54.305 11.688979
54.310 11.334714
54.315 11.43289
54.320 10.816333
54.325 10.641953
54.330 9.842802
54.335 9.26041
54.340 9.036674
54.345 8.821095
54.350 9.113513
54.355 9.350193
54.360 9.421694
54.365 9.087837
54.370 9.127461
54.375 9.22399
54.380 9.791431
54.385 9.605769
54.390 9.797877
54.395 9.855076
54.400 9.847974
54.405 9.402677
54.410 9.458714
54.415 8.782673
54.420 8.843332
54.425 8.781549
54.430 9.128819
54.435 9.476372
54.440 9.809955
54.445 9.655752
54.450 10.049129
54.455 9.802053
54.460 9.49879
54.465 9.381302
54.470 9.184764
54.475 9.045936
54.480 9.151595
54.485 9.038722
54.490 9.230698
54.495 9.290776
54.500 9.556259
54.505 9.557984
54.510 9.416638
54.515 9.202051
54.520 9.017432
54.525 9.206037
54.530 9.349624
54.535 9.420125
54.540 9.177287
54.545 9.627214
54.550 9.954299
54.555 9.638329
54.560 9.626965
54.565 9.788327
54.570 9.656666
54.575 10.062325
54.580 9.709291
54.585 10.092283
54.590 10.475074
54.595 10.160251
54.600 9.752537
54.605 10.158499
54.610 10.274341
54.615 10.684093
54.620 10.501254
54.625 10.52933
54.630 10.669732
54.635 10.642839
54.640 10.780122
54.645 10.790943
54.650 10.656944
54.655 10.560938
54.660 10.224783
54.665 10.595899
54.670 10.861629
54.675 10.663898
54.680 10.461391
54.685 10.303413
54.690 10.444592
54.695 10.404958
54.700 9.998314
54.705 9.67828
54.710 9.609745
54.715 9.481171
54.720 9.545773
54.725 9.496863
54.730 9.633327
54.735 9.494404
54.740 9.105182
54.745 8.947478
54.750 9.101697
54.755 9.374784
54.760 9.615652
54.765 9.903366
54.770 10.194724
54.775 10.580112
54.780 10.959638
54.785 10.580667
54.790 10.196787
54.795 10.20106
54.800 10.127743
54.805 10.402747
54.810 10.349342
54.815 10.138005
54.820 10.654071
54.825 10.613174
54.830 10.511836
54.835 9.960095
54.840 9.638605
54.845 9.773756
54.850 10.272288
54.855 10.511378
54.860 10.430654
54.865 10.712669
54.870 11.328983
54.875 11.689649
54.880 11.756605
54.885 11.093443
54.890 10.814642
54.895 10.61141
54.900 10.595428
54.905 10.385706
54.910 10.118391
54.915 9.84719
54.920 10.231519
54.925 10.576714
54.930 10.944826
54.935 10.96393
54.940 10.80991
54.945 10.901122
54.950 11.086647
54.955 10.515592
54.960 10.407301
54.965 9.813624
54.970 9.544049
54.975 9.78656
54.980 9.414153
54.985 9.762395
54.990 10.030769
54.995 9.910676
55.000 9.910036
55.005 10.111284
55.010 10.206164
55.015 10.424239
55.020 9.831676
55.025 9.692114
55.030 9.710852
55.035 9.615458
55.040 9.417748
55.045 9.520955
55.050 9.17287
55.055 9.228639
55.060 9.226079
55.065 9.0965
55.070 9.492009
55.075 9.235049
55.080 9.067695
55.085 9.124492
55.090 9.670176
55.095 10.652256
55.100 11.025329
55.105 11.144361
55.110 11.315728
55.115 11.529309
55.120 11.792412
55.125 11.275632
55.130 11.49929
55.135 11.672628
55.140 11.888492
55.145 11.941287
55.150 11.780592
55.155 11.93018
55.160 11.90536
55.165 11.390936
55.170 11.269145
55.175 10.880038
55.180 11.247975
55.185 11.28281
55.190 11.216275
55.195 11.350132
55.200 11.212638
55.205 11.053186
55.210 10.947976
55.215 10.748193
55.220 10.534111
55.225 10.669599
55.230 10.233244
55.235 10.456798
55.240 11.153394
55.245 11.760773
55.250 11.872584
55.255 12.135369
55.260 12.205769
55.265 12.771585
55.270 12.569225
55.275 11.951571
55.280 11.605559
55.285 11.567109
55.290 11.173862
55.295 10.739488
55.300 10.285041
55.305 10.416389
55.310 10.414604
55.315 10.081061
55.320 10.427168
55.325 10.729156
55.330 10.912593
55.335 10.771421
55.340 10.66197
55.345 11.054099
55.350 11.363176
55.355 11.073459
55.360 11.284465
55.365 11.302451
55.370 11.702076
55.375 11.294347
55.380 10.764473
55.385 10.709821
55.390 10.890028
55.395 10.661817
55.400 10.514152
55.405 10.383998
55.410 10.845425
55.415 10.774146
55.420 10.837131
55.425 11.487232
55.430 11.694944
55.435 11.210838
55.440 11.176926
55.445 11.465705
55.450 11.49985
55.455 11.065825
55.460 11.018934
55.465 11.095289
55.470 11.518949
55.475 10.996335
55.480 10.735687
55.485 10.903053
55.490 10.995154
55.495 10.661554
55.500 10.870269
55.505 11.152165
55.510 11.552177
55.515 11.718496
55.520 11.584394
55.525 11.660879
55.530 11.394632
55.535 11.286321
55.540 11.04196
55.545 10.456355
55.550 10.65664
55.555 10.599481
55.560 10.572217
55.565 10.579318
55.570 10.695436
55.575 10.996534
55.580 11.19957
55.585 11.627733
55.590 11.465969
55.595 11.375672
55.600 11.403947
55.605 11.030773
55.610 11.145928
55.615 10.876162
55.620 10.568824
55.625 11.170783
55.630 11.184165
55.635 11.175097
55.640 11.328402
55.645 11.509527
55.650 11.903552
55.655 11.842712
55.660 11.390915
55.665 11.392676
55.670 11.293775
55.675 11.054628
55.680 10.608245
55.685 10.656839
55.690 10.661139
55.695 10.392231
55.700 10.364466
55.705 11.100506
55.710 11.28174
55.715 11.468609
55.720 11.352835
55.725 11.526709
55.730 11.838249
55.735 12.007981
55.740 11.484105
55.745 11.958709
55.750 12.054039
55.755 12.079695
55.760 12.324975
55.765 12.185811
55.770 11.837127
55.775 11.786396
55.780 11.239854
55.785 11.415994
55.790 11.453598
55.795 11.096671
55.800 11.371577
55.805 11.457998
55.810 11.639842
55.815 11.711267
55.820 11.257113
55.825 11.39629
55.830 12.227376
55.835 11.974685
55.840 12.013909
55.845 12.209042
55.850 12.534602
55.855 12.783709
55.860 12.672475
55.865 12.30672
55.870 12.535241
55.875 12.863543
55.880 12.748105
55.885 12.488318
55.890 12.573092
55.895 12.395141
55.900 12.550975
55.905 12.7541
55.910 12.429515
55.915 12.35872
55.920 12.459449
55.925 12.267673
55.930 12.626627
55.935 12.096504
55.940 12.056107
55.945 12.891787
55.950 12.73726
55.955 12.27902
55.960 11.791179
55.965 11.62157
55.970 11.869859
55.975 10.98483
55.980 10.355574
55.985 10.667678
55.990 10.471743
55.995 10.0443
56.000 10.042037
56.005 10.569707
56.010 10.947312
56.015 10.932931
56.020 11.307229
56.025 11.682355
56.030 11.829999
56.035 11.421251
56.040 11.050053
56.045 11.483628
56.050 11.551198
56.055 11.745371
56.060 12.297188
56.065 12.458888
56.070 12.302619
56.075 12.1152
56.080 11.88297
56.085 11.777826
56.090 11.22354
56.095 11.037287
56.100 11.228335
56.105 11.323303
56.110 11.2175
56.115 10.919384
56.120 11.459609
56.125 11.806171
56.130 11.813546
56.135 11.903008
56.140 11.662148
56.145 11.587883
56.150 11.895288
56.155 11.154297
56.160 10.925825
56.165 11.134465
56.170 11.488858
56.175 11.833945
56.180 11.706478
56.185 11.309836
56.190 11.247621
56.195 11.657904
56.200 11.376315
56.205 11.123722
56.210 11.118888
56.215 11.226565
56.220 11.920364
56.225 12.292838
56.230 12.117812
56.235 12.448592
56.240 12.599286
56.245 13.219414
56.250 13.543077
56.255 13.50904
56.260 13.460061
56.265 13.107417
56.270 12.785919
56.275 12.586358
56.280 11.971461
56.285 11.959332
56.290 11.888733
56.295 12.154799
56.300 12.820001
56.305 13.019586
56.310 13.3834
56.315 13.520987
56.320 13.694522
56.325 13.690684
56.330 13.201545
56.335 12.91801
56.340 12.941808
56.345 12.445882
56.350 11.948373
56.355 11.404082
56.360 11.404194
56.365 11.606209
56.370 11.436474
56.375 11.347129
56.380 11.57579
56.385 11.684197
56.390 11.414841
56.395 10.832916
56.400 10.715699
56.405 10.461016
56.410 10.434171
56.415 10.410369
56.420 11.087825
56.425 11.752982
56.430 11.999672
56.435 12.086613
56.440 11.934848
56.445 11.73936
56.450 11.629662
56.455 10.8766
56.460 10.964292
56.465 11.224098
56.470 11.30778
56.475 11.80895
56.480 11.882811
56.485 12.156178
56.490 12.655376
56.495 12.563919
56.500 12.512414
56.505 12.630624
56.510 12.408501
56.515 12.509035
56.520 11.940948
56.525 11.383319
56.530 10.890497
56.535 10.834462
56.540 10.924968
56.545 11.347296
56.550 11.309965
56.555 11.406456
56.560 11.577909
56.565 11.911078
56.570 11.700308
56.575 11.290933
56.580 11.382936
56.585 11.36938
56.590 11.57057
56.595 11.831497
56.600 11.717876
56.605 11.971283
56.610 12.315343
56.615 12.745549
56.620 13.242854
56.625 12.916387
56.630 12.541966
56.635 12.32351
56.640 12.323143
56.645 11.922755
56.650 11.118942
56.655 10.683349
56.660 10.685543
56.665 10.923171
56.670 11.151827
56.675 11.491047
56.680 11.942147
56.685 11.825977
56.690 11.914516
56.695 12.409054
56.700 12.988392
56.705 12.845245
56.710 12.442975
56.715 12.207108
56.720 12.928395
56.725 13.538858
56.730 13.022853
56.735 12.524538
56.740 12.237194
56.745 12.286902
56.750 12.786989
56.755 12.423721
56.760 12.553377
56.765 12.782406
56.770 13.050151
56.775 13.348373
56.780 12.803009
56.785 12.067294
56.790 12.105112
56.795 11.649261
56.800 11.435099
56.805 11.491225
56.810 11.790783
56.815 12.31327
56.820 12.727768
56.825 12.771494
56.830 13.16893
56.835 13.240395
56.840 12.861685
56.845 12.924392
56.850 12.108952
56.855 11.590034
56.860 11.720115
56.865 11.487517
56.870 11.377319
56.875 11.461921
56.880 12.084491
56.885 12.50476
56.890 12.51388
56.895 12.046022
56.900 12.486315
56.905 13.121714
56.910 13.155439
56.915 12.647569
56.920 12.919986
56.925 13.112133
56.930 12.996081
56.935 12.575457
56.940 12.307247
56.945 12.656724
56.950 12.374398
56.955 12.44542
56.960 12.37906
56.965 12.552834
56.970 12.376477
56.975 12.99107
56.980 13.031122
56.985 13.539812
56.990 13.728889
56.995 14.226896
57.000 14.547021
57.005 14.612514
57.010 14.061286
57.015 14.241225
57.020 14.218521
57.025 14.147034
57.030 13.68147
57.035 13.468245
57.040 13.487121
57.045 13.304132
57.050 12.916374
57.055 12.880632
57.060 13.216082
57.065 13.550009
57.070 13.388394
57.075 13.010782
57.080 13.075466
57.085 13.17653
57.090 13.394192
57.095 13.097047
57.100 13.190139
57.105 13.4501
57.110 13.744557
57.115 13.625573
57.120 12.882648
57.125 12.151577
57.130 12.186997
57.135 12.548791
57.140 12.805982
57.145 12.901197
57.150 13.013179
57.155 13.739069
57.160 14.003188
57.165 13.935846
57.170 13.530261
57.175 13.50283
57.180 12.888493
57.185 12.54036
57.190 11.956374
57.195 11.820426
57.200 11.751028
57.205 12.000266
57.210 12.295387
57.215 12.933148
57.220 13.623093
57.225 13.907882
57.230 14.066135
57.235 13.933784
57.240 13.381045
57.245 13.147984
57.250 12.580022
57.255 12.297147
57.260 12.277748
57.265 12.491399
57.270 12.571038
57.275 12.478736
57.280 12.129354
57.285 12.468246
57.290 12.715562
57.295 12.669433
57.300 12.250016
57.305 12.106236
57.310 11.928283
57.315 12.466765
57.320 11.995302
57.325 11.668397
57.330 11.494044
57.335 11.371902
57.340 11.587306
57.345 12.104818
57.350 12.789678
57.355 12.992276
57.360 13.160915
57.365 13.462014
57.370 13.781222
57.375 14.114118
57.380 14.008183
57.385 13.515046
57.390 13.641818
57.395 13.551216
57.400 13.708806
57.405 13.13047
57.410 13.027918
57.415 13.249926
57.420 13.44006
57.425 13.441673
57.430 13.569182
57.435 13.379829
57.440 13.606302
57.445 13.540939
57.450 12.812273
57.455 11.942691
57.460 11.767174
57.465 12.046725
57.470 12.567122
57.475 12.69093
57.480 12.663893
57.485 13.03229
57.490 14.030903
57.495 14.120955
57.500 14.099716
57.505 13.80127
57.510 14.102905
57.515 13.958293
57.520 13.942863
57.525 14.164074
57.530 14.281595
57.535 14.172563
57.540 14.903992
57.545 15.03174
57.550 15.010685
57.555 14.747626
57.560 14.429157
57.565 14.461033
57.570 14.486333
57.575 13.753408
57.580 13.243941
57.585 13.163008
57.590 13.790332
57.595 13.886201
57.600 13.661154
57.605 13.476834
57.610 13.745088
57.615 14.319735
57.620 14.555882
57.625 14.429198
57.630 14.291396
57.635 14.628584
57.640 14.830857
57.645 14.516765
57.650 14.100693
57.655 14.175062
57.660 14.316115
57.665 14.212038
57.670 13.542243
57.675 13.02296
57.680 13.481125
57.685 13.710093
57.690 13.623578
57.695 13.025805
57.700 13.030072
57.705 13.048875
57.710 12.919824
57.715 12.662696
57.720 12.438336
57.725 12.456551
57.730 11.955561
57.735 12.111152
57.740 12.637149
57.745 12.363854
57.750 12.025465
57.755 12.258057
57.760 12.410176
57.765 13.175987
57.770 13.395807
57.775 13.728611
57.780 14.017118
57.785 14.185017
57.790 14.282476
57.795 13.934169
57.800 13.639124
57.805 13.536568
57.810 13.389346
57.815 13.553715
57.820 13.423843
57.825 13.039675
57.830 13.548594
57.835 13.488077
57.840 12.891319
57.845 12.26413
57.850 12.183913
57.855 12.252699
57.860 12.253109
57.865 12.539056
57.870 13.03458
57.875 13.463887
57.880 13.608405
57.885 13.482628
57.890 13.691964
57.895 13.472437
57.900 13.219901
57.905 12.986498
57.910 12.885652
57.915 13.041974
57.920 13.11504
57.925 12.957639
57.930 13.146766
57.935 13.729492
57.940 13.840783
57.945 14.479951
57.950 15.367726
57.955 15.370913
57.960 15.25997
57.965 14.865904
57.970 14.388981
57.975 13.626451
57.980 13.336303
57.985 12.904323
57.990 12.761633
57.995 13.199768
58.000 13.078748
58.005 13.215013
58.010 14.194994
58.015 14.47972
58.020 14.124349
58.025 13.995364
58.030 13.917227
58.035 14.385159
58.040 13.948261
58.045 13.720415
58.050 13.446702
58.055 13.893722
58.060 13.977751
58.065 13.955287
58.070 14.055219
58.075 14.232843
58.080 14.050339
58.085 13.749601
58.090 14.044866
58.095 14.817072
58.100 15.043156
58.105 15.072083
58.110 14.821117
58.115 14.822627
58.120 15.269092
58.125 15.018768
58.130 15.309155
58.135 15.332838
58.140 15.825687
58.145 16.336029
58.150 15.82871
58.155 15.033738
58.160 14.405849
58.165 13.230752
58.170 12.48592
58.175 11.755115
58.180 11.772378
58.185 12.501033
58.190 12.745193
58.195 12.86951
58.200 13.392673
58.205 13.616609
58.210 13.43339
58.215 13.294936
58.220 12.911637
58.225 12.771631
58.230 12.603721
58.235 12.59992
58.240 12.519732
58.245 12.560732
58.250 12.765491
58.255 13.012094
58.260 13.032616
58.265 12.832966
58.270 12.832338
58.275 13.037647
58.280 13.244178
58.285 13.043436
58.290 12.794778
58.295 13.064085
58.300 13.11043
58.305 13.103877
58.310 12.956355
58.315 13.383058
58.320 13.716998
58.325 13.863979
58.330 13.936391
58.335 14.599543
58.340 15.142088
58.345 15.252663
58.350 14.285181
58.355 14.121279
58.360 14.092475
58.365 13.72902
58.370 13.1011
58.375 12.893771
58.380 12.954824
58.385 13.380259
58.390 13.510158
58.395 13.79301
58.400 13.985161
58.405 14.326372
58.410 14.691182
58.415 15.476933
58.420 15.404889
58.425 15.48713
58.430 15.48913
58.435 15.791019
58.440 15.582427
58.445 14.87033
58.450 14.746099
58.455 14.789926
58.460 14.861479
58.465 15.040749
58.470 14.79407
58.475 14.675257
58.480 15.122682
58.485 15.269615
58.490 15.115637
58.495 14.627006
58.500 14.360354
58.505 14.511142
58.510 14.559301
58.515 14.542469
58.520 13.863688
58.525 14.00908
58.530 14.573092
