!@!!GADDS PLOTSO FILE: Chi integration type
!@!!Title/SampleName: map-12e
!@!!Comment: ?
!@!!User: Bruker Instrument Administrator
!@!!Site: University of Illinois Chicago
!@!!Frame: map-12e_01_000.gfrm
!@!!Wavelengths    1.54184   1.54056   1.54439
!@!!Frame angles: 2Theta: 63.000 Omega: 50.000 Phi: 0.000 Chi: 90.000
!@!!Integration range: 2Theta: 53.000 to 73.000  Gamma: -105.000 to -75.000
!@!!Integration method: bin normalized
!@!N
!@!SS
!@!M
!@!L 0.0 0.0 0.0 0.0
!@!XDegrees
!@!YCounts
53.000 3.385013
53.005 3.372496
53.010 3.381464
53.015 3.642241
53.020 3.958487
53.025 4.002378
53.030 4.298551
53.035 4.447171
53.040 4.420526
53.045 4.336133
53.050 3.945613
53.055 3.821478
53.060 3.739599
53.065 3.52208
53.070 3.388319
53.075 3.255016
53.080 3.004143
53.085 2.886969
53.090 2.868212
53.095 2.90796
53.100 2.952574
53.105 2.976569
53.110 3.074939
53.115 3.430655
53.120 3.882539
53.125 4.044174
53.130 4.203924
53.135 4.577586
53.140 4.869006
53.145 5.095845
53.150 4.877764
53.155 4.348911
53.160 4.255048
53.165 3.846036
53.170 3.365116
53.175 3.29249
53.180 3.162203
53.185 2.993951
53.190 3.222236
53.195 3.385395
53.200 3.46468
53.205 3.31725
53.210 3.287673
53.215 3.923788
53.220 4.197627
53.225 4.30902
53.230 4.179972
53.235 4.202261
53.240 4.412431
53.245 4.002887
53.250 3.64187
53.255 3.667287
53.260 3.758196
53.265 4.116855
53.270 4.189978
53.275 4.188483
53.280 4.453209
53.285 4.199065
53.290 4.07712
53.295 3.735242
53.300 3.431656
53.305 3.372006
53.310 3.426291
53.315 3.53585
53.320 3.528922
53.325 3.40959
53.330 3.455911
53.335 3.726148
53.340 3.708381
53.345 3.409914
53.350 3.450179
53.355 3.5991
53.360 3.780048
53.365 3.561577
53.370 3.539573
53.375 3.954185
53.380 4.013177
53.385 3.885345
53.390 3.837241
53.395 3.755993
53.400 3.825752
53.405 3.662702
53.410 3.399852
53.415 3.506347
53.420 3.343002
53.425 3.332113
53.430 3.603518
53.435 3.778311
53.440 3.67955
53.445 3.52804
53.450 3.640727
53.455 3.70835
53.460 3.868614
53.465 3.701439
53.470 3.900119
53.475 4.092763
53.480 4.224194
53.485 4.062254
53.490 4.393411
53.495 4.148523
53.500 4.062862
53.505 3.754835
53.510 3.702811
53.515 3.847937
53.520 3.822259
53.525 3.657636
53.530 3.747441
53.535 3.806124
53.540 3.766784
53.545 3.509432
53.550 3.24196
53.555 3.031796
53.560 3.049291
53.565 2.852946
53.570 2.979208
53.575 3.085479
53.580 3.224122
53.585 3.3421
53.590 3.518314
53.595 3.316958
53.600 3.406722
53.605 3.446317
53.610 3.503726
53.615 3.587427
53.620 3.937088
53.625 4.500185
53.630 5.024983
53.635 4.948359
53.640 4.940784
53.645 4.953315
53.650 4.878424
53.655 4.505469
53.660 3.894747
53.665 3.800328
53.670 3.88307
53.675 4.130026
53.680 3.832477
53.685 3.793589
53.690 3.888018
53.695 4.340324
53.700 4.444855
53.705 4.387734
53.710 4.167527
53.715 4.340026
53.720 4.632454
53.725 4.541811
53.730 4.2486
53.735 4.226883
53.740 4.321223
53.745 4.570267
53.750 4.462899
53.755 4.163198
53.760 4.15661
53.765 4.31554
53.770 4.318806
53.775 4.204648
53.780 3.99387
53.785 4.006805
53.790 4.067977
53.795 3.703611
53.800 3.76719
53.805 3.592836
53.810 3.631428
53.815 3.666094
53.820 3.875313
53.825 3.914163
53.830 3.908791
53.835 3.893111
53.840 4.023575
53.845 4.108924
53.850 4.256706
53.855 4.154316
53.860 4.193342
53.865 4.336879
53.870 3.909623
53.875 3.57022
53.880 3.367899
53.885 3.400839
53.890 3.173196
53.895 2.989605
53.900 3.318394
53.905 3.790574
53.910 4.030076
53.915 3.741962
53.920 3.624659
53.925 4.018599
53.930 4.092027
53.935 3.597848
53.940 3.421343
53.945 3.501117
53.950 3.593406
53.955 3.54329
53.960 3.708922
53.965 3.91527
53.970 3.890146
53.975 3.994341
53.980 4.026926
53.985 4.226766
53.990 4.34225
53.995 3.841136
54.000 3.645083
54.005 3.88029
54.010 4.014515
54.015 3.935996
54.020 3.995836
54.025 4.01049
54.030 4.150335
54.035 4.25631
54.040 4.369088
54.045 4.265345
54.050 4.415926
54.055 4.542644
54.060 4.4993
54.065 4.399695
54.070 4.044646
54.075 3.617144
54.080 3.556425
54.085 3.099863
54.090 2.832435
54.095 2.746899
54.100 2.762414
54.105 2.894782
54.110 3.021417
54.115 3.080172
54.120 3.291032
54.125 3.360684
54.130 3.586105
54.135 3.654879
54.140 3.642718
54.145 3.599895
54.150 3.374265
54.155 3.309958
54.160 3.257791
54.165 3.181419
54.170 3.109108
54.175 3.005769
54.180 3.308455
54.185 3.834646
54.190 3.757739
54.195 3.634664
54.200 3.708474
54.205 4.095891
54.210 4.259505
54.215 3.949744
54.220 3.682606
54.225 3.676266
54.230 3.793236
54.235 3.712029
54.240 3.288836
54.245 3.201556
54.250 3.141983
54.255 2.987777
54.260 3.127897
54.265 2.899358
54.270 3.137548
54.275 3.451924
54.280 3.657412
54.285 3.673712
54.290 3.922829
54.295 3.819494
54.300 3.933117
54.305 3.62098
54.310 3.369863
54.315 3.253325
54.320 3.173408
54.325 3.050911
54.330 2.990999
54.335 3.100956
54.340 3.218739
54.345 3.535482
54.350 3.892624
54.355 4.37227
54.360 4.32265
54.365 4.021236
54.370 4.198423
54.375 4.029382
54.380 3.850745
54.385 3.521038
54.390 3.321291
54.395 3.564779
54.400 3.755122
54.405 3.527389
54.410 3.711697
54.415 3.567393
54.420 3.542237
54.425 3.500946
54.430 3.667998
54.435 3.714694
54.440 3.644852
54.445 3.440308
54.450 3.340608
54.455 3.613925
54.460 3.899064
54.465 3.834832
54.470 3.744557
54.475 3.577161
54.480 3.490851
54.485 3.545472
54.490 3.386878
54.495 3.035644
54.500 2.843135
54.505 2.82329
54.510 3.201713
54.515 3.531425
54.520 3.788342
54.525 3.866328
54.530 3.872254
54.535 4.219856
54.540 4.246245
54.545 4.415387
54.550 4.261361
54.555 3.972239
54.560 3.871765
54.565 3.692835
54.570 3.34983
54.575 3.583947
54.580 3.29366
54.585 3.430453
54.590 3.412699
54.595 3.404632
54.600 3.541224
54.605 3.587209
54.610 3.498732
54.615 3.626083
54.620 3.684174
54.625 3.785495
54.630 3.809218
54.635 3.903051
54.640 3.928919
54.645 3.844444
54.650 3.829354
54.655 3.686242
54.660 3.506468
54.665 3.427766
54.670 3.430233
54.675 3.272491
54.680 3.17502
54.685 2.962138
54.690 3.14515
54.695 3.351029
54.700 3.442366
54.705 3.474722
54.710 3.551542
54.715 3.546306
54.720 3.566613
54.725 3.646495
54.730 3.652574
54.735 3.539562
54.740 3.665859
54.745 3.63165
54.750 3.534312
54.755 3.73913
54.760 3.655761
54.765 3.537066
54.770 3.772803
54.775 3.658993
54.780 4.110068
54.785 4.23313
54.790 4.091531
54.795 4.031378
54.800 4.212867
54.805 4.026874
54.810 3.887342
54.815 3.655243
54.820 3.757957
54.825 3.78976
54.830 3.902498
54.835 3.741566
54.840 3.696325
54.845 3.726417
54.850 3.661406
54.855 3.358316
54.860 3.35856
54.865 3.415527
54.870 3.679529
54.875 3.741012
54.880 3.72646
54.885 3.917585
54.890 4.178415
54.895 3.956649
54.900 3.432961
54.905 3.32326
54.910 3.509397
54.915 3.799295
54.920 3.714574
54.925 3.534023
54.930 3.969184
54.935 4.422904
54.940 4.199998
54.945 4.158859
54.950 4.026904
54.955 3.934017
54.960 3.875298
54.965 3.577742
54.970 3.408701
54.975 3.518319
54.980 3.16734
54.985 3.05168
54.990 3.103527
54.995 3.374922
55.000 3.362657
55.005 3.331317
55.010 3.30506
55.015 3.453229
55.020 3.653418
55.025 3.96919
55.030 4.080507
55.035 4.331454
55.040 4.330367
55.045 4.240838
55.050 4.33319
55.055 4.025785
55.060 3.457446
55.065 3.158842
55.070 3.199683
55.075 3.499297
55.080 3.706002
55.085 3.408647
55.090 3.457048
55.095 3.876455
55.100 3.794956
55.105 3.976402
55.110 3.687925
55.115 3.519276
55.120 3.550266
55.125 3.535343
55.130 3.622422
55.135 3.678071
55.140 3.643241
55.145 3.755602
55.150 4.042051
55.155 3.977183
55.160 4.271482
55.165 4.015395
55.170 3.842645
55.175 3.561591
55.180 3.422955
55.185 3.541512
55.190 3.763797
55.195 3.336222
55.200 3.353931
55.205 3.51448
55.210 3.82395
55.215 4.037949
55.220 3.942612
55.225 3.898308
55.230 4.043775
55.235 4.056791
55.240 3.957597
55.245 3.964741
55.250 3.792693
55.255 3.619921
55.260 3.737951
55.265 3.872194
55.270 3.824078
55.275 3.916121
55.280 3.8818
55.285 4.068373
55.290 4.301278
55.295 4.066771
55.300 4.051132
55.305 4.043074
55.310 3.913518
55.315 3.975891
55.320 3.92524
55.325 3.611581
55.330 3.752275
55.335 3.827745
55.340 3.786503
55.345 3.66242
55.350 3.497484
55.355 3.512908
55.360 3.599452
55.365 3.505956
55.370 3.57449
55.375 3.68451
55.380 3.890625
55.385 4.204023
55.390 4.514534
55.395 4.78582
55.400 4.682122
55.405 4.770931
55.410 4.72444
55.415 4.543415
55.420 4.229568
55.425 4.009404
55.430 3.853229
55.435 4.020395
55.440 3.791686
55.445 3.863069
55.450 3.80532
55.455 3.66974
55.460 3.426352
55.465 3.27069
55.470 3.24553
55.475 3.22172
55.480 3.09002
55.485 3.129947
55.490 3.298397
55.495 3.865684
55.500 3.742132
55.505 3.714844
55.510 4.043582
55.515 4.194122
55.520 4.090373
55.525 4.132334
55.530 4.196851
55.535 4.657604
55.540 4.645716
55.545 4.419373
55.550 4.505075
55.555 4.779841
55.560 4.693363
55.565 4.53744
55.570 4.558033
55.575 4.55402
55.580 4.484647
55.585 4.444372
55.590 4.496531
55.595 4.20576
55.600 3.897038
55.605 3.688951
55.610 3.726208
55.615 3.845338
55.620 3.746056
55.625 3.599648
55.630 3.459525
55.635 3.177615
55.640 3.051559
55.645 3.081276
55.650 3.021086
55.655 3.094751
55.660 2.9891
55.665 3.043587
55.670 3.392403
55.675 3.516056
55.680 3.430157
55.685 3.493634
55.690 3.471084
55.695 3.427861
55.700 3.424262
55.705 3.381844
55.710 3.236999
55.715 3.664412
55.720 3.581682
55.725 3.700133
55.730 4.059284
55.735 4.293545
55.740 4.295045
55.745 4.305464
55.750 4.023612
55.755 4.193696
55.760 4.033679
55.765 4.003373
55.770 4.114239
55.775 3.837987
55.780 3.927716
55.785 4.193533
55.790 4.273251
55.795 4.272274
55.800 4.113733
55.805 4.303686
55.810 4.424718
55.815 4.154252
55.820 3.746344
55.825 3.810562
55.830 4.071098
55.835 4.240443
55.840 4.076738
55.845 4.33324
55.850 4.670408
55.855 4.60445
55.860 4.461756
55.865 4.290401
55.870 4.103623
55.875 4.184081
55.880 3.969004
55.885 3.781452
55.890 3.717372
55.895 3.730291
55.900 3.647031
55.905 3.36466
55.910 3.148085
55.915 3.450523
55.920 3.743308
55.925 4.00665
55.930 3.930128
55.935 3.864713
55.940 4.073473
55.945 3.997098
55.950 3.725488
55.955 3.448301
55.960 3.225997
55.965 3.149131
55.970 3.529214
55.975 3.512229
55.980 3.435743
55.985 3.40087
55.990 3.46596
55.995 3.566804
56.000 3.748567
56.005 3.357402
56.010 3.405194
56.015 3.468276
56.020 3.430451
56.025 3.517345
56.030 3.546658
56.035 3.511788
56.040 3.498753
56.045 3.379226
56.050 3.667853
56.055 4.021889
56.060 3.621378
56.065 3.544816
56.070 3.475274
56.075 3.697761
56.080 3.70563
56.085 3.349677
56.090 3.245182
56.095 3.944101
56.100 4.05684
56.105 4.15851
56.110 4.204646
56.115 4.365873
56.120 4.495992
56.125 4.394129
56.130 4.332301
56.135 4.548081
56.140 4.506024
56.145 4.355834
56.150 4.269464
56.155 4.305199
56.160 4.306568
56.165 4.039784
56.170 4.288105
56.175 4.419142
56.180 4.58015
56.185 4.456813
56.190 4.182849
56.195 4.06495
56.200 4.066439
56.205 3.671212
56.210 3.628628
56.215 3.507903
56.220 3.531266
56.225 3.931337
56.230 4.027941
56.235 3.925204
56.240 4.087721
56.245 3.984532
56.250 3.873679
56.255 3.986953
56.260 3.748235
56.265 3.758537
56.270 3.893373
56.275 3.582205
56.280 3.809246
56.285 4.147386
56.290 4.100307
56.295 4.178889
56.300 4.133519
56.305 4.193745
56.310 4.341444
56.315 4.089735
56.320 3.807514
56.325 3.919089
56.330 3.90215
56.335 3.788817
56.340 3.774563
56.345 3.680667
56.350 3.740366
56.355 3.870512
56.360 3.687024
56.365 3.937634
56.370 3.974204
56.375 3.819571
56.380 3.645917
56.385 3.484856
56.390 3.347224
56.395 3.337395
56.400 3.24986
56.405 3.208942
56.410 3.202274
56.415 3.753423
56.420 3.905828
56.425 3.903913
56.430 4.135621
56.435 3.729073
56.440 3.74703
56.445 3.731586
56.450 3.65064
56.455 4.098221
56.460 4.191536
56.465 3.957452
56.470 3.973896
56.475 4.219254
56.480 4.260272
56.485 4.152849
56.490 3.851361
56.495 3.855168
56.500 4.045497
56.505 4.301799
56.510 4.351143
56.515 4.64483
56.520 4.599929
56.525 4.333376
56.530 4.174088
56.535 4.058261
56.540 4.039378
56.545 3.932237
56.550 3.566749
56.555 3.433654
56.560 3.401044
56.565 3.657621
56.570 3.858707
56.575 3.763651
56.580 3.755899
56.585 3.969779
56.590 4.221173
56.595 4.594274
56.600 4.232199
56.605 4.170111
56.610 4.201641
56.615 4.300527
56.620 4.131542
56.625 4.002532
56.630 3.797824
56.635 3.964717
56.640 3.851689
56.645 3.853914
56.650 3.782041
56.655 3.788858
56.660 4.249131
56.665 4.44252
56.670 4.473762
56.675 4.434918
56.680 4.365909
56.685 4.360338
56.690 4.301341
56.695 3.570182
56.700 3.37344
56.705 3.303109
56.710 3.425106
56.715 3.444133
56.720 3.379453
56.725 3.475607
56.730 3.709601
56.735 3.783273
56.740 3.767441
56.745 3.78444
56.750 3.802854
56.755 3.797763
56.760 3.66072
56.765 3.769367
56.770 3.83634
56.775 3.658834
56.780 3.749343
56.785 3.926617
56.790 4.491599
56.795 4.946337
56.800 5.037218
56.805 4.906087
56.810 5.065323
56.815 4.779483
56.820 4.421758
56.825 4.095685
56.830 3.800392
56.835 3.749309
56.840 3.73444
56.845 3.727883
56.850 3.805236
56.855 3.868283
56.860 3.588389
56.865 3.354943
56.870 3.126756
56.875 3.182563
56.880 3.31063
56.885 3.201198
56.890 3.292672
56.895 3.510619
56.900 3.727967
56.905 4.003885
56.910 4.303945
56.915 4.184657
56.920 4.343374
56.925 4.295972
56.930 4.16786
56.935 4.567766
56.940 5.080193
56.945 5.053847
56.950 5.196895
56.955 5.008976
56.960 5.130428
56.965 5.373717
56.970 5.172401
56.975 5.034686
56.980 5.159471
56.985 5.396724
56.990 5.737133
56.995 5.482065
57.000 5.378682
57.005 5.116157
57.010 4.804077
57.015 4.559414
57.020 4.36741
57.025 4.400438
57.030 4.568966
57.035 4.453471
57.040 4.416635
57.045 4.349776
57.050 3.98631
57.055 3.781207
57.060 3.55436
57.065 3.416356
57.070 3.42438
57.075 3.647801
57.080 3.700544
57.085 3.858704
57.090 4.157957
57.095 4.088245
57.100 4.12646
57.105 4.196597
57.110 4.199262
57.115 4.307381
57.120 4.320617
57.125 4.082146
57.130 4.299437
57.135 4.284034
57.140 3.991108
57.145 3.650397
57.150 3.638805
57.155 3.523559
57.160 3.593291
57.165 3.296143
57.170 3.440424
57.175 3.665706
57.180 3.97388
57.185 4.049275
57.190 4.18869
57.195 4.119178
57.200 4.249955
57.205 3.948032
57.210 3.900227
57.215 3.825546
57.220 3.595466
57.225 3.578974
57.230 3.880844
57.235 4.018581
57.240 4.309098
57.245 3.823377
57.250 3.635549
57.255 3.858121
57.260 3.93035
57.265 3.605323
57.270 3.550914
57.275 3.474362
57.280 3.867383
57.285 3.863602
57.290 3.93392
57.295 3.902913
57.300 4.125121
57.305 4.334783
57.310 4.386963
57.315 4.757761
57.320 4.791761
57.325 4.806725
57.330 4.870049
57.335 4.677456
57.340 4.572196
57.345 4.67416
57.350 4.45616
57.355 4.444094
57.360 4.249202
57.365 4.198957
57.370 4.429811
57.375 4.552095
57.380 4.747944
57.385 4.71726
57.390 4.908314
57.395 5.078066
57.400 5.150428
57.405 5.110537
57.410 5.056527
57.415 4.675847
57.420 4.390328
57.425 4.632379
57.430 4.704598
57.435 4.660005
57.440 4.651539
57.445 5.038087
57.450 5.383015
57.455 5.458907
57.460 5.39074
57.465 5.270879
57.470 5.614684
57.475 5.300147
57.480 4.630611
57.485 4.456391
57.490 4.430422
57.495 4.527228
57.500 4.352826
57.505 4.09942
57.510 4.057831
57.515 4.070661
57.520 4.379836
57.525 4.458634
57.530 4.02892
57.535 4.10444
57.540 4.208814
57.545 4.589726
57.550 4.660841
57.555 4.587843
57.560 4.941241
57.565 5.194766
57.570 5.014443
57.575 4.713467
57.580 4.520068
57.585 4.465673
57.590 4.415922
57.595 4.055052
57.600 4.381216
57.605 4.705642
57.610 4.842643
57.615 5.035065
57.620 5.105629
57.625 4.969676
57.630 5.019207
57.635 4.505622
57.640 4.238184
57.645 4.235831
57.650 4.306608
57.655 4.292134
57.660 4.476711
57.665 4.391284
57.670 4.593727
57.675 4.872643
57.680 4.825455
57.685 4.711339
57.690 4.844491
57.695 4.898604
57.700 4.797216
57.705 4.812074
57.710 4.804134
57.715 4.74983
57.720 4.900528
57.725 5.054967
57.730 4.962101
57.735 5.039964
57.740 5.158773
57.745 5.363716
57.750 5.124555
57.755 4.802233
57.760 4.65383
57.765 5.07123
57.770 5.206312
57.775 4.672136
57.780 4.514539
57.785 4.927626
57.790 5.19809
57.795 4.975168
57.800 4.300441
57.805 4.395767
57.810 4.53636
57.815 4.481045
57.820 4.399944
57.825 4.288888
57.830 4.273263
57.835 4.364168
57.840 4.37508
57.845 4.454319
57.850 4.274132
57.855 3.991708
57.860 4.075698
57.865 4.071249
57.870 4.067826
57.875 3.928418
57.880 3.89809
57.885 4.327741
57.890 4.616888
57.895 4.635713
57.900 4.943933
57.905 4.812519
57.910 5.054265
57.915 5.137171
57.920 4.986921
57.925 4.907367
57.930 4.828483
57.935 5.023354
57.940 5.358871
57.945 5.322437
57.950 5.324506
57.955 5.067347
57.960 5.069311
57.965 5.148607
57.970 5.100618
57.975 4.903883
57.980 4.960514
57.985 5.224924
57.990 5.802162
57.995 5.797502
58.000 5.873074
58.005 5.712032
58.010 5.671679
58.015 5.61521
58.020 5.473359
58.025 5.23825
58.030 5.042408
58.035 4.730381
58.040 4.758162
58.045 4.408444
58.050 4.12745
58.055 3.896212
58.060 3.556656
58.065 3.358167
58.070 3.372277
58.075 3.503553
58.080 3.764433
58.085 3.792985
58.090 3.882634
58.095 4.446568
58.100 4.920512
58.105 5.165024
58.110 4.876098
58.115 4.806993
58.120 4.995353
58.125 4.886596
58.130 4.790267
58.135 4.495852
58.140 4.559771
58.145 4.661723
58.150 4.489889
58.155 4.352435
58.160 4.361032
58.165 4.117622
58.170 4.014415
58.175 4.081095
58.180 4.176973
58.185 4.513647
58.190 4.617516
58.195 4.784376
58.200 4.837168
58.205 4.911038
58.210 4.495839
58.215 4.430317
58.220 4.397735
58.225 4.147012
58.230 3.875678
58.235 4.040534
58.240 4.193814
58.245 4.510753
58.250 4.829185
58.255 4.843202
58.260 4.961601
58.265 5.241173
58.270 5.160608
58.275 5.048603
58.280 5.035052
58.285 5.044367
58.290 5.215558
58.295 5.450475
58.300 5.570946
58.305 5.674806
58.310 5.59343
58.315 5.269928
58.320 4.95965
58.325 4.841202
58.330 4.65165
58.335 4.414325
58.340 4.231089
58.345 4.181979
58.350 3.943996
58.355 4.19117
58.360 4.192219
58.365 4.134485
58.370 4.070903
58.375 4.228093
58.380 4.633881
58.385 5.110335
58.390 5.200374
58.395 4.971134
58.400 5.029332
58.405 5.013619
58.410 4.988133
58.415 4.711865
58.420 4.564263
58.425 4.422535
58.430 4.826369
58.435 5.13875
58.440 5.503921
58.445 5.729988
58.450 5.890231
58.455 5.876452
58.460 6.286116
58.465 6.08897
58.470 5.788319
58.475 5.466143
58.480 5.414522
58.485 5.860106
58.490 6.334199
58.495 6.199699
58.500 6.227502
58.505 6.569378
58.510 6.678868
58.515 6.333029
58.520 6.062809
58.525 5.623628
58.530 5.139977
58.535 4.77972
58.540 4.668433
58.545 4.753327
58.550 4.864511
58.555 4.520036
58.560 4.738187
58.565 5.749014
58.570 5.939398
58.575 5.74371
58.580 5.842566
58.585 6.071621
58.590 6.53437
58.595 6.460495
58.600 6.085878
58.605 6.590173
58.610 6.786692
58.615 6.876177
58.620 6.87013
58.625 6.956264
58.630 7.416142
58.635 7.653507
58.640 7.727414
58.645 8.05644
58.650 8.127293
58.655 8.152509
58.660 8.164898
58.665 7.783772
58.670 7.383917
58.675 7.384219
58.680 7.143698
58.685 7.208004
58.690 7.141731
58.695 7.170924
58.700 7.249027
58.705 7.624922
58.710 7.430377
58.715 7.454443
58.720 7.520475
58.725 7.844232
58.730 7.732279
58.735 7.755955
58.740 7.663969
58.745 7.768794
58.750 7.679298
58.755 7.343624
58.760 7.331484
58.765 6.967391
