!@!!GADDS PLOTSO FILE: Chi integration type
!@!!Title/SampleName: map-a1
!@!!Comment: ?
!@!!User: Bruker Instrument Administrator
!@!!Site: University of Illinois Chicago
!@!!Frame: map-a1_01_000.gfrm
!@!!Wavelengths    1.54184   1.54056   1.54439
!@!!Frame angles: 2Theta: 63.000 Omega: 50.000 Phi: 0.000 Chi: 90.000
!@!!Integration range: 2Theta: 53.000 to 73.000  Gamma: -105.000 to -75.000
!@!!Integration method: bin normalized
!@!N
!@!SS
!@!M
!@!L 0.0 0.0 0.0 0.0
!@!XDegrees
!@!YCounts
53.000 8.802554
53.005 8.769295
53.010 8.709488
53.015 8.35719
53.020 8.592241
53.025 8.913742
53.030 8.466768
53.035 8.143048
53.040 8.133408
53.045 8.586013
53.050 8.536601
53.055 8.144825
53.060 8.500444
53.065 8.917013
53.070 9.04152
53.075 8.94622
53.080 8.971012
53.085 9.589185
53.090 10.281811
53.095 10.243505
53.100 10.115347
53.105 10.351324
53.110 10.080733
53.115 9.484699
53.120 8.804701
53.125 8.034699
53.130 7.799305
53.135 7.941957
53.140 8.066325
53.145 8.417683
53.150 8.880478
53.155 9.793316
53.160 10.265406
53.165 10.402624
53.170 10.48866
53.175 10.164259
53.180 9.871211
53.185 9.440725
53.190 8.640346
53.195 8.530252
53.200 8.618514
53.205 8.67649
53.210 9.222555
53.215 9.541613
53.220 9.609983
53.225 9.843513
53.230 9.550913
53.235 9.332298
53.240 9.196236
53.245 9.032869
53.250 9.233288
53.255 9.544531
53.260 9.339275
53.265 9.443025
53.270 9.535152
53.275 9.791698
53.280 9.454452
53.285 8.979536
53.290 9.010634
53.295 9.248629
53.300 9.219339
53.305 8.995893
53.310 9.074621
53.315 9.314901
53.320 9.256386
53.325 9.15137
53.330 9.245645
53.335 9.739318
53.340 10.087013
53.345 9.686012
53.350 10.136696
53.355 10.351233
53.360 10.39992
53.365 10.316177
53.370 9.90988
53.375 9.664208
53.380 9.836228
53.385 9.789319
53.390 9.834515
53.395 9.640876
53.400 9.174226
53.405 9.393745
53.410 9.550025
53.415 9.58761
53.420 9.538877
53.425 9.277141
53.430 9.559443
53.435 9.529178
53.440 9.658958
53.445 9.631004
53.450 9.174872
53.455 8.834538
53.460 8.782988
53.465 9.082708
53.470 9.323657
53.475 9.157351
53.480 9.233371
53.485 9.413981
53.490 9.629859
53.495 9.915138
53.500 10.060439
53.505 10.00321
53.510 9.930247
53.515 10.252748
53.520 10.384317
53.525 10.083471
53.530 9.781068
53.535 9.446921
53.540 9.505071
53.545 9.568943
53.550 9.13161
53.555 9.134785
53.560 9.209676
53.565 9.124139
53.570 9.462787
53.575 9.398646
53.580 9.48722
53.585 9.607975
53.590 9.855801
53.595 10.297682
53.600 10.66268
53.605 10.67629
53.610 10.964526
53.615 11.143412
53.620 11.366878
53.625 11.276867
53.630 10.881317
53.635 10.725237
53.640 10.596371
53.645 10.351275
53.650 10.222095
53.655 10.05057
53.660 10.047933
53.665 10.187997
53.670 10.055264
53.675 9.9207
53.680 9.613446
53.685 9.546772
53.690 9.808267
53.695 9.668592
53.700 9.559543
53.705 9.926871
53.710 10.168874
53.715 10.436485
53.720 10.66326
53.725 10.667889
53.730 10.965846
53.735 11.039168
53.740 10.919157
53.745 10.88142
53.750 10.695914
53.755 10.665915
53.760 11.344654
53.765 11.598851
53.770 11.646664
53.775 11.707574
53.780 12.083259
53.785 12.349561
53.790 11.850961
53.795 11.491492
53.800 11.541763
53.805 11.407915
53.810 10.819049
53.815 10.04355
53.820 10.014702
53.825 10.139781
53.830 9.50732
53.835 9.054523
53.840 9.167327
53.845 9.466027
53.850 9.943004
53.855 9.876115
53.860 9.746585
53.865 10.239552
53.870 10.330999
53.875 10.155806
53.880 10.279637
53.885 10.088932
53.890 10.026093
53.895 9.795209
53.900 9.100395
53.905 9.286771
53.910 9.441746
53.915 9.355032
53.920 8.984529
53.925 9.369289
53.930 9.777146
53.935 10.099488
53.940 10.208733
53.945 10.523331
53.950 11.150748
53.955 11.44741
53.960 11.491101
53.965 11.537757
53.970 11.473407
53.975 11.563333
53.980 11.249601
53.985 11.07531
53.990 10.96192
53.995 10.565612
54.000 10.266928
54.005 10.177671
54.010 9.757426
54.015 9.615794
54.020 9.673024
54.025 9.566194
54.030 9.78405
54.035 10.022334
54.040 9.934068
54.045 10.209909
54.050 9.905881
54.055 9.961352
54.060 9.882365
54.065 9.541501
54.070 9.787276
54.075 9.785332
54.080 9.796217
54.085 9.90426
54.090 10.078135
54.095 10.157138
54.100 10.714847
54.105 10.815239
54.110 11.026876
54.115 10.755293
54.120 10.625288
54.125 10.783413
54.130 10.787351
54.135 10.710539
54.140 10.59982
54.145 10.454768
54.150 10.699717
54.155 10.510815
54.160 10.498372
54.165 10.682038
54.170 10.123688
54.175 10.047365
54.180 9.887128
54.185 9.859629
54.190 9.863964
54.195 9.704872
54.200 9.930047
54.205 10.345707
54.210 10.568484
54.215 10.86388
54.220 10.942461
54.225 10.783711
54.230 10.696652
54.235 10.668344
54.240 10.399843
54.245 10.359776
54.250 10.162083
54.255 10.406343
54.260 10.715539
54.265 10.456632
54.270 10.333899
54.275 10.670621
54.280 10.729893
54.285 10.929051
54.290 11.096261
54.295 11.545761
54.300 12.330215
54.305 12.22852
54.310 12.047868
54.315 12.153202
54.320 11.997805
54.325 12.04067
54.330 11.665621
54.335 11.03054
54.340 11.049476
54.345 11.00357
54.350 11.44186
54.355 11.552858
54.360 11.304429
54.365 11.691797
54.370 11.597888
54.375 11.437615
54.380 10.948168
54.385 10.18144
54.390 10.052444
54.395 9.989371
54.400 9.588677
54.405 9.319261
54.410 9.376216
54.415 9.475042
54.420 9.42151
54.425 9.266125
54.430 9.025023
54.435 9.033759
54.440 9.09337
54.445 9.322181
54.450 9.663051
54.455 9.688476
54.460 9.559317
54.465 9.79376
54.470 10.494529
54.475 10.665446
54.480 10.516955
54.485 10.59248
54.490 10.9397
54.495 11.38766
54.500 11.001776
54.505 10.241027
54.510 10.350707
54.515 10.509377
54.520 10.430682
54.525 10.16577
54.530 10.092172
54.535 10.490092
54.540 10.540946
54.545 10.467063
54.550 10.371734
54.555 10.30539
54.560 10.313193
54.565 10.209385
54.570 10.426409
54.575 10.787592
54.580 11.231657
54.585 11.405019
54.590 11.479683
54.595 11.112588
54.600 10.625648
54.605 10.083502
54.610 9.701319
54.615 9.327925
54.620 9.302213
54.625 9.736449
54.630 9.777997
54.635 9.927626
54.640 10.724173
54.645 11.50816
54.650 11.831375
54.655 12.005181
54.660 11.808652
54.665 11.850758
54.670 12.033203
54.675 11.06813
54.680 10.784459
54.685 10.877953
54.690 10.596491
54.695 10.932889
54.700 11.484169
54.705 11.738539
54.710 12.351867
54.715 12.348159
54.720 12.139309
54.725 11.807397
54.730 11.283896
54.735 10.689662
54.740 10.696445
54.745 10.752276
54.750 10.782826
54.755 10.961463
54.760 11.273129
54.765 11.308181
54.770 11.729398
54.775 11.422239
54.780 11.125945
54.785 10.560436
54.790 10.409689
54.795 10.419979
54.800 10.544189
54.805 10.791013
54.810 11.093859
54.815 10.969386
54.820 10.963218
54.825 11.05035
54.830 11.152578
54.835 11.341707
54.840 11.140474
54.845 10.994189
54.850 11.482682
54.855 11.977027
54.860 11.961318
54.865 11.905291
54.870 11.489347
54.875 11.276462
54.880 11.493067
54.885 10.908396
54.890 10.602873
54.895 10.547698
54.900 10.901033
54.905 11.010479
54.910 11.096745
54.915 10.883224
54.920 11.484442
54.925 11.918406
54.930 12.193417
54.935 11.922437
54.940 11.648576
54.945 11.852157
54.950 12.466137
54.955 12.302698
54.960 12.487447
54.965 12.670584
54.970 12.996058
54.975 12.932849
54.980 12.621159
54.985 12.718638
54.990 12.483984
54.995 11.836628
55.000 11.359537
55.005 11.121056
55.010 11.384821
55.015 11.391224
55.020 11.12294
55.025 11.261781
55.030 11.580021
55.035 12.243632
55.040 12.661159
55.045 12.94701
55.050 12.649295
55.055 12.391488
55.060 12.627669
55.065 12.487601
55.070 12.045654
55.075 11.878191
55.080 11.492827
55.085 11.778854
55.090 11.840485
55.095 11.738237
55.100 11.843789
55.105 12.124622
55.110 12.393377
55.115 12.725924
55.120 12.905004
55.125 13.094224
55.130 13.384329
55.135 13.841488
55.140 13.911543
55.145 13.612082
55.150 13.104277
55.155 13.060977
55.160 12.332598
55.165 11.390692
55.170 10.599509
55.175 10.220852
55.180 10.51734
55.185 10.859794
55.190 10.238934
55.195 10.730425
55.200 10.873431
55.205 11.184564
55.210 11.323841
55.215 11.193432
55.220 11.07492
55.225 11.361803
55.230 11.059884
55.235 11.157933
55.240 11.216874
55.245 11.277821
55.250 11.210362
55.255 11.160253
55.260 11.266462
55.265 11.760731
55.270 12.072345
55.275 12.126434
55.280 12.176104
55.285 12.2498
55.290 12.16166
55.295 11.937895
55.300 11.517262
55.305 11.155183
55.310 10.797668
55.315 10.846163
55.320 11.19339
55.325 11.134782
55.330 11.319082
55.335 12.050028
55.340 12.516541
55.345 12.647098
55.350 11.850893
55.355 12.137463
55.360 12.332804
55.365 11.486884
55.370 10.827415
55.375 10.304017
55.380 10.461098
55.385 10.991643
55.390 10.468432
55.395 11.221392
55.400 11.753283
55.405 11.925732
55.410 12.739125
55.415 12.844968
55.420 12.387182
55.425 12.516915
55.430 12.350593
55.435 12.451942
55.440 12.279924
55.445 11.69559
55.450 11.99598
55.455 12.527421
55.460 12.514229
55.465 12.658817
55.470 12.821507
55.475 13.113008
55.480 13.514227
55.485 12.940371
55.490 12.405718
55.495 12.049018
55.500 11.850185
55.505 11.615768
55.510 11.370861
55.515 10.944478
55.520 11.122385
55.525 11.523789
55.530 11.666506
55.535 11.610403
55.540 11.63116
55.545 11.331969
55.550 11.853775
55.555 11.784053
55.560 11.900911
55.565 12.29574
55.570 12.476877
55.575 13.154814
55.580 13.235516
55.585 12.570347
55.590 12.359965
55.595 11.674603
55.600 11.522294
55.605 11.422272
55.610 11.153936
55.615 11.016861
55.620 11.068743
55.625 11.508659
55.630 11.436776
55.635 11.39361
55.640 11.361202
55.645 11.495501
55.650 11.98116
55.655 12.537488
55.660 12.945072
55.665 13.443852
55.670 13.354195
55.675 12.932885
55.680 12.458491
55.685 12.665592
55.690 12.401023
55.695 11.896884
55.700 12.164981
55.705 12.357565
55.710 12.543797
55.715 12.678519
55.720 12.70778
55.725 12.653191
55.730 12.710726
55.735 12.997632
55.740 13.069616
55.745 13.001728
55.750 13.035251
55.755 13.163089
55.760 13.490796
55.765 13.132463
55.770 12.098615
55.775 12.092138
55.780 12.465117
55.785 12.055677
55.790 11.679611
55.795 11.186437
55.800 10.978417
55.805 11.055624
55.810 10.580703
55.815 10.20532
55.820 10.30768
55.825 10.852516
55.830 11.771644
55.835 12.537865
55.840 13.200635
55.845 13.619499
55.850 13.781119
55.855 13.752072
55.860 13.49474
55.865 12.848384
55.870 12.395967
55.875 12.179065
55.880 12.259708
55.885 12.207636
55.890 12.322379
55.895 11.823289
55.900 11.632801
55.905 11.504781
55.910 11.861035
55.915 11.797751
55.920 11.900844
55.925 11.97931
55.930 12.743789
55.935 13.424702
55.940 13.331627
55.945 13.19879
55.950 13.34335
55.955 13.252461
55.960 12.712914
55.965 12.107659
55.970 12.000152
55.975 12.002187
55.980 11.602107
55.985 11.643711
55.990 11.941582
55.995 12.576159
56.000 12.731227
56.005 12.566725
56.010 12.849482
56.015 12.950531
56.020 12.730343
56.025 12.508879
56.030 12.263152
56.035 12.225632
56.040 11.80499
56.045 11.448257
56.050 11.505171
56.055 11.873316
56.060 11.921376
56.065 12.295815
56.070 12.468787
56.075 13.255958
56.080 13.79962
56.085 13.580731
56.090 13.149856
56.095 13.02972
56.100 12.718408
56.105 12.385198
56.110 12.215427
56.115 11.702318
56.120 11.926296
56.125 12.237272
56.130 12.421906
56.135 12.519856
56.140 12.511973
56.145 12.273187
56.150 12.816847
56.155 12.719857
56.160 12.308446
56.165 11.731692
56.170 11.737227
56.175 11.428392
56.180 10.699186
56.185 10.132392
56.190 9.998938
56.195 10.383689
56.200 11.037414
56.205 10.830091
56.210 11.193003
56.215 11.631148
56.220 11.746058
56.225 12.369488
56.230 12.520509
56.235 12.8229
56.240 13.647041
56.245 13.684221
56.250 13.547001
56.255 14.368826
56.260 14.936812
56.265 14.441501
56.270 13.62735
56.275 13.043796
56.280 12.884824
56.285 13.031297
56.290 12.251153
56.295 11.384723
56.300 11.477099
56.305 12.186015
56.310 12.249903
56.315 12.738585
56.320 12.792953
56.325 13.022501
56.330 13.727165
56.335 14.169864
56.340 14.175528
56.345 14.283011
56.350 14.511567
56.355 14.709448
56.360 14.389041
56.365 14.152072
56.370 13.36346
56.375 13.103771
56.380 12.86692
56.385 12.472376
56.390 12.418594
56.395 12.577751
56.400 12.577537
56.405 12.875546
56.410 12.578668
56.415 12.831113
56.420 13.315606
56.425 13.301776
56.430 13.189688
56.435 12.974686
56.440 12.784782
56.445 13.185099
56.450 13.17195
56.455 13.117855
56.460 12.903265
56.465 12.434366
56.470 12.551244
56.475 12.663319
56.480 12.49159
56.485 12.05429
56.490 12.230659
56.495 12.646661
56.500 12.81874
56.505 13.189492
56.510 13.291339
56.515 12.762436
56.520 12.698156
56.525 12.3633
56.530 11.797666
56.535 11.766936
56.540 11.139786
56.545 11.359652
56.550 12.466687
56.555 12.490697
56.560 12.466107
56.565 12.756543
56.570 12.844771
56.575 13.35426
56.580 13.049152
56.585 12.434316
56.590 12.214213
56.595 12.166391
56.600 11.987455
56.605 11.73
56.610 11.396987
56.615 11.552238
56.620 11.95557
56.625 12.424777
56.630 12.19094
56.635 12.337523
56.640 13.194792
56.645 13.389566
56.650 13.419008
56.655 13.280624
56.660 13.31151
56.665 13.277488
56.670 13.264457
56.675 13.075048
56.680 13.030813
56.685 12.53011
56.690 12.369206
56.695 12.128469
56.700 13.118521
56.705 13.026917
56.710 13.080959
56.715 13.031142
56.720 13.628064
56.725 14.396291
56.730 15.061037
56.735 14.813612
56.740 14.897828
56.745 15.13838
56.750 15.241302
56.755 14.770282
56.760 13.640763
56.765 13.352474
56.770 13.714635
56.775 13.527188
56.780 12.906586
56.785 13.238123
56.790 13.353981
56.795 13.703956
56.800 13.408287
56.805 13.707384
56.810 14.061349
56.815 14.270588
56.820 14.244545
56.825 14.548071
56.830 14.467915
56.835 14.559365
56.840 14.285566
56.845 13.931806
56.850 13.70933
56.855 13.556415
56.860 13.582213
56.865 14.446486
56.870 14.496371
56.875 14.274196
56.880 14.878305
56.885 15.432487
56.890 15.504433
56.895 14.98394
56.900 14.555595
56.905 14.821339
56.910 14.747411
56.915 14.172467
56.920 13.318385
56.925 13.188571
56.930 13.022281
56.935 12.119389
56.940 11.680821
56.945 11.963165
56.950 12.248268
56.955 12.657081
56.960 12.904276
56.965 13.69044
56.970 14.331774
56.975 14.551867
56.980 14.200972
56.985 14.639091
56.990 14.35181
56.995 13.904545
57.000 13.473397
57.005 13.489376
57.010 14.019904
57.015 14.255658
57.020 14.130372
57.025 14.271963
57.030 14.747295
57.035 15.376756
57.040 15.272592
57.045 14.405211
57.050 14.254846
57.055 13.945693
57.060 13.587542
57.065 13.075912
57.070 12.329184
57.075 11.993179
57.080 12.274472
57.085 12.327374
57.090 12.40223
57.095 12.882023
57.100 13.395404
57.105 13.605214
57.110 13.801417
57.115 13.622688
57.120 13.890395
57.125 14.195386
57.130 13.823261
57.135 13.824748
57.140 13.75279
57.145 13.687219
57.150 13.845194
57.155 13.602742
57.160 13.708344
57.165 13.247476
57.170 12.934881
57.175 12.798613
57.180 13.286818
57.185 13.218946
57.190 13.106642
57.195 13.451419
57.200 13.897202
57.205 13.715454
57.210 13.70925
57.215 13.129326
57.220 13.046992
57.225 13.645326
57.230 13.806547
57.235 13.672555
57.240 13.972864
57.245 13.762213
57.250 14.212316
57.255 14.063302
57.260 13.41178
57.265 13.276842
57.270 13.759591
57.275 13.965687
57.280 14.356905
57.285 14.083981
57.290 14.368124
57.295 14.318744
57.300 14.445399
57.305 13.827062
57.310 13.731179
57.315 13.471448
57.320 13.231462
57.325 13.176657
57.330 13.11613
57.335 12.794034
57.340 13.470907
57.345 13.504547
57.350 14.429199
57.355 14.626839
57.360 14.574033
57.365 14.73803
57.370 14.853861
57.375 14.806947
57.380 15.084915
57.385 14.73363
57.390 15.148257
57.395 15.109172
57.400 15.668366
57.405 15.721603
57.410 15.371439
57.415 15.177674
57.420 14.765178
57.425 14.488256
57.430 14.586478
57.435 14.685459
57.440 14.573707
57.445 14.307575
57.450 14.362219
57.455 14.103219
57.460 13.880385
57.465 13.351071
57.470 13.196789
57.475 13.512471
57.480 13.2154
57.485 13.077853
57.490 13.118752
57.495 13.391843
57.500 13.886654
57.505 13.803953
57.510 13.997533
57.515 14.645747
57.520 14.932357
57.525 15.202004
57.530 15.39327
57.535 15.447644
57.540 15.125111
57.545 14.946168
57.550 14.701539
57.555 14.646126
57.560 14.594999
57.565 14.035282
57.570 13.794024
57.575 14.004886
57.580 14.115851
57.585 13.77408
57.590 13.746481
57.595 13.711674
57.600 13.917315
57.605 13.76059
57.610 13.859426
57.615 13.941756
57.620 14.234103
57.625 15.224745
57.630 16.194019
57.635 16.485683
57.640 16.122475
57.645 15.934389
57.650 15.840159
57.655 16.298321
57.660 15.341348
57.665 14.2721
57.670 14.191332
57.675 14.907194
57.680 15.194031
57.685 15.48047
57.690 15.21088
57.695 15.320432
57.700 15.570576
57.705 15.296168
57.710 14.758582
57.715 14.759988
57.720 14.563517
57.725 14.459107
57.730 14.080849
57.735 14.497706
57.740 14.862473
57.745 14.75928
57.750 14.969151
57.755 15.187948
57.760 15.473134
57.765 16.126966
57.770 15.581564
57.775 15.641632
57.780 15.501781
57.785 14.787854
57.790 14.378729
57.795 14.016042
57.800 13.72747
57.805 14.415095
57.810 14.914542
57.815 14.665639
57.820 14.408962
57.825 14.742504
57.830 15.380348
57.835 15.890258
57.840 15.191504
57.845 15.186033
57.850 15.916728
57.855 16.611412
57.860 17.025991
57.865 16.542498
57.870 15.856457
57.875 16.07205
57.880 15.635532
57.885 15.479351
57.890 15.02424
57.895 14.837786
57.900 14.674839
57.905 14.738867
57.910 14.817214
57.915 14.804231
57.920 14.691532
57.925 14.190322
57.930 13.489647
57.935 13.715849
57.940 14.153029
57.945 14.010329
57.950 14.109942
57.955 13.934096
57.960 14.132125
57.965 14.354482
57.970 14.224836
57.975 14.183831
57.980 14.626801
57.985 14.888268
57.990 14.850703
57.995 15.288203
58.000 15.670056
58.005 15.731954
58.010 15.520597
58.015 15.020383
58.020 14.605802
58.025 14.798427
58.030 14.621087
58.035 14.443661
58.040 14.39607
58.045 14.690248
58.050 15.11813
58.055 15.190042
58.060 15.427304
58.065 15.435657
58.070 15.231161
58.075 15.021952
58.080 14.841288
58.085 14.72511
58.090 14.88025
58.095 14.65999
58.100 14.718254
58.105 15.035296
58.110 14.984151
58.115 14.467497
58.120 14.108391
58.125 14.061369
58.130 14.371486
58.135 14.276189
58.140 14.286289
58.145 14.589807
58.150 15.080945
58.155 15.668852
58.160 15.458201
58.165 15.256771
58.170 15.852483
58.175 15.827965
58.180 15.419419
58.185 15.266681
58.190 14.887647
58.195 14.792361
58.200 14.560803
58.205 14.021724
58.210 14.040569
58.215 14.01819
58.220 14.25898
58.225 14.375356
58.230 15.308998
58.235 15.405873
58.240 15.171321
58.245 15.047572
58.250 15.657412
58.255 15.420665
58.260 15.527443
58.265 15.15543
58.270 15.064251
58.275 15.654183
58.280 15.480659
58.285 14.842541
58.290 15.116159
58.295 15.635805
58.300 15.843927
58.305 15.689231
58.310 15.154766
58.315 15.489078
58.320 15.634753
58.325 15.574748
58.330 14.908003
58.335 15.545134
58.340 15.747474
58.345 15.76556
58.350 15.758452
58.355 15.526245
58.360 15.134435
58.365 15.199033
58.370 14.464398
58.375 14.640607
58.380 14.731316
58.385 14.645848
58.390 14.641372
58.395 15.258735
58.400 14.909792
58.405 14.962428
58.410 14.848815
58.415 14.856803
58.420 15.187503
58.425 15.188197
58.430 14.429281
58.435 14.355575
58.440 14.058582
58.445 14.29848
58.450 14.412193
58.455 14.365504
58.460 14.737258
58.465 15.218957
58.470 15.264634
58.475 15.570828
58.480 15.003091
58.485 14.822931
