!@!!GADDS PLOTSO FILE: Chi integration type
!@!!Title/SampleName: map-66
!@!!Comment: ?
!@!!User: Bruker Instrument Administrator
!@!!Site: University of Illinois Chicago
!@!!Frame: map-66_01_000.gfrm
!@!!Wavelengths    1.54184   1.54056   1.54439
!@!!Frame angles: 2Theta: 63.000 Omega: 50.000 Phi: 0.000 Chi: 90.000
!@!!Integration range: 2Theta: 53.000 to 73.000  Gamma: -105.000 to -75.000
!@!!Integration method: bin normalized
!@!N
!@!SS
!@!M
!@!L 0.0 0.0 0.0 0.0
!@!XDegrees
!@!YCounts
53.000 8.42581
53.005 8.710371
53.010 8.804743
53.015 9.024693
53.020 9.518305
53.025 9.730854
53.030 9.905986
53.035 9.937576
53.040 9.758018
53.045 9.124583
53.050 8.585092
53.055 8.368216
53.060 8.14492
53.065 7.699846
53.070 7.275334
53.075 7.333883
53.080 7.558565
53.085 7.316375
53.090 7.362235
53.095 7.63675
53.100 7.741341
53.105 7.991313
53.110 8.070736
53.115 8.436623
53.120 9.020381
53.125 8.693673
53.130 8.533545
53.135 8.647019
53.140 8.969362
53.145 9.469736
53.150 9.731274
53.155 9.538651
53.160 9.886421
53.165 10.035189
53.170 10.331723
53.175 10.235071
53.180 9.693648
53.185 9.308891
53.190 9.524285
53.195 9.533533
53.200 9.538719
53.205 9.141777
53.210 8.652485
53.215 8.54111
53.220 8.373573
53.225 8.568331
53.230 8.489278
53.235 8.118722
53.240 8.387007
53.245 9.13721
53.250 9.55631
53.255 9.684956
53.260 9.566136
53.265 9.733196
53.270 9.657726
53.275 9.36473
53.280 8.967547
53.285 8.844913
53.290 8.475666
53.295 8.218189
53.300 8.406545
53.305 9.033835
53.310 8.956773
53.315 8.967886
53.320 9.464318
53.325 10.115562
53.330 10.427604
53.335 10.339231
53.340 10.469509
53.345 10.470124
53.350 10.467528
53.355 10.564561
53.360 10.425632
53.365 10.111559
53.370 9.978269
53.375 9.519056
53.380 9.641364
53.385 9.793648
53.390 9.35106
53.395 9.232972
53.400 9.203845
53.405 9.357138
53.410 9.673309
53.415 9.837727
53.420 9.168612
53.425 9.196149
53.430 9.720893
53.435 9.445121
53.440 9.300028
53.445 9.136662
53.450 9.295371
53.455 9.385345
53.460 9.336194
53.465 9.250811
53.470 9.204472
53.475 9.028619
53.480 8.725234
53.485 8.423759
53.490 8.425488
53.495 8.162201
53.500 8.339349
53.505 8.869735
53.510 9.478133
53.515 9.622052
53.520 9.883425
53.525 10.034294
53.530 10.204011
53.535 9.544172
53.540 9.086139
53.545 9.07918
53.550 9.073993
53.555 9.19186
53.560 9.276257
53.565 9.559599
53.570 9.894549
53.575 10.064509
53.580 10.148631
53.585 10.621552
53.590 10.672792
53.595 10.123987
53.600 10.125195
53.605 10.226927
53.610 10.181946
53.615 10.103011
53.620 9.98013
53.625 10.109661
53.630 10.344833
53.635 10.317101
53.640 10.417562
53.645 10.209343
53.650 10.443229
53.655 10.108787
53.660 10.032619
53.665 10.140042
53.670 9.558002
53.675 9.358827
53.680 9.441726
53.685 9.310019
53.690 9.363311
53.695 9.144022
53.700 9.28467
53.705 9.626274
53.710 9.697728
53.715 9.759039
53.720 9.698409
53.725 10.244009
53.730 10.572617
53.735 10.825912
53.740 11.188367
53.745 11.478983
53.750 11.08547
53.755 10.849446
53.760 10.649913
53.765 10.586716
53.770 10.145491
53.775 9.762947
53.780 10.092328
53.785 10.29137
53.790 10.118572
53.795 9.240128
53.800 9.498402
53.805 9.788757
53.810 9.53588
53.815 9.269322
53.820 9.083926
53.825 9.328191
53.830 9.491139
53.835 8.76285
53.840 8.581163
53.845 8.145432
53.850 7.798957
53.855 8.021743
53.860 8.580171
53.865 8.921343
53.870 9.373381
53.875 9.547239
53.880 10.193985
53.885 10.260877
53.890 9.886404
53.895 8.846056
53.900 8.925572
53.905 9.081464
53.910 8.625725
53.915 8.496344
53.920 8.593204
53.925 8.953632
53.930 9.502826
53.935 8.986358
53.940 8.691477
53.945 8.820018
53.950 9.042203
53.955 9.075904
53.960 9.431664
53.965 9.756761
53.970 10.387014
53.975 10.737192
53.980 10.731409
53.985 10.766483
53.990 10.722853
53.995 10.303917
54.000 10.043672
54.005 9.864077
54.010 9.659912
54.015 9.462681
54.020 9.620565
54.025 9.625397
54.030 9.484437
54.035 9.433344
54.040 9.347821
54.045 9.748432
54.050 9.819566
54.055 9.418869
54.060 9.381894
54.065 9.420431
54.070 9.066772
54.075 9.272639
54.080 9.267622
54.085 9.417
54.090 9.948586
54.095 10.269162
54.100 10.399855
54.105 10.558248
54.110 10.285404
54.115 10.019505
54.120 10.021022
54.125 9.828249
54.130 9.905814
54.135 9.719917
54.140 9.617723
54.145 9.825871
54.150 10.139715
54.155 10.332028
54.160 10.491764
54.165 10.295482
54.170 10.715091
54.175 10.890775
54.180 10.413712
54.185 10.001291
54.190 9.989051
54.195 10.39189
54.200 10.473845
54.205 10.172391
54.210 10.424478
54.215 10.867409
54.220 10.977089
54.225 10.687403
54.230 10.383128
54.235 10.503341
54.240 10.750695
54.245 10.959792
54.250 10.568348
54.255 10.473015
54.260 10.336203
54.265 11.033393
54.270 11.475905
54.275 11.256363
54.280 11.284507
54.285 11.151241
54.290 11.703334
54.295 11.70403
54.300 10.667142
54.305 10.757351
54.310 10.915847
54.315 10.84264
54.320 11.101315
54.325 10.595305
54.330 10.741169
54.335 10.993557
54.340 10.55481
54.345 9.983064
54.350 10.638231
54.355 10.964974
54.360 10.801448
54.365 10.695863
54.370 10.125037
54.375 9.951663
54.380 9.772961
54.385 9.103695
54.390 8.982324
54.395 9.269198
54.400 9.094418
54.405 8.998907
54.410 9.424143
54.415 9.696757
54.420 9.876169
54.425 9.612423
54.430 9.223131
54.435 9.584228
54.440 10.287552
54.445 10.172088
54.450 10.353907
54.455 10.689003
54.460 10.888289
54.465 11.270849
54.470 11.419913
54.475 11.396798
54.480 11.362366
54.485 11.162579
54.490 10.869931
54.495 10.814346
54.500 10.495524
54.505 10.140615
54.510 9.860394
54.515 9.931723
54.520 10.021784
54.525 10.114809
54.530 10.146125
54.535 9.970901
54.540 9.94108
54.545 9.493852
54.550 9.458678
54.555 9.462116
54.560 9.439513
54.565 9.494071
54.570 9.352349
54.575 9.453855
54.580 9.707634
54.585 9.47979
54.590 9.541304
54.595 9.865759
54.600 9.86692
54.605 10.098488
54.610 10.178
54.615 10.126785
54.620 10.039893
54.625 9.915618
54.630 9.810586
54.635 10.032844
54.640 10.144839
54.645 10.45436
54.650 10.437239
54.655 10.965707
54.660 11.063091
54.665 11.064565
54.670 10.742611
54.675 10.488469
54.680 10.477757
54.685 10.73213
54.690 10.330809
54.695 10.163109
54.700 9.915213
54.705 9.778071
54.710 10.159577
54.715 10.502697
54.720 10.496496
54.725 10.318901
54.730 10.551246
54.735 11.140817
54.740 11.655849
54.745 11.677835
54.750 11.457165
54.755 11.459471
54.760 11.703504
54.765 12.097635
54.770 11.647909
54.775 11.393982
54.780 11.436473
54.785 11.208205
54.790 11.699643
54.795 11.830447
54.800 11.577273
54.805 12.01552
54.810 12.244078
54.815 12.220565
54.820 12.58544
54.825 12.177341
54.830 11.735755
54.835 11.818792
54.840 11.839932
54.845 11.975444
54.850 11.486759
54.855 10.733285
54.860 10.503368
54.865 10.927751
54.870 10.353152
54.875 10.095164
54.880 9.858065
54.885 10.186875
54.890 10.823735
54.895 10.589675
54.900 10.324891
54.905 10.508014
54.910 10.212643
54.915 10.099046
54.920 10.224997
54.925 9.944935
54.930 10.213009
54.935 10.54979
54.940 10.613605
54.945 10.959231
54.950 11.468023
54.955 11.646162
54.960 12.103683
54.965 11.723501
54.970 11.74325
54.975 11.655312
54.980 11.151771
54.985 10.998458
54.990 10.379675
54.995 9.999201
55.000 10.520643
55.005 10.497339
55.010 11.397095
55.015 11.321791
55.020 10.600554
55.025 11.172056
55.030 11.506276
55.035 11.217052
55.040 10.778085
55.045 10.312489
55.050 10.579326
55.055 10.725342
55.060 10.939219
55.065 10.928776
55.070 11.260128
55.075 11.621768
55.080 11.65486
55.085 11.953816
55.090 11.837901
55.095 11.28376
55.100 11.21476
55.105 11.273116
55.110 11.45633
55.115 11.425396
55.120 11.656847
55.125 11.095057
55.130 10.71713
55.135 10.9375
55.140 10.812992
55.145 11.131243
55.150 10.818578
55.155 10.90426
55.160 12.058114
55.165 12.458748
55.170 12.348492
55.175 11.672138
55.180 11.231926
55.185 11.70043
55.190 11.624935
55.195 11.626012
55.200 11.592841
55.205 11.691698
55.210 12.049901
55.215 12.145785
55.220 12.263432
55.225 12.019291
55.230 12.114695
55.235 11.890986
55.240 11.437221
55.245 11.527139
55.250 11.478999
55.255 11.336409
55.260 12.026638
55.265 12.142515
55.270 12.05549
55.275 12.134277
55.280 11.756076
55.285 11.185265
55.290 10.748795
55.295 10.066454
55.300 9.869495
55.305 9.94882
55.310 10.110383
55.315 10.24549
55.320 10.369819
55.325 11.027131
55.330 11.154911
55.335 11.55219
55.340 11.717808
55.345 11.82572
55.350 12.331158
55.355 13.020937
55.360 13.462716
55.365 13.732992
55.370 13.78436
55.375 14.083473
55.380 14.211661
55.385 14.466208
55.390 14.057801
55.395 13.209044
55.400 12.506664
55.405 11.805408
55.410 11.350975
55.415 11.126339
55.420 10.706743
55.425 10.636856
55.430 10.839664
55.435 11.062343
55.440 11.543265
55.445 11.681192
55.450 11.62872
55.455 11.662058
55.460 11.700133
55.465 11.98409
55.470 12.154869
55.475 12.124244
55.480 12.387122
55.485 12.166556
55.490 12.236684
55.495 11.564319
55.500 11.406933
55.505 11.408342
55.510 11.360964
55.515 11.106784
55.520 11.072309
55.525 11.193361
55.530 11.278497
55.535 11.548162
55.540 11.487494
55.545 12.053435
55.550 12.651317
55.555 12.839204
55.560 12.646981
55.565 12.82061
55.570 12.32051
55.575 12.333651
55.580 11.729232
55.585 11.265981
55.590 11.237067
55.595 11.59893
55.600 11.920914
55.605 11.688576
55.610 11.548986
55.615 11.908273
55.620 11.991931
55.625 11.838462
55.630 11.261499
55.635 11.031569
55.640 11.421708
55.645 10.924984
55.650 10.686609
55.655 10.743368
55.660 10.815267
55.665 10.561113
55.670 10.111366
55.675 9.745198
55.680 9.971016
55.685 10.282228
55.690 10.175276
55.695 10.147776
55.700 10.709585
55.705 10.728343
55.710 10.951385
55.715 10.987519
55.720 10.996718
55.725 11.132517
55.730 11.040302
55.735 11.267348
55.740 11.977391
55.745 11.854131
55.750 11.609761
55.755 11.414674
55.760 11.352333
55.765 11.287749
55.770 10.884288
55.775 10.702247
55.780 10.764701
55.785 11.464604
55.790 11.458711
55.795 11.581608
55.800 11.676472
55.805 11.861608
55.810 12.088385
55.815 12.06455
55.820 12.434817
55.825 12.488849
55.830 12.575181
55.835 12.750887
55.840 13.050541
55.845 12.818089
55.850 12.288968
55.855 11.501157
55.860 11.205076
55.865 11.257484
55.870 11.411951
55.875 11.173558
55.880 11.320785
55.885 11.45508
55.890 11.597156
55.895 11.746107
55.900 11.533946
55.905 11.303682
55.910 11.373592
55.915 11.450849
55.920 11.48814
55.925 11.345211
55.930 11.493384
55.935 11.606097
55.940 11.421712
55.945 11.324796
55.950 11.533964
55.955 11.789548
55.960 11.769007
55.965 12.190204
55.970 12.284938
55.975 12.509712
55.980 12.466687
55.985 12.273861
55.990 12.049068
55.995 11.688408
56.000 10.924751
56.005 10.963648
56.010 11.310422
56.015 11.665551
56.020 11.769505
56.025 12.271817
56.030 13.144073
56.035 13.411224
56.040 13.252364
56.045 12.550926
56.050 12.258736
56.055 12.394037
56.060 12.296633
56.065 11.858856
56.070 11.859674
56.075 12.325111
56.080 12.395332
56.085 12.118304
56.090 11.723825
56.095 11.8167
56.100 11.814301
56.105 11.505525
56.110 11.0716
56.115 11.479556
56.120 11.755414
56.125 11.5374
56.130 10.870308
56.135 10.870284
56.140 11.529039
56.145 12.111005
56.150 11.997829
56.155 12.267636
56.160 12.947371
56.165 13.565343
56.170 13.860432
56.175 13.218092
56.180 12.608599
56.185 12.598155
56.190 12.175811
56.195 11.375093
56.200 10.929425
56.205 10.602486
56.210 10.825216
56.215 11.426968
56.220 11.412302
56.225 11.936248
56.230 12.814825
56.235 13.287961
56.240 13.359212
56.245 13.761654
56.250 13.747572
56.255 14.150053
56.260 13.67261
56.265 13.079335
56.270 12.959645
56.275 12.657586
56.280 12.415473
56.285 12.697941
56.290 12.22607
56.295 12.44556
56.300 12.278466
56.305 12.193351
56.310 12.263975
56.315 11.988705
56.320 11.9437
56.325 12.035007
56.330 12.140398
56.335 12.91418
56.340 12.919259
56.345 12.632765
56.350 12.361151
56.355 13.143244
56.360 13.217967
56.365 12.881305
56.370 12.926982
56.375 13.619277
56.380 13.825824
56.385 13.835803
56.390 13.05606
56.395 13.563519
56.400 13.571844
56.405 12.998744
56.410 12.866128
56.415 13.003776
56.420 13.29361
56.425 12.955646
56.430 12.598428
56.435 12.340592
56.440 12.157044
56.445 11.824234
56.450 11.889552
56.455 11.577994
56.460 12.170255
56.465 12.991952
56.470 13.114431
56.475 12.965911
56.480 12.780295
56.485 12.386817
56.490 12.27938
56.495 11.824309
56.500 10.922836
56.505 10.882349
56.510 11.207481
56.515 11.507667
56.520 12.091533
56.525 12.082139
56.530 12.345693
56.535 12.634585
56.540 12.609702
56.545 13.174467
56.550 13.674298
56.555 13.860414
56.560 14.46072
56.565 14.053771
56.570 13.775103
56.575 13.967882
56.580 13.067268
56.585 12.58137
56.590 12.118884
56.595 11.691397
56.600 11.749107
56.605 12.169112
56.610 11.933603
56.615 12.000585
56.620 11.917514
56.625 11.796095
56.630 11.75407
56.635 11.895691
56.640 11.684226
56.645 11.711679
56.650 11.660316
56.655 12.239448
56.660 12.503739
56.665 12.466687
56.670 12.546485
56.675 13.155254
56.680 13.717146
56.685 13.687774
56.690 13.465399
56.695 13.489508
56.700 13.761001
56.705 13.9731
56.710 13.523132
56.715 12.889694
56.720 13.084338
56.725 13.178229
56.730 13.208641
56.735 12.839045
56.740 12.516955
56.745 13.161272
56.750 13.284979
56.755 12.706088
56.760 12.583793
56.765 12.39311
56.770 12.693195
56.775 12.552726
56.780 12.250383
56.785 12.891109
56.790 13.108968
56.795 13.193546
56.800 12.943025
56.805 12.893604
56.810 13.330296
56.815 13.403881
56.820 13.378478
56.825 13.174651
56.830 13.069115
56.835 13.663083
56.840 13.648446
56.845 13.21426
56.850 12.933078
56.855 12.701147
56.860 12.759557
56.865 12.572263
56.870 12.48758
56.875 12.573794
56.880 12.57023
56.885 12.160783
56.890 11.891791
56.895 11.899671
56.900 11.903022
56.905 11.621515
56.910 11.527661
56.915 12.048735
56.920 12.409124
56.925 12.428482
56.930 13.214379
56.935 13.172029
56.940 12.819127
56.945 12.689547
56.950 11.91513
56.955 11.912367
56.960 12.021997
56.965 11.078955
56.970 11.494154
56.975 12.071284
56.980 12.071879
56.985 12.663123
56.990 12.699216
56.995 12.671567
57.000 12.74735
57.005 12.38449
57.010 12.011671
57.015 12.405755
57.020 12.145221
57.025 11.789522
57.030 12.133173
57.035 12.365775
57.040 12.638806
57.045 12.646513
57.050 12.264528
57.055 11.988752
57.060 12.312593
57.065 12.439159
57.070 12.737303
57.075 12.776573
57.080 13.169502
57.085 13.714602
57.090 13.972655
57.095 13.789278
57.100 13.57214
57.105 13.324957
57.110 13.598355
57.115 13.808217
57.120 13.815435
57.125 13.914045
57.130 14.159034
57.135 14.187172
57.140 14.244391
57.145 14.000251
57.150 13.739877
57.155 13.533104
57.160 13.574888
57.165 13.450762
57.170 13.605262
57.175 13.648279
57.180 13.026575
57.185 12.773986
57.190 12.760433
57.195 13.068608
57.200 13.224573
57.205 12.770885
57.210 12.526583
57.215 12.76561
57.220 12.784811
57.225 12.57081
57.230 12.675222
57.235 12.407638
57.240 12.671179
57.245 14.035108
57.250 14.207033
57.255 14.686513
57.260 14.430373
57.265 14.036765
57.270 14.050708
57.275 14.128207
57.280 13.180632
57.285 12.940319
57.290 12.775482
57.295 13.469244
57.300 14.267558
57.305 14.584636
57.310 14.479748
57.315 14.652387
57.320 14.97452
57.325 15.076976
57.330 15.04301
57.335 14.834937
57.340 14.848516
57.345 15.191809
57.350 15.267819
57.355 14.789821
57.360 14.392586
57.365 14.018847
57.370 13.702711
57.375 13.356317
57.380 12.965512
57.385 12.37785
57.390 12.44783
57.395 12.686091
57.400 12.854142
57.405 13.306123
57.410 13.592703
57.415 13.800906
57.420 14.495727
57.425 14.562166
57.430 14.319431
57.435 14.453328
57.440 14.341856
57.445 14.35885
57.450 14.497578
57.455 14.055007
57.460 13.935747
57.465 13.868547
57.470 13.487577
57.475 13.035924
57.480 13.005103
57.485 12.709657
57.490 12.766563
57.495 13.002275
57.500 12.876982
57.505 13.433937
57.510 13.268921
57.515 13.057167
57.520 13.366689
57.525 13.094063
57.530 12.732784
57.535 12.734904
57.540 12.592419
57.545 12.976983
57.550 12.913307
57.555 12.853603
57.560 13.304705
57.565 13.758812
57.570 13.805634
57.575 13.363382
57.580 13.310819
57.585 13.431377
57.590 13.701012
57.595 13.982384
57.600 13.994534
57.605 14.228685
57.610 14.749253
57.615 14.84901
57.620 14.773843
57.625 14.962354
57.630 14.786538
57.635 14.755737
57.640 14.854967
57.645 14.587779
57.650 14.411113
57.655 14.712884
57.660 15.168666
57.665 15.3104
57.670 15.278414
57.675 15.1436
57.680 14.828274
57.685 15.044996
57.690 14.814045
57.695 14.699909
57.700 14.763138
57.705 14.479226
57.710 14.868908
57.715 15.441688
57.720 15.580298
57.725 15.616537
57.730 16.005869
57.735 15.884585
57.740 16.22341
57.745 15.912458
57.750 15.894086
57.755 15.807483
57.760 15.644054
57.765 15.208252
57.770 15.194335
57.775 14.784898
57.780 14.981879
57.785 15.505898
57.790 15.485766
57.795 15.677981
57.800 15.552162
57.805 16.118797
57.810 17.011375
57.815 17.136124
57.820 16.514866
57.825 16.874775
57.830 17.02866
57.835 16.886517
57.840 17.085526
57.845 16.86841
57.850 16.544376
57.855 16.244841
57.860 16.014538
57.865 15.976797
57.870 16.12471
57.875 15.621267
57.880 15.599547
57.885 16.056978
57.890 16.214529
57.895 16.263121
57.900 16.81218
57.905 16.919565
57.910 16.877195
57.915 16.60914
57.920 16.36916
57.925 16.430851
57.930 16.218725
57.935 16.072933
57.940 16.415857
57.945 16.620838
57.950 16.5359
57.955 17.060699
57.960 16.818684
57.965 16.428511
57.970 16.335064
57.975 15.850449
57.980 15.685587
57.985 15.985034
57.990 15.642333
57.995 16.269365
58.000 16.520027
58.005 16.857954
58.010 17.121885
58.015 17.046511
58.020 17.012178
58.025 16.909876
58.030 17.428028
58.035 17.636175
58.040 16.86972
58.045 16.483784
58.050 16.283485
58.055 16.289042
58.060 16.289366
58.065 15.715297
58.070 15.267273
58.075 15.370996
58.080 15.399654
58.085 15.838773
58.090 15.632345
58.095 15.242771
58.100 15.568396
58.105 15.83131
58.110 15.747703
58.115 15.59498
58.120 14.822657
58.125 15.076129
58.130 14.825242
58.135 14.70565
58.140 14.893005
58.145 15.664487
58.150 16.30689
58.155 17.008118
58.160 16.959185
58.165 16.991898
58.170 16.978655
58.175 16.885845
58.180 16.889332
58.185 17.233215
58.190 17.167299
58.195 17.440842
58.200 17.96417
58.205 17.692383
58.210 17.419926
58.215 16.845564
58.220 16.320017
58.225 16.448168
58.230 15.92858
58.235 15.844841
58.240 16.166401
58.245 16.492514
58.250 16.548891
58.255 16.841673
58.260 17.363804
58.265 17.874334
58.270 18.241091
58.275 18.302988
58.280 18.222883
58.285 18.186249
58.290 18.492128
58.295 18.37418
58.300 18.571274
58.305 18.41717
58.310 18.685472
58.315 18.948263
58.320 19.566322
58.325 19.012367
58.330 18.835045
58.335 18.825317
58.340 19.019297
58.345 19.040886
58.350 19.402931
58.355 19.940166
58.360 20.610037
58.365 20.752153
58.370 20.553244
58.375 20.867743
58.380 21.118404
58.385 21.369253
58.390 21.397867
58.395 21.514072
58.400 22.170889
58.405 22.66898
58.410 22.439039
58.415 22.578224
58.420 23.351259
58.425 23.281925
58.430 23.656107
58.435 24.06675
58.440 24.422146
58.445 25.009214
58.450 25.570757
58.455 25.086271
58.460 25.899487
58.465 25.932314
58.470 25.754929
58.475 26.194647
58.480 26.492664
58.485 27.260416
58.490 28.222237
58.495 28.61161
58.500 29.176859
