!@!!GADDS PLOTSO FILE: Chi integration type
!@!!Title/SampleName: map-158
!@!!Comment: ?
!@!!User: Bruker Instrument Administrator
!@!!Site: University of Illinois Chicago
!@!!Frame: map-158_01_000.gfrm
!@!!Wavelengths    1.54184   1.54056   1.54439
!@!!Frame angles: 2Theta: 63.000 Omega: 50.000 Phi: 0.000 Chi: 90.000
!@!!Integration range: 2Theta: 53.000 to 73.000  Gamma: -105.000 to -75.000
!@!!Integration method: bin normalized
!@!N
!@!SS
!@!M
!@!L 0.0 0.0 0.0 0.0
!@!XDegrees
!@!YCounts
53.000 6.146102
53.005 6.419535
53.010 6.686141
53.015 6.960485
53.020 7.199686
53.025 7.44597
53.030 7.683761
53.035 7.795505
53.040 7.731474
53.045 7.329131
53.050 6.866913
53.055 6.71372
53.060 6.22205
53.065 6.006604
53.070 6.077967
53.075 6.418983
53.080 6.665274
53.085 6.903631
53.090 7.103046
53.095 6.984103
53.100 7.00083
53.105 6.691649
53.110 6.558534
53.115 6.406995
53.120 6.381756
53.125 6.371722
53.130 6.349434
53.135 5.87768
53.140 5.509711
53.145 5.573805
53.150 5.804831
53.155 5.650514
53.160 5.426649
53.165 5.567901
53.170 6.275792
53.175 6.594622
53.180 6.429029
53.185 6.237974
53.190 6.481433
53.195 6.802325
53.200 6.916602
53.205 6.66768
53.210 6.92209
53.215 7.476885
53.220 7.431673
53.225 7.184643
53.230 7.069305
53.235 6.969417
53.240 6.909758
53.245 6.745582
53.250 6.249826
53.255 6.134637
53.260 6.6471
53.265 6.718417
53.270 6.701974
53.275 6.634247
53.280 6.169331
53.285 6.160344
53.290 6.087582
53.295 5.837234
53.300 5.770935
53.305 5.764179
53.310 5.976556
53.315 6.528177
53.320 7.139895
53.325 7.616496
53.330 7.719042
53.335 8.063692
53.340 8.042583
53.345 8.064556
53.350 8.340514
53.355 7.81718
53.360 7.572446
53.365 7.324305
53.370 7.212898
53.375 7.4294
53.380 7.370124
53.385 7.491826
53.390 7.644762
53.395 7.622635
53.400 7.657805
53.405 7.215862
53.410 6.784032
53.415 6.81925
53.420 6.327243
53.425 6.201787
53.430 6.293429
53.435 6.147629
53.440 6.54552
53.445 6.96816
53.450 6.85821
53.455 7.180433
53.460 7.376739
53.465 7.48736
53.470 8.030613
53.475 7.862797
53.480 7.720918
53.485 7.51017
53.490 7.564699
53.495 7.636969
53.500 7.557765
53.505 7.527901
53.510 7.490931
53.515 7.675387
53.520 7.711236
53.525 7.668461
53.530 7.368388
53.535 6.939167
53.540 7.094782
53.545 7.301147
53.550 7.045692
53.555 7.194403
53.560 7.214777
53.565 7.328521
53.570 7.55232
53.575 7.420802
53.580 7.44845
53.585 7.655065
53.590 7.791554
53.595 7.905581
53.600 8.422096
53.605 8.335791
53.610 8.507907
53.615 8.233011
53.620 8.3864
53.625 8.082162
53.630 7.638182
53.635 7.497434
53.640 7.281048
53.645 7.492215
53.650 7.763029
53.655 8.102034
53.660 8.085934
53.665 8.185274
53.670 8.252171
53.675 8.27683
53.680 8.047323
53.685 7.959001
53.690 7.794119
53.695 8.351896
53.700 8.16431
53.705 8.011626
53.710 8.044969
53.715 8.279496
53.720 8.087373
53.725 8.204821
53.730 8.155662
53.735 8.317757
53.740 8.715538
53.745 8.789515
53.750 8.443301
53.755 8.432539
53.760 7.628905
53.765 7.625524
53.770 7.368077
53.775 7.149993
53.780 7.176326
53.785 7.166018
53.790 7.277296
53.795 7.454339
53.800 7.479815
53.805 7.680852
53.810 7.169095
53.815 7.243425
53.820 7.162913
53.825 7.290154
53.830 7.607966
53.835 7.774457
53.840 7.939906
53.845 8.224429
53.850 8.096983
53.855 7.698181
53.860 7.670392
53.865 7.620565
53.870 7.239583
53.875 6.928244
53.880 6.677043
53.885 6.952491
53.890 7.270104
53.895 7.111739
53.900 7.368334
53.905 7.249862
53.910 7.62324
53.915 7.455657
53.920 7.37638
53.925 7.347295
53.930 7.528371
53.935 7.378481
53.940 7.644096
53.945 7.709688
53.950 8.080573
53.955 8.064612
53.960 7.913887
53.965 7.793976
53.970 7.935321
53.975 7.911389
53.980 7.305726
53.985 6.945395
53.990 6.886957
53.995 6.903243
54.000 6.816349
54.005 6.670887
54.010 6.642671
54.015 7.008003
54.020 7.062513
54.025 7.101012
54.030 7.359098
54.035 7.335246
54.040 7.184154
54.045 6.948073
54.050 7.022808
54.055 7.146903
54.060 7.035429
54.065 7.00926
54.070 7.340163
54.075 7.375815
54.080 7.317508
54.085 7.326581
54.090 7.092037
54.095 6.926106
54.100 6.954571
54.105 6.693795
54.110 6.910917
54.115 6.978136
54.120 7.004556
54.125 6.983727
54.130 7.38594
54.135 7.540729
54.140 7.809003
54.145 7.806224
54.150 7.705756
54.155 7.492303
54.160 7.433409
54.165 6.786336
54.170 6.507113
54.175 6.358347
54.180 6.57091
54.185 6.910379
54.190 7.34718
54.195 7.939564
54.200 8.207621
54.205 8.23391
54.210 8.345104
54.215 8.168822
54.220 8.000345
54.225 7.622993
54.230 7.33857
54.235 7.326263
54.240 7.003705
54.245 7.362371
54.250 7.524771
54.255 7.686984
54.260 8.12585
54.265 8.548547
54.270 8.773963
54.275 8.478711
54.280 7.84244
54.285 7.750682
54.290 7.599334
54.295 7.413367
54.300 7.068368
54.305 7.359437
54.310 7.779276
54.315 7.902646
54.320 7.75232
54.325 7.778651
54.330 7.685309
54.335 7.647995
54.340 7.501462
54.345 7.324874
54.350 7.518468
54.355 8.136579
54.360 7.997964
54.365 7.571912
54.370 7.016997
54.375 7.068901
54.380 7.212748
54.385 6.63062
54.390 6.145505
54.395 5.886214
54.400 6.401242
54.405 7.17264
54.410 7.112449
54.415 6.939164
54.420 7.232098
54.425 7.580453
54.430 7.798363
54.435 7.645211
54.440 7.180573
54.445 7.041148
54.450 6.982836
54.455 6.748207
54.460 6.550542
54.465 6.285385
54.470 6.258287
54.475 6.074347
54.480 6.163605
54.485 6.365294
54.490 6.665607
54.495 6.790495
54.500 6.843187
54.505 7.168948
54.510 7.288946
54.515 7.387897
54.520 7.078823
54.525 6.900028
54.530 6.809464
54.535 6.573088
54.540 6.342575
54.545 6.168203
54.550 6.346173
54.555 6.336804
54.560 6.272896
54.565 6.229718
54.570 6.543208
54.575 6.640849
54.580 6.611248
54.585 6.602744
54.590 6.702716
54.595 7.223407
54.600 7.117249
54.605 7.151377
54.610 7.144836
54.615 7.557248
54.620 7.605578
54.625 7.376245
54.630 7.01083
54.635 7.100649
54.640 6.580679
54.645 6.600547
54.650 6.443994
54.655 6.768158
54.660 6.833015
54.665 7.005369
54.670 7.545415
54.675 7.869052
54.680 7.684606
54.685 7.5196
54.690 6.996371
54.695 6.860797
54.700 6.685148
54.705 6.315612
54.710 6.479997
54.715 6.635178
54.720 7.054188
54.725 7.738821
54.730 8.072326
54.735 8.366931
54.740 8.495936
54.745 8.613747
54.750 8.57912
54.755 8.175354
54.760 7.653049
54.765 7.468533
54.770 7.093835
54.775 7.10368
54.780 6.859844
54.785 6.845861
54.790 7.135006
54.795 7.146715
54.800 7.136661
54.805 7.330893
54.810 7.511104
54.815 7.651538
54.820 7.63042
54.825 7.868736
54.830 8.141524
54.835 8.2103
54.840 7.833921
54.845 7.421742
54.850 7.442976
54.855 7.829379
54.860 7.889185
54.865 8.027911
54.870 8.025277
54.875 8.39503
54.880 8.980217
54.885 8.693745
54.890 8.762768
54.895 8.613058
54.900 9.062473
54.905 9.579469
54.910 9.116231
54.915 9.057502
54.920 9.366764
54.925 9.215693
54.930 9.057067
54.935 8.529445
54.940 8.27732
54.945 8.392286
54.950 8.475641
54.955 8.861246
54.960 8.891113
54.965 8.576989
54.970 8.399122
54.975 8.435239
54.980 8.379679
54.985 8.280122
54.990 8.060638
54.995 8.181621
55.000 8.499004
55.005 8.455899
55.010 8.463995
55.015 8.237278
55.020 7.821331
55.025 7.235136
55.030 7.212446
55.035 7.188013
55.040 7.404835
55.045 7.537156
55.050 8.04611
55.055 8.413655
55.060 8.671715
55.065 8.890602
55.070 9.161501
55.075 9.086123
55.080 8.748583
55.085 8.503663
55.090 8.495743
55.095 8.342592
55.100 8.223085
55.105 7.778754
55.110 7.941658
55.115 8.142045
55.120 8.227292
55.125 7.890814
55.130 7.65787
55.135 7.822009
55.140 8.230552
55.145 8.294973
55.150 8.245104
55.155 8.153492
55.160 8.406192
55.165 8.56293
55.170 8.484733
55.175 7.887712
55.180 7.776812
55.185 7.710992
55.190 7.674458
55.195 7.933749
55.200 7.977926
55.205 7.983001
55.210 8.597025
55.215 8.567441
55.220 8.730139
55.225 8.744256
55.230 8.368715
55.235 8.376048
55.240 8.541109
55.245 8.387045
55.250 8.155933
55.255 8.124704
55.260 8.257592
55.265 8.035959
55.270 7.72967
55.275 6.977309
55.280 7.097666
55.285 7.107508
55.290 6.752639
55.295 6.792277
55.300 6.962893
55.305 7.018314
55.310 7.016668
55.315 6.761101
55.320 6.811199
55.325 6.870886
55.330 7.19409
55.335 7.390761
55.340 7.692955
55.345 7.78793
55.350 7.990323
55.355 7.898186
55.360 7.591948
55.365 7.060103
55.370 7.142546
55.375 7.486934
55.380 7.836986
55.385 7.83226
55.390 8.194477
55.395 8.465079
55.400 8.206116
55.405 8.234365
55.410 8.205705
55.415 7.79105
55.420 7.79829
55.425 7.215037
55.430 6.932948
55.435 6.942801
55.440 6.492441
55.445 6.615816
55.450 6.933173
55.455 6.874763
55.460 7.420642
55.465 7.720101
55.470 8.090127
55.475 8.262556
55.480 8.264232
55.485 8.367381
55.490 8.261737
55.495 8.193226
55.500 8.098308
55.505 7.794206
55.510 7.816926
55.515 7.639338
55.520 7.723903
55.525 7.830344
55.530 7.735746
55.535 7.629265
55.540 7.341141
55.545 6.547296
55.550 6.415992
55.555 6.457444
55.560 6.345818
55.565 6.826712
55.570 7.242392
55.575 7.609888
55.580 7.96304
55.585 7.960996
55.590 8.020906
55.595 8.227345
55.600 7.878808
55.605 7.429199
55.610 7.152333
55.615 7.282825
55.620 6.913991
55.625 7.05717
55.630 6.691244
55.635 6.968365
55.640 7.400357
55.645 7.362607
55.650 7.224851
55.655 7.506917
55.660 7.508858
55.665 7.926245
55.670 7.981915
55.675 8.035761
55.680 8.184631
55.685 8.874859
55.690 9.065388
55.695 9.05147
55.700 9.012619
55.705 9.167124
55.710 9.526402
55.715 9.440218
55.720 9.017021
55.725 8.650321
55.730 8.353957
55.735 7.540579
55.740 7.217977
55.745 6.901464
55.750 6.968203
55.755 6.783437
55.760 7.365183
55.765 7.818681
55.770 8.405055
55.775 8.311478
55.780 8.134957
55.785 7.814743
55.790 7.807621
55.795 7.62923
55.800 7.515153
55.805 7.576843
55.810 7.635552
55.815 7.930593
55.820 8.267862
55.825 8.434239
55.830 8.843025
55.835 8.89069
55.840 8.530734
55.845 8.836548
55.850 9.419562
55.855 9.847401
55.860 9.49088
55.865 9.306723
55.870 9.505609
55.875 10.142584
55.880 9.732144
55.885 9.247213
55.890 9.019205
55.895 9.052201
55.900 9.13695
55.905 9.034721
55.910 8.683378
55.915 8.839984
55.920 8.621932
55.925 8.792029
55.930 8.590608
55.935 8.575257
55.940 8.513731
55.945 8.581424
55.950 8.611804
55.955 8.538739
55.960 8.065544
55.965 7.815237
55.970 7.402517
55.975 7.33916
55.980 7.194853
55.985 7.064129
55.990 7.043513
55.995 7.165651
56.000 7.167198
56.005 7.275032
56.010 7.274723
56.015 7.337474
56.020 7.121708
56.025 7.335228
56.030 7.52108
56.035 7.318305
56.040 7.295942
56.045 7.257888
56.050 7.623729
56.055 7.982196
56.060 7.878634
56.065 7.51774
56.070 8.080822
56.075 8.082157
56.080 8.25425
56.085 8.33507
56.090 8.161089
56.095 8.495107
56.100 8.765602
56.105 8.641244
56.110 8.699713
56.115 8.189779
56.120 7.811203
56.125 7.587961
56.130 7.371728
56.135 7.319283
56.140 7.016499
56.145 6.974375
56.150 7.25442
56.155 7.508121
56.160 8.183132
56.165 8.665524
56.170 9.053238
56.175 9.180283
56.180 9.323191
56.185 9.314233
56.190 8.893834
56.195 8.228951
56.200 7.942592
56.205 7.898886
56.210 8.004334
56.215 7.893835
56.220 7.743978
56.225 8.062413
56.230 7.761604
56.235 7.570705
56.240 7.158776
56.245 7.37992
56.250 7.56522
56.255 7.615233
56.260 7.79771
56.265 7.835395
56.270 7.958161
56.275 8.366761
56.280 8.285335
56.285 8.238929
56.290 8.291992
56.295 8.650054
56.300 9.105729
56.305 8.937866
56.310 8.80894
56.315 8.300395
56.320 8.337299
56.325 8.065971
56.330 7.795692
56.335 7.750423
56.340 7.652671
56.345 7.842606
56.350 8.525834
56.355 8.794305
56.360 9.295296
56.365 9.567735
56.370 9.785348
56.375 9.768442
56.380 9.763674
56.385 10.000433
56.390 9.688856
56.395 9.396662
56.400 9.382401
56.405 9.693313
56.410 10.086663
56.415 9.843188
56.420 9.500901
56.425 9.491885
56.430 9.363544
56.435 8.860206
56.440 8.692225
56.445 8.698109
56.450 8.654723
56.455 8.741506
56.460 8.798955
56.465 9.287106
56.470 9.660296
56.475 9.280546
56.480 9.244251
56.485 9.345284
56.490 10.036518
56.495 10.132606
56.500 10.184448
56.505 9.952049
56.510 10.253342
56.515 10.096608
56.520 10.138044
56.525 9.440355
56.530 9.518757
56.535 9.303951
56.540 9.649999
56.545 9.836929
56.550 10.120358
56.555 10.218415
56.560 10.542741
56.565 10.400199
56.570 10.650549
56.575 10.89662
56.580 11.003731
56.585 11.162992
56.590 10.865157
56.595 10.63463
56.600 10.452926
56.605 10.148982
56.610 9.944868
56.615 9.530365
56.620 9.232902
56.625 9.197553
56.630 9.315296
56.635 9.433509
56.640 9.547412
56.645 9.331903
56.650 9.150017
56.655 9.19609
56.660 9.752829
56.665 9.480518
56.670 9.330416
56.675 9.126631
56.680 9.158708
56.685 9.602653
56.690 9.771776
56.695 9.756913
56.700 10.154479
56.705 9.739415
56.710 10.182926
56.715 10.259801
56.720 10.071674
56.725 9.786869
56.730 9.099862
56.735 8.95615
56.740 8.809777
56.745 8.312247
56.750 8.27562
56.755 7.878531
56.760 8.048423
56.765 8.399094
56.770 8.913058
56.775 9.362185
56.780 9.311592
56.785 9.194967
56.790 9.056977
56.795 8.677505
56.800 8.78071
56.805 8.462421
56.810 8.251378
56.815 8.384664
56.820 8.316818
56.825 8.575532
56.830 8.716072
56.835 8.650693
56.840 8.781917
56.845 8.634272
56.850 8.034439
56.855 8.053261
56.860 7.829059
56.865 7.540743
56.870 7.465573
56.875 7.487603
56.880 7.890189
56.885 8.17122
56.890 8.78982
56.895 9.070226
56.900 8.922213
56.905 8.506395
56.910 8.512196
56.915 8.092247
56.920 7.715735
56.925 7.251991
56.930 7.14171
56.935 7.653573
56.940 7.697785
56.945 7.479442
56.950 7.365937
56.955 7.432981
56.960 7.301706
56.965 7.336212
56.970 7.289589
56.975 7.625744
56.980 7.868134
56.985 8.511762
56.990 8.886547
56.995 9.090629
57.000 9.08402
57.005 8.756443
57.010 8.879795
57.015 8.885718
57.020 8.361751
57.025 8.129802
57.030 7.620131
57.035 8.11813
57.040 8.256372
57.045 7.659499
57.050 7.638273
57.055 7.580562
57.060 7.505151
57.065 7.384017
57.070 6.643782
57.075 7.242993
57.080 7.385614
57.085 7.047246
57.090 7.234112
57.095 7.287572
57.100 7.552263
57.105 7.627195
57.110 7.427684
57.115 8.039238
57.120 8.107249
57.125 8.199315
57.130 8.117476
57.135 8.052782
57.140 8.237879
57.145 8.36011
57.150 8.132373
57.155 8.19685
57.160 8.176777
57.165 8.356433
57.170 8.401295
57.175 8.257341
57.180 7.878368
57.185 7.693902
57.190 7.871749
57.195 8.039995
57.200 8.25635
57.205 8.435175
57.210 8.278541
57.215 8.288963
57.220 8.282548
57.225 7.989
57.230 7.928452
57.235 7.815213
57.240 7.698979
57.245 7.815485
57.250 7.918894
57.255 7.907294
57.260 8.009588
57.265 7.988626
57.270 8.070714
57.275 8.066769
57.280 7.709079
57.285 7.943913
57.290 8.208637
57.295 8.137732
57.300 8.130238
57.305 8.308432
57.310 8.550372
57.315 8.446215
57.320 8.055618
57.325 7.838306
57.330 7.835397
57.335 7.590838
57.340 7.191393
57.345 7.111854
57.350 7.500939
57.355 7.551026
57.360 7.757743
57.365 7.998955
57.370 7.874048
57.375 8.109962
57.380 8.083054
57.385 7.896811
57.390 7.773376
57.395 7.42634
57.400 7.496481
57.405 8.353084
57.410 8.447894
57.415 8.538136
57.420 8.95892
57.425 9.317403
57.430 9.247282
57.435 9.033481
57.440 8.331547
57.445 8.19525
57.450 8.046328
57.455 7.841011
57.460 7.791603
57.465 8.109529
57.470 7.893261
57.475 8.255037
57.480 8.110972
57.485 8.234691
57.490 8.205164
57.495 8.181713
57.500 7.813135
57.505 7.949143
57.510 7.850058
57.515 8.238533
57.520 8.223846
57.525 8.209821
57.530 8.140742
57.535 8.67487
57.540 8.796114
57.545 8.456243
57.550 8.439791
57.555 8.513184
57.560 8.320124
57.565 8.325525
57.570 7.806479
57.575 7.611044
57.580 7.66316
57.585 7.391474
57.590 7.275605
57.595 7.469274
57.600 7.755754
57.605 7.94627
57.610 7.965792
57.615 7.943829
57.620 7.798897
57.625 7.777937
57.630 7.88029
57.635 7.818913
57.640 7.834366
57.645 7.778361
57.650 8.023674
57.655 8.2174
57.660 8.670855
57.665 9.047556
57.670 8.92412
57.675 9.268078
57.680 9.31147
57.685 8.803545
57.690 8.466411
57.695 8.356939
57.700 8.116261
57.705 8.27768
57.710 8.081387
57.715 7.832021
57.720 8.040176
57.725 8.045969
57.730 7.567945
57.735 7.368793
57.740 7.035846
57.745 6.872419
57.750 7.204972
57.755 7.34373
57.760 7.381927
57.765 7.480286
57.770 7.637139
57.775 7.880871
57.780 7.939404
57.785 7.72994
57.790 7.359168
57.795 7.2302
57.800 7.394674
57.805 7.512124
57.810 7.372903
57.815 7.442857
57.820 7.564063
57.825 7.915094
57.830 8.207845
57.835 7.666059
57.840 7.734418
57.845 7.9969
57.850 7.920712
57.855 8.132207
57.860 8.083492
57.865 7.940746
57.870 8.131247
57.875 7.882676
57.880 7.742387
57.885 7.927445
57.890 7.789987
57.895 7.560585
57.900 7.452783
57.905 7.711988
57.910 8.030916
57.915 8.16256
57.920 8.250635
57.925 8.296296
57.930 8.232158
57.935 8.699067
57.940 8.438029
57.945 8.348585
57.950 8.551564
57.955 8.474917
57.960 8.557197
57.965 8.499684
57.970 8.308804
57.975 8.125374
57.980 8.048434
57.985 7.638352
57.990 7.525947
57.995 7.57228
58.000 7.364494
58.005 7.372293
58.010 7.811296
58.015 8.003762
58.020 8.274405
58.025 8.139907
58.030 8.121772
58.035 8.493531
58.040 8.315487
58.045 7.874177
58.050 7.355096
58.055 7.412309
58.060 7.813756
58.065 7.740777
58.070 7.557902
58.075 7.448913
58.080 7.808485
58.085 7.955816
58.090 7.514928
58.095 6.989524
58.100 7.250778
58.105 7.415601
58.110 8.04975
58.115 8.145196
58.120 8.499348
58.125 8.811335
58.130 8.979602
58.135 9.137893
58.140 9.29782
58.145 8.995312
58.150 8.937231
58.155 8.380499
58.160 8.297174
58.165 8.23487
58.170 8.19689
58.175 7.762432
58.180 7.333745
58.185 7.430136
58.190 7.646843
58.195 7.88222
58.200 7.979509
58.205 7.678064
58.210 7.58602
58.215 7.804257
58.220 7.56035
58.225 7.436744
58.230 7.352783
58.235 7.370876
58.240 7.48081
58.245 7.831411
58.250 7.621501
58.255 7.58022
58.260 7.707265
58.265 7.786981
58.270 7.669645
58.275 7.616584
58.280 7.073058
58.285 7.046439
58.290 7.243011
58.295 7.36862
58.300 7.780011
58.305 7.961216
58.310 8.207706
58.315 8.668141
58.320 8.843855
58.325 9.269509
58.330 9.197895
58.335 8.46961
58.340 8.289418
58.345 8.06927
58.350 8.117247
58.355 8.193274
58.360 7.6378
58.365 7.757226
58.370 7.760853
58.375 7.974782
58.380 8.213438
58.385 7.837585
58.390 7.678629
58.395 7.484175
58.400 7.734021
58.405 8.076937
58.410 7.935452
58.415 7.957307
58.420 8.233818
58.425 8.108708
58.430 8.092585
58.435 7.763288
58.440 7.724871
58.445 7.841958
58.450 7.788626
58.455 8.205593
58.460 8.433382
58.465 8.535381
58.470 8.3696
58.475 8.020776
58.480 7.848194
58.485 7.757473
58.490 7.391508
58.495 7.501345
58.500 7.593465
58.505 7.791326
58.510 7.786763
58.515 7.794701
58.520 7.906176
58.525 8.154356
58.530 8.189435
58.535 8.093994
58.540 7.926779
58.545 8.016775
58.550 7.728182
58.555 7.514943
58.560 7.279755
58.565 7.031166
58.570 7.219388
58.575 7.345295
58.580 7.173707
58.585 7.426584
58.590 7.453012
58.595 7.511569
58.600 7.795877
58.605 7.867126
58.610 7.890776
58.615 7.947843
58.620 8.052896
58.625 8.235396
58.630 8.181276
58.635 7.952864
58.640 8.247779
58.645 8.308456
58.650 8.549801
58.655 8.291828
58.660 8.147286
58.665 8.545302
58.670 8.894927
58.675 8.860018
58.680 8.965611
58.685 8.894636
58.690 8.694407
58.695 8.796055
58.700 8.294617
58.705 7.570364
58.710 7.099764
58.715 7.003694
58.720 7.297424
58.725 7.292408
58.730 7.550189
58.735 7.880705
58.740 7.962501
58.745 7.998426
58.750 7.809017
58.755 7.525047
