!@!!GADDS PLOTSO FILE: Chi integration type
!@!!Title/SampleName: map-85
!@!!Comment: ?
!@!!User: Bruker Instrument Administrator
!@!!Site: University of Illinois Chicago
!@!!Frame: map-85_01_000.gfrm
!@!!Wavelengths    1.54184   1.54056   1.54439
!@!!Frame angles: 2Theta: 63.000 Omega: 50.000 Phi: 0.000 Chi: 90.000
!@!!Integration range: 2Theta: 53.000 to 73.000  Gamma: -105.000 to -75.000
!@!!Integration method: bin normalized
!@!N
!@!SS
!@!M
!@!L 0.0 0.0 0.0 0.0
!@!XDegrees
!@!YCounts
53.000 7.187347
53.005 7.281847
53.010 7.844506
53.015 8.327239
53.020 8.149738
53.025 7.564711
53.030 7.707757
53.035 7.732661
53.040 7.345813
53.045 6.979797
53.050 6.506483
53.055 6.665292
53.060 7.207267
53.065 6.677653
53.070 6.557477
53.075 6.265087
53.080 6.53512
53.085 7.318206
53.090 7.456591
53.095 7.375275
53.100 7.537782
53.105 7.895096
53.110 8.190821
53.115 7.65552
53.120 6.931353
53.125 6.662434
53.130 6.611848
53.135 6.464029
53.140 6.456002
53.145 6.659567
53.150 6.954608
53.155 7.46359
53.160 7.480739
53.165 7.727478
53.170 7.804511
53.175 7.737414
53.180 7.7541
53.185 7.872566
53.190 7.323101
53.195 7.41878
53.200 7.293443
53.205 7.416609
53.210 7.755414
53.215 7.873899
53.220 8.329888
53.225 8.668836
53.230 8.715039
53.235 8.99384
53.240 8.817464
53.245 8.920643
53.250 8.874394
53.255 8.672674
53.260 8.588631
53.265 8.616384
53.270 8.488209
53.275 8.488677
53.280 8.185884
53.285 8.261792
53.290 7.947613
53.295 7.643399
53.300 7.253261
53.305 7.317431
53.310 7.351842
53.315 7.111643
53.320 6.888314
53.325 7.412666
53.330 7.581387
53.335 7.936987
53.340 7.852553
53.345 7.968352
53.350 8.616722
53.355 8.849449
53.360 8.685463
53.365 8.826248
53.370 8.499742
53.375 8.406269
53.380 8.297527
53.385 8.07061
53.390 8.22361
53.395 8.46366
53.400 8.787467
53.405 9.233025
53.410 8.970724
53.415 8.806769
53.420 8.97771
53.425 8.900656
53.430 8.220719
53.435 7.709825
53.440 7.843015
53.445 8.245874
53.450 8.308564
53.455 7.806595
53.460 8.125979
53.465 8.671447
53.470 8.927739
53.475 9.044374
53.480 8.752529
53.485 8.452729
53.490 8.744659
53.495 8.300087
53.500 8.267867
53.505 8.332506
53.510 8.524989
53.515 8.670101
53.520 8.765449
53.525 8.613353
53.530 9.145653
53.535 9.028095
53.540 8.654495
53.545 8.343052
53.550 8.021006
53.555 7.870277
53.560 7.8189
53.565 7.93782
53.570 7.934239
53.575 7.920327
53.580 8.474326
53.585 8.93987
53.590 9.017797
53.595 8.716329
53.600 8.3463
53.605 8.985094
53.610 9.010194
53.615 8.551431
53.620 8.849734
53.625 8.564233
53.630 8.527582
53.635 8.542283
53.640 7.789671
53.645 7.559281
53.650 7.237879
53.655 7.007293
53.660 7.735034
53.665 7.634956
53.670 7.68393
53.675 7.854818
53.680 8.108657
53.685 8.16129
53.690 8.177271
53.695 8.347034
53.700 8.503024
53.705 8.310512
53.710 8.338846
53.715 8.640524
53.720 8.883636
53.725 8.664832
53.730 8.909141
53.735 8.789048
53.740 8.631498
53.745 8.640015
53.750 8.183005
53.755 8.200921
53.760 8.337511
53.765 8.19324
53.770 8.626597
53.775 8.691355
53.780 8.783793
53.785 9.268189
53.790 9.583757
53.795 9.692678
53.800 9.979075
53.805 10.018231
53.810 9.987254
53.815 10.021374
53.820 10.014669
53.825 9.552924
53.830 9.472564
53.835 9.508282
53.840 9.490972
53.845 9.692545
53.850 9.94526
53.855 9.615111
53.860 9.858643
53.865 9.815998
53.870 9.607526
53.875 9.452916
53.880 8.81137
53.885 8.969733
53.890 9.446306
53.895 9.340529
53.900 8.802
53.905 8.83949
53.910 9.187373
53.915 9.302135
53.920 8.689293
53.925 8.108443
53.930 8.091248
53.935 8.518888
53.940 8.335723
53.945 8.251681
53.950 8.398147
53.955 8.738281
53.960 8.892705
53.965 8.959112
53.970 8.829166
53.975 9.252283
53.980 9.468865
53.985 9.327878
53.990 9.045767
53.995 8.804222
54.000 8.448
54.005 8.611912
54.010 8.798131
54.015 8.824626
54.020 8.737828
54.025 8.666842
54.030 9.09479
54.035 9.283935
54.040 8.500622
54.045 8.051706
54.050 7.978185
54.055 8.004937
54.060 8.376082
54.065 8.725976
54.070 9.367868
54.075 9.702108
54.080 9.570499
54.085 9.535775
54.090 9.452394
54.095 9.274912
54.100 8.865976
54.105 8.461046
54.110 8.756615
54.115 8.684186
54.120 8.949511
54.125 9.106846
54.130 8.90076
54.135 9.156847
54.140 9.200426
54.145 9.341344
54.150 9.765145
54.155 9.557192
54.160 9.180442
54.165 9.299735
54.170 8.85747
54.175 8.680601
54.180 8.202121
54.185 7.64702
54.190 7.923748
54.195 8.102043
54.200 8.387439
54.205 8.603687
54.210 8.517063
54.215 8.954791
54.220 9.396787
54.225 9.29423
54.230 9.483298
54.235 10.089323
54.240 9.916063
54.245 10.086707
54.250 10.193008
54.255 10.224437
54.260 10.24389
54.265 9.670829
54.270 9.504417
54.275 10.143555
54.280 9.965569
54.285 9.789197
54.290 10.167697
54.295 9.992062
54.300 10.125588
54.305 9.945703
54.310 9.612205
54.315 9.756227
54.320 9.368098
54.325 9.254526
54.330 9.5399
54.335 9.196879
54.340 9.129058
54.345 9.324633
54.350 9.442416
54.355 9.461244
54.360 9.416869
54.365 9.354465
54.370 9.575886
54.375 9.676845
54.380 9.873047
54.385 9.886692
54.390 9.954322
54.395 9.524573
54.400 9.522378
54.405 9.665132
54.410 9.459083
54.415 9.275316
54.420 8.769773
54.425 9.010751
54.430 9.605652
54.435 9.841087
54.440 9.965514
54.445 9.935093
54.450 9.948474
54.455 10.501349
54.460 10.392354
54.465 10.502769
54.470 10.468092
54.475 10.089106
54.480 9.982737
54.485 9.631778
54.490 8.909169
54.495 8.894532
54.500 8.575438
54.505 8.356545
54.510 8.401079
54.515 8.718418
54.520 8.792812
54.525 9.142261
54.530 8.999331
54.535 9.091371
54.540 9.335012
54.545 9.085438
54.550 9.419364
54.555 10.006589
54.560 10.104756
54.565 10.231619
54.570 10.293776
54.575 10.159652
54.580 10.411158
54.585 10.453057
54.590 10.440975
54.595 10.394815
54.600 10.056094
54.605 9.152117
54.610 8.786774
54.615 8.48031
54.620 8.275207
54.625 8.210915
54.630 8.314695
54.635 9.224701
54.640 10.596734
54.645 11.37868
54.650 11.028131
54.655 10.544649
54.660 10.776845
54.665 10.850293
54.670 9.997953
54.675 9.728689
54.680 10.03127
54.685 10.49628
54.690 10.780818
54.695 10.492041
54.700 10.701096
54.705 10.589298
54.710 9.969676
54.715 9.930162
54.720 9.945727
54.725 10.249363
54.730 10.110226
54.735 10.155653
54.740 10.701571
54.745 11.740594
54.750 11.492175
54.755 10.856754
54.760 10.56202
54.765 10.04644
54.770 9.786111
54.775 9.03633
54.780 8.490448
54.785 8.84786
54.790 8.990139
54.795 9.281392
54.800 9.548806
54.805 9.798136
54.810 10.373654
54.815 10.458105
54.820 10.476396
54.825 11.048241
54.830 11.530205
54.835 11.310205
54.840 11.456072
54.845 10.872186
54.850 10.643285
54.855 10.45437
54.860 10.048302
54.865 9.933055
54.870 10.112482
54.875 10.224018
54.880 10.241193
54.885 10.167117
54.890 9.878897
54.895 9.876842
54.900 9.48883
54.905 9.075152
54.910 9.010777
54.915 9.138988
54.920 9.688278
54.925 9.703959
54.930 9.121291
54.935 8.966942
54.940 8.886535
54.945 9.327349
54.950 10.078506
54.955 10.175199
54.960 10.151903
54.965 10.156746
54.970 10.342732
54.975 10.507158
54.980 10.024378
54.985 9.094295
54.990 8.756201
54.995 9.062207
55.000 9.408928
55.005 9.56794
55.010 9.115128
55.015 8.953133
55.020 9.308331
55.025 9.507212
55.030 10.045773
55.035 10.228902
55.040 9.959121
55.045 10.233854
55.050 9.907635
55.055 9.543319
55.060 9.617014
55.065 8.869136
55.070 8.880303
55.075 9.075791
55.080 8.791572
55.085 9.213724
55.090 9.176697
55.095 9.360761
55.100 9.991922
55.105 10.000986
55.110 10.257981
55.115 10.525863
55.120 10.944921
55.125 11.184756
55.130 10.616826
55.135 10.335323
55.140 10.001392
55.145 9.575338
55.150 9.295502
55.155 8.769194
55.160 8.89619
55.165 9.081048
55.170 8.831441
55.175 8.946794
55.180 9.161093
55.185 9.397177
55.190 9.836944
55.195 9.702374
55.200 9.602283
55.205 9.993072
55.210 9.987826
55.215 10.018998
55.220 10.173811
55.225 10.029934
55.230 9.781412
55.235 9.984859
55.240 10.329892
55.245 10.347692
55.250 10.512854
55.255 9.863517
55.260 10.118007
55.265 10.238913
55.270 10.366935
55.275 10.781804
55.280 11.084828
55.285 11.30162
55.290 11.969197
55.295 12.231047
55.300 12.78584
55.305 12.540423
55.310 11.943708
55.315 11.784661
55.320 11.691863
55.325 11.126862
55.330 10.666919
55.335 10.302877
55.340 10.20132
55.345 10.121873
55.350 9.920123
55.355 9.875159
55.360 9.75166
55.365 9.74157
55.370 9.67525
55.375 9.836384
55.380 10.345634
55.385 10.69329
55.390 11.003242
55.395 10.994669
55.400 10.618879
55.405 10.35105
55.410 10.230267
55.415 9.558526
55.420 9.505974
55.425 9.154714
55.430 9.417168
55.435 9.77753
55.440 10.1254
55.445 10.245647
55.450 10.75242
55.455 10.797261
55.460 11.057813
55.465 11.33535
55.470 11.722961
55.475 11.938759
55.480 11.976109
55.485 11.513861
55.490 11.077142
55.495 11.139482
55.500 10.781054
55.505 10.443241
55.510 9.974398
55.515 10.196404
55.520 11.009689
55.525 11.060772
55.530 11.221513
55.535 11.647874
55.540 11.635501
55.545 11.877732
55.550 11.350389
55.555 10.854974
55.560 10.697124
55.565 10.348171
55.570 9.683973
55.575 9.806414
55.580 9.350128
55.585 9.393099
55.590 9.853182
55.595 9.966217
55.600 9.826571
55.605 10.251617
55.610 10.604458
55.615 11.113847
55.620 11.072207
55.625 10.626909
55.630 11.133536
55.635 11.374627
55.640 10.986412
55.645 10.545547
55.650 10.604144
55.655 10.418763
55.660 10.283502
55.665 9.833998
55.670 9.654707
55.675 9.740377
55.680 9.972653
55.685 10.036772
55.690 10.548197
55.695 10.580412
55.700 10.853525
55.705 10.729907
55.710 10.694304
55.715 10.635807
55.720 10.354856
55.725 10.304145
55.730 10.824753
55.735 10.877687
55.740 10.855961
55.745 10.58068
55.750 10.844541
55.755 10.748275
55.760 10.608559
55.765 10.157356
55.770 10.033284
55.775 10.264125
55.780 10.522487
55.785 10.449219
55.790 10.498662
55.795 10.508201
55.800 10.430275
55.805 9.938568
55.810 9.705288
55.815 9.398821
55.820 9.268839
55.825 9.265762
55.830 9.619584
55.835 10.706909
55.840 11.225083
55.845 11.632412
55.850 12.040032
55.855 11.772256
55.860 11.700185
55.865 10.834729
55.870 10.699535
55.875 11.112231
55.880 11.257332
55.885 11.818941
55.890 12.108606
55.895 12.156524
55.900 12.580064
55.905 12.314245
55.910 12.012006
55.915 11.447325
55.920 10.689775
55.925 10.888751
55.930 10.724992
55.935 10.645583
55.940 11.506461
55.945 11.604558
55.950 11.884782
55.955 12.338147
55.960 12.118882
55.965 12.283387
55.970 11.886833
55.975 10.207483
55.980 10.206849
55.985 10.06977
55.990 9.816227
55.995 10.27493
56.000 10.653374
56.005 11.251393
56.010 11.664076
56.015 11.660913
56.020 11.831233
56.025 11.706128
56.030 11.574508
56.035 11.658716
56.040 11.849083
56.045 11.754807
56.050 11.326377
56.055 11.276971
56.060 11.241838
56.065 11.078486
56.070 10.892824
56.075 10.847882
56.080 11.427176
56.085 12.100624
56.090 12.27297
56.095 12.52986
56.100 12.224933
56.105 12.306107
56.110 11.908762
56.115 11.223328
56.120 10.818811
56.125 10.354572
56.130 9.955057
56.135 9.785576
56.140 9.872677
56.145 10.28097
56.150 10.258368
56.155 10.102934
56.160 10.360925
56.165 10.75222
56.170 11.293462
56.175 11.409401
56.180 11.493701
56.185 12.042549
56.190 12.497045
56.195 12.605106
56.200 12.626746
56.205 12.428888
56.210 12.394416
56.215 12.572104
56.220 12.431247
56.225 12.104022
56.230 12.275921
56.235 12.486433
56.240 12.376022
56.245 12.56008
56.250 12.761193
56.255 13.059187
56.260 13.088693
56.265 12.920187
56.270 12.748268
56.275 12.967632
56.280 12.345001
56.285 11.615402
56.290 11.474015
56.295 11.157177
56.300 10.869527
56.305 10.720368
56.310 10.314405
56.315 10.524006
56.320 10.424569
56.325 10.360225
56.330 10.268758
56.335 10.284057
56.340 10.076468
56.345 10.397088
56.350 10.41163
56.355 10.759944
56.360 11.247959
56.365 11.568612
56.370 12.027503
56.375 12.271338
56.380 11.862931
56.385 12.048341
56.390 12.194091
56.395 11.953434
56.400 12.091263
56.405 11.915745
56.410 11.956003
56.415 12.087572
56.420 11.95604
56.425 11.557811
56.430 11.824388
56.435 11.857564
56.440 11.650816
56.445 11.531843
56.450 11.436269
56.455 11.828614
56.460 12.303155
56.465 11.650395
56.470 11.7012
56.475 11.954744
56.480 12.143357
56.485 12.506045
56.490 12.687421
56.495 12.322181
56.500 12.746863
56.505 12.412148
56.510 12.250347
56.515 12.197381
56.520 11.677317
56.525 11.61461
56.530 11.84141
56.535 11.814552
56.540 11.954774
56.545 12.242002
56.550 12.458272
56.555 12.828994
56.560 13.007507
56.565 12.69125
56.570 12.593964
56.575 12.973505
56.580 13.289737
56.585 13.238932
56.590 12.656594
56.595 12.134855
56.600 11.891375
56.605 11.805228
56.610 11.553258
56.615 11.091507
56.620 10.83516
56.625 10.56315
56.630 10.455515
56.635 10.363252
56.640 9.648482
56.645 9.366708
56.650 9.30162
56.655 9.426296
56.660 9.660235
56.665 9.848761
56.670 10.465035
56.675 10.978679
56.680 11.326813
56.685 11.799807
56.690 12.147227
56.695 12.398682
56.700 12.45731
56.705 12.217988
56.710 12.261481
56.715 11.799488
56.720 11.472661
56.725 11.476192
56.730 11.687943
56.735 12.13827
56.740 12.263764
56.745 12.372127
56.750 12.285807
56.755 12.38244
56.760 12.273438
56.765 11.322465
56.770 10.716453
56.775 10.757943
56.780 10.748844
56.785 11.04378
56.790 10.954098
56.795 11.445506
56.800 12.544637
56.805 12.788948
56.810 12.985929
56.815 13.433196
56.820 13.824441
56.825 14.166183
56.830 13.665789
56.835 12.802746
56.840 12.877777
56.845 12.996974
56.850 12.762115
56.855 12.205981
56.860 11.81769
56.865 11.975936
56.870 12.220977
56.875 12.276484
56.880 12.068789
56.885 11.804881
56.890 12.186633
56.895 12.516752
56.900 12.019502
56.905 12.273325
56.910 12.054399
56.915 12.197279
56.920 12.190858
56.925 11.791767
56.930 11.56075
56.935 12.024304
56.940 11.860247
56.945 12.011188
56.950 12.22327
56.955 12.828074
56.960 12.922517
56.965 13.15546
56.970 13.422688
56.975 13.510627
56.980 13.174252
56.985 12.581085
56.990 12.401504
56.995 12.652678
57.000 12.835539
57.005 12.432015
57.010 12.350714
57.015 12.582186
57.020 12.775147
57.025 12.430362
57.030 11.884558
57.035 11.261143
57.040 11.349896
57.045 11.760012
57.050 11.369725
57.055 11.412753
57.060 11.707556
57.065 12.116129
57.070 12.234543
57.075 12.148666
57.080 11.683904
57.085 11.56545
57.090 11.336927
57.095 11.290279
57.100 11.447099
57.105 11.628135
57.110 11.850192
57.115 11.752461
57.120 11.974096
57.125 12.215151
57.130 12.203783
57.135 12.2843
57.140 12.099577
57.145 12.316342
57.150 12.481865
57.155 12.309714
57.160 12.034933
57.165 11.819221
57.170 11.939517
57.175 11.935396
57.180 11.561851
57.185 11.865145
57.190 12.005118
57.195 12.374285
57.200 12.623375
57.205 12.331754
57.210 12.195135
57.215 11.997151
57.220 11.982174
57.225 12.252311
57.230 12.186019
57.235 11.947227
57.240 12.483154
57.245 12.522243
57.250 12.965376
57.255 12.805403
57.260 12.73869
57.265 12.641843
57.270 12.556688
57.275 12.224602
57.280 12.635325
57.285 12.435916
57.290 12.789694
57.295 12.714723
57.300 13.135565
57.305 13.413884
57.310 13.596805
57.315 14.041496
57.320 14.320591
57.325 14.66114
57.330 14.928931
57.335 14.850004
57.340 14.580807
57.345 14.489369
57.350 14.476362
57.355 14.591396
57.360 14.452588
57.365 14.240363
57.370 14.0819
57.375 14.172005
57.380 14.385822
57.385 13.947468
57.390 13.488229
57.395 13.18952
57.400 13.528636
57.405 13.91118
57.410 14.164938
57.415 13.926618
57.420 13.870221
57.425 13.910796
57.430 14.331994
57.435 14.342595
57.440 14.297408
57.445 14.145488
57.450 13.787627
57.455 13.596824
57.460 13.725515
57.465 13.156705
57.470 12.676175
57.475 12.568982
57.480 12.411411
57.485 12.904604
57.490 13.087847
57.495 12.82347
57.500 12.914158
57.505 12.76331
57.510 12.986341
57.515 12.958749
57.520 12.481019
57.525 12.454155
57.530 12.309992
57.535 12.555584
57.540 13.006892
57.545 12.678238
57.550 12.581324
57.555 12.89418
57.560 13.313103
57.565 13.683788
57.570 13.217693
57.575 12.630492
57.580 13.152736
57.585 13.579099
57.590 13.130648
57.595 12.473126
57.600 12.107283
57.605 12.307234
57.610 12.31169
57.615 12.220476
57.620 12.564508
57.625 13.327444
57.630 13.698333
57.635 14.090322
57.640 14.440542
57.645 14.811989
57.650 14.859119
57.655 14.490475
57.660 14.322081
57.665 13.726973
57.670 13.085966
57.675 13.044177
57.680 13.157492
57.685 13.013706
57.690 12.706861
57.695 12.858505
57.700 13.083035
57.705 13.329444
57.710 13.5927
57.715 13.564431
57.720 13.532678
57.725 13.519582
57.730 14.025593
57.735 14.374537
57.740 14.606928
57.745 14.171597
57.750 13.814392
57.755 14.020325
57.760 13.99458
57.765 13.570965
57.770 13.61102
57.775 14.048081
57.780 14.341766
57.785 14.705758
57.790 14.57812
57.795 14.578895
57.800 14.685321
57.805 14.234041
57.810 13.732375
57.815 13.773519
57.820 13.966949
57.825 13.945348
57.830 13.651168
57.835 13.413596
57.840 13.691469
57.845 13.954823
57.850 13.972692
57.855 13.48334
57.860 13.725714
57.865 14.073265
57.870 14.280141
57.875 14.708841
57.880 14.785241
57.885 14.980432
57.890 15.28105
57.895 14.851771
57.900 15.340082
57.905 15.49824
57.910 15.296358
57.915 15.497004
57.920 15.559044
57.925 15.962337
57.930 16.206625
57.935 15.027514
57.940 14.782449
57.945 14.590388
57.950 14.403619
57.955 14.231272
57.960 13.876531
57.965 14.003469
57.970 14.391586
57.975 14.116767
57.980 14.010117
57.985 14.029508
57.990 14.356927
57.995 14.498096
58.000 14.76476
58.005 15.810272
58.010 16.253731
58.015 15.615163
58.020 15.365262
58.025 15.001349
58.030 15.064911
58.035 14.818531
58.040 14.139078
58.045 14.164393
58.050 14.91782
58.055 15.008815
58.060 15.394828
58.065 15.512146
58.070 15.570875
58.075 15.65198
58.080 15.967517
58.085 15.869606
58.090 16.040728
58.095 16.338284
58.100 16.543779
58.105 16.614326
58.110 16.937819
58.115 16.647551
58.120 16.444014
58.125 15.683876
58.130 15.607173
58.135 15.975749
58.140 15.789047
58.145 15.777471
58.150 15.475696
58.155 15.658834
58.160 15.977481
58.165 15.831357
58.170 15.443716
58.175 15.407028
58.180 14.923811
58.185 14.611577
58.190 14.264509
58.195 14.06479
58.200 13.546959
58.205 13.519628
58.210 14.067355
58.215 14.638662
58.220 15.605587
58.225 15.8166
58.230 16.228941
58.235 16.557192
58.240 16.77902
58.245 16.742846
58.250 16.980377
58.255 17.087614
58.260 17.435665
58.265 17.529381
58.270 17.826719
58.275 17.893913
58.280 17.690691
58.285 18.123064
58.290 18.349716
58.295 17.952496
58.300 18.664719
58.305 18.93679
58.310 19.129709
58.315 19.328985
58.320 18.915554
58.325 18.973072
58.330 19.379469
58.335 18.749674
58.340 18.696253
58.345 18.942339
58.350 19.480545
58.355 19.344307
58.360 19.760014
58.365 20.075563
58.370 20.868406
58.375 20.823271
58.380 20.65719
58.385 20.613691
58.390 20.561949
58.395 20.389618
58.400 20.865316
58.405 20.260338
58.410 20.686562
58.415 20.603188
58.420 21.13949
58.425 21.998125
58.430 22.517994
58.435 22.316158
58.440 22.45644
58.445 22.238998
58.450 22.258455
58.455 21.768829
58.460 21.853329
58.465 21.322098
58.470 21.148371
58.475 20.725582
58.480 21.345209
58.485 21.331131
58.490 21.351187
58.495 21.237495
58.500 21.196302
58.505 21.040854
58.510 21.51083
58.515 21.767298
58.520 22.140306
58.525 22.644678
58.530 22.365831
58.535 22.610607
58.540 22.615622
58.545 22.470173
58.550 22.115221
58.555 22.150984
