!@!!GADDS PLOTSO FILE: Chi integration type
!@!!Title/SampleName: map-6b
!@!!Comment: ?
!@!!User: Bruker Instrument Administrator
!@!!Site: University of Illinois Chicago
!@!!Frame: map-6b_01_000.gfrm
!@!!Wavelengths    1.54184   1.54056   1.54439
!@!!Frame angles: 2Theta: 63.000 Omega: 50.000 Phi: 0.000 Chi: 90.000
!@!!Integration range: 2Theta: 53.000 to 73.000  Gamma: -105.000 to -75.000
!@!!Integration method: bin normalized
!@!N
!@!SS
!@!M
!@!L 0.0 0.0 0.0 0.0
!@!XDegrees
!@!YCounts
53.000 10.099235
53.005 10.482154
53.010 10.099511
53.015 9.538102
53.020 9.310015
53.025 9.875061
53.030 10.111788
53.035 9.958926
53.040 10.001414
53.045 10.743073
53.050 11.710384
53.055 11.358002
53.060 10.486131
53.065 10.115343
53.070 10.058119
53.075 10.097201
53.080 9.167792
53.085 8.601845
53.090 9.186746
53.095 9.666776
53.100 9.721619
53.105 9.61723
53.110 9.643321
53.115 9.951805
53.120 9.793264
53.125 9.796597
53.130 9.509253
53.135 9.513832
53.140 9.562804
53.145 9.625699
53.150 9.238753
53.155 9.419248
53.160 9.22567
53.165 9.005465
53.170 8.908044
53.175 8.677553
53.180 8.85986
53.185 9.557337
53.190 9.363508
53.195 9.389305
53.200 9.426949
53.205 9.474337
53.210 9.519508
53.215 8.739773
53.220 8.301345
53.225 8.136571
53.230 8.416172
53.235 8.826344
53.240 8.976227
53.245 9.198654
53.250 9.49721
53.255 10.048475
53.260 10.703341
53.265 10.54521
53.270 10.056739
53.275 10.068505
53.280 10.63537
53.285 10.790155
53.290 10.440849
53.295 10.150157
53.300 10.275715
53.305 10.269784
53.310 10.116035
53.315 9.463845
53.320 9.050081
53.325 9.191197
53.330 9.017261
53.335 8.807178
53.340 8.654252
53.345 8.670271
53.350 9.046616
53.355 9.100495
53.360 8.850769
53.365 8.61537
53.370 8.997212
53.375 9.243677
53.380 9.032039
53.385 9.498402
53.390 9.538743
53.395 9.834676
53.400 10.283795
53.405 9.801671
53.410 9.738651
53.415 9.286828
53.420 8.71244
53.425 8.93082
53.430 8.959408
53.435 9.161031
53.440 9.552811
53.445 9.96816
53.450 10.861726
53.455 11.029799
53.460 10.643794
53.465 10.018975
53.470 9.628259
53.475 9.047774
53.480 8.727922
53.485 8.54326
53.490 8.922388
53.495 9.558654
53.500 10.467531
53.505 10.862839
53.510 11.246434
53.515 11.291018
53.520 10.795203
53.525 10.72042
53.530 10.341562
53.535 10.126886
53.540 10.224451
53.545 9.758825
53.550 9.826196
53.555 9.855647
53.560 9.684914
53.565 9.948136
53.570 9.722864
53.575 9.756543
53.580 10.036427
53.585 10.140638
53.590 10.687425
53.595 10.639705
53.600 10.667797
53.605 10.79337
53.610 11.388566
53.615 11.499552
53.620 11.427096
53.625 11.420647
53.630 11.611201
53.635 11.265685
53.640 11.103141
53.645 11.248719
53.650 11.142068
53.655 10.843339
53.660 10.782783
53.665 10.458972
53.670 10.814091
53.675 10.35758
53.680 10.110018
53.685 9.867794
53.690 9.509676
53.695 9.435026
53.700 9.838655
53.705 9.8967
53.710 10.002383
53.715 10.284243
53.720 10.47538
53.725 10.718478
53.730 11.000212
53.735 10.609983
53.740 10.629724
53.745 10.638879
53.750 10.224169
53.755 10.133077
53.760 9.8773
53.765 9.477831
53.770 9.693588
53.775 9.410291
53.780 9.206985
53.785 9.15684
53.790 9.384631
53.795 9.150875
53.800 9.200217
53.805 9.406722
53.810 9.627098
53.815 9.843977
53.820 10.0664
53.825 9.989497
53.830 10.105775
53.835 9.547836
53.840 9.821232
53.845 9.991065
53.850 10.060649
53.855 9.933064
53.860 10.144446
53.865 10.508794
53.870 10.60896
53.875 9.943652
53.880 9.742948
53.885 10.151635
53.890 9.887152
53.895 9.429687
53.900 9.363271
53.905 9.314541
53.910 9.349727
53.915 9.429921
53.920 8.974695
53.925 9.373406
53.930 9.764441
53.935 9.77328
53.940 9.754073
53.945 9.78863
53.950 9.794028
53.955 9.841959
53.960 9.695911
53.965 9.130555
53.970 9.400042
53.975 9.457345
53.980 9.792753
53.985 9.640274
53.990 9.332278
53.995 9.124028
54.000 9.721074
54.005 9.533805
54.010 9.317474
54.015 9.205918
54.020 9.295603
54.025 9.657432
54.030 10.111124
54.035 10.273659
54.040 10.353698
54.045 10.845843
54.050 10.999396
54.055 10.743239
54.060 10.408962
54.065 10.328413
54.070 10.431502
54.075 10.531675
54.080 9.790626
54.085 9.522149
54.090 9.715489
54.095 9.728428
54.100 9.259933
54.105 8.970826
54.110 8.698571
54.115 9.28123
54.120 9.710128
54.125 9.869207
54.130 10.522595
54.135 10.559827
54.140 10.449411
54.145 10.364464
54.150 9.682401
54.155 9.414657
54.160 9.341899
54.165 9.210599
54.170 9.880354
54.175 10.141762
54.180 10.203722
54.185 10.640798
54.190 11.408849
54.195 11.719377
54.200 10.915237
54.205 10.194201
54.210 10.025173
54.215 10.168858
54.220 10.393434
54.225 10.053714
54.230 10.285613
54.235 11.008123
54.240 11.056653
54.245 11.557969
54.250 11.442568
54.255 11.433782
54.260 11.260825
54.265 10.407427
54.270 10.284337
54.275 10.450403
54.280 9.970454
54.285 9.810925
54.290 9.557326
54.295 10.010934
54.300 10.516026
54.305 10.180102
54.310 10.107057
54.315 10.352628
54.320 10.834672
54.325 10.742719
54.330 10.232767
54.335 10.457902
54.340 11.353531
54.345 11.698862
54.350 11.851079
54.355 11.656354
54.360 11.81441
54.365 11.833729
54.370 11.457188
54.375 10.852677
54.380 10.587768
54.385 10.54347
54.390 10.593204
54.395 10.792553
54.400 10.415532
54.405 10.156971
54.410 10.503325
54.415 10.619671
54.420 10.0201
54.425 9.982968
54.430 9.975207
54.435 10.294639
54.440 10.888617
54.445 10.539535
54.450 10.418462
54.455 10.39556
54.460 10.084502
54.465 9.863069
54.470 10.11921
54.475 9.925577
54.480 10.373258
54.485 10.70699
54.490 10.767544
54.495 10.642971
54.500 10.455957
54.505 10.363569
54.510 10.292672
54.515 10.065832
54.520 9.934784
54.525 10.557185
54.530 11.191639
54.535 11.438213
54.540 11.364456
54.545 11.207512
54.550 11.521958
54.555 11.238443
54.560 11.085029
54.565 10.704412
54.570 10.507272
54.575 10.506153
54.580 9.929935
54.585 9.844583
54.590 9.731766
54.595 9.341492
54.600 9.523859
54.605 9.440029
54.610 8.932604
54.615 9.16291
54.620 9.550062
54.625 9.64712
54.630 9.818334
54.635 9.827439
54.640 9.958974
54.645 10.467025
54.650 10.107945
54.655 9.617627
54.660 9.375436
54.665 8.866867
54.670 8.587172
54.675 8.50606
54.680 8.684956
54.685 9.042333
54.690 10.018385
54.695 10.772114
54.700 11.389221
54.705 11.767964
54.710 11.776085
54.715 12.096133
54.720 11.910189
54.725 11.654076
54.730 12.392876
54.735 12.62229
54.740 12.588471
54.745 12.61587
54.750 12.705091
54.755 12.495558
54.760 12.420508
54.765 11.676338
54.770 11.59131
54.775 11.887752
54.780 11.401901
54.785 11.312598
54.790 11.22614
54.795 10.913917
54.800 10.891344
54.805 10.747019
54.810 10.811345
54.815 11.192613
54.820 11.096016
54.825 10.900523
54.830 11.095645
54.835 11.272087
54.840 11.428451
54.845 11.260416
54.850 11.583627
54.855 11.873198
54.860 12.070092
54.865 11.735445
54.870 11.694594
54.875 11.767557
54.880 11.84993
54.885 11.590998
54.890 11.261682
54.895 11.730839
54.900 11.517127
54.905 11.369899
54.910 11.440559
54.915 11.545872
54.920 11.316734
54.925 11.374222
54.930 10.875343
54.935 10.779849
54.940 10.949383
54.945 11.123069
54.950 10.983714
54.955 10.944574
54.960 10.952889
54.965 11.087508
54.970 11.102644
54.975 11.16318
54.980 11.152357
54.985 10.998131
54.990 11.134622
54.995 10.95142
55.000 10.549843
55.005 10.201805
55.010 9.918544
55.015 9.563027
55.020 9.620387
55.025 9.433929
55.030 9.825755
55.035 10.079661
55.040 9.832865
55.045 9.790156
55.050 10.07317
55.055 10.46888
55.060 10.565261
55.065 10.795295
55.070 11.372606
55.075 11.812943
55.080 12.080116
55.085 12.02983
55.090 11.987062
55.095 12.134374
55.100 11.934108
55.105 11.918416
55.110 11.863422
55.115 11.514071
55.120 11.808912
55.125 11.765797
55.130 11.390055
55.135 11.158923
55.140 11.175079
55.145 11.440538
55.150 11.3416
55.155 11.160902
55.160 11.60533
55.165 11.730542
55.170 11.909555
55.175 12.043716
55.180 11.77101
55.185 12.23351
55.190 12.207395
55.195 11.983347
55.200 12.019928
55.205 11.863441
55.210 11.92628
55.215 12.066761
55.220 11.60994
55.225 11.529072
55.230 11.21446
55.235 10.966196
55.240 10.917847
55.245 10.808621
55.250 10.710462
55.255 11.003491
55.260 11.163002
55.265 11.914762
55.270 12.209282
55.275 12.073423
55.280 12.002989
55.285 12.453631
55.290 12.068711
55.295 11.868011
55.300 11.746211
55.305 11.897319
55.310 12.379546
55.315 12.248664
55.320 12.146593
55.325 12.871334
55.330 13.26501
55.335 12.912471
55.340 12.325299
55.345 11.709203
55.350 11.895011
55.355 11.801745
55.360 11.068044
55.365 10.715886
55.370 10.646688
55.375 10.631345
55.380 11.109843
55.385 11.160118
55.390 11.049792
55.395 11.295437
55.400 11.251043
55.405 11.437069
55.410 11.556371
55.415 11.188372
55.420 10.628983
55.425 10.23221
55.430 10.41039
55.435 10.63207
55.440 10.383828
55.445 10.724966
55.450 11.121658
55.455 11.388479
55.460 11.84667
55.465 11.64271
55.470 11.842744
55.475 12.183833
55.480 12.140949
55.485 11.971332
55.490 12.232156
55.495 11.933427
55.500 11.662767
55.505 11.547788
55.510 11.133552
55.515 11.275166
55.520 11.537108
55.525 11.123087
55.530 10.769239
55.535 10.936805
55.540 11.447395
55.545 11.902292
55.550 11.741462
55.555 11.496951
55.560 11.728759
55.565 12.086925
55.570 12.155776
55.575 12.017787
55.580 11.571032
55.585 11.320209
55.590 11.748058
55.595 12.222375
55.600 12.16161
55.605 11.769867
55.610 11.647514
55.615 11.819223
55.620 12.270939
55.625 11.895028
55.630 11.581556
55.635 11.491288
55.640 11.42938
55.645 11.474839
55.650 11.545095
55.655 11.725129
55.660 11.708814
55.665 11.677973
55.670 12.355014
55.675 12.835141
55.680 12.834175
55.685 12.837285
55.690 12.768499
55.695 12.650974
55.700 12.606853
55.705 12.179474
55.710 11.808915
55.715 11.886715
55.720 11.658351
55.725 11.983782
55.730 12.276539
55.735 11.796464
55.740 11.62973
55.745 11.474341
55.750 11.377174
55.755 11.104013
55.760 10.822975
55.765 10.737266
55.770 11.19842
55.775 11.228433
55.780 11.379228
55.785 11.203298
55.790 11.405314
55.795 11.388023
55.800 11.308034
55.805 11.391326
55.810 11.467386
55.815 11.288802
55.820 11.585094
55.825 11.429798
55.830 12.084884
55.835 12.366676
55.840 12.327697
55.845 13.015523
55.850 13.786692
55.855 14.172663
55.860 14.163738
55.865 13.803953
55.870 14.078608
55.875 14.086704
55.880 13.613069
55.885 13.173838
55.890 12.960513
55.895 13.059477
55.900 12.97448
55.905 12.51166
55.910 12.367168
55.915 12.461279
55.920 12.589023
55.925 12.527271
55.930 12.323606
55.935 12.055962
55.940 11.624679
55.945 11.575131
55.950 11.547071
55.955 11.305009
55.960 11.096715
55.965 10.891438
55.970 10.79419
55.975 11.564225
55.980 11.769213
55.985 11.564493
55.990 11.418836
55.995 11.356318
56.000 11.546626
56.005 11.695057
56.010 11.640838
56.015 11.854157
56.020 12.51055
56.025 13.057923
56.030 13.328532
56.035 13.538988
56.040 13.40737
56.045 13.162332
56.050 13.057664
56.055 12.906277
56.060 12.874917
56.065 13.041945
56.070 13.336398
56.075 13.476829
56.080 13.006429
56.085 12.702398
56.090 12.120548
56.095 11.448357
56.100 11.579814
56.105 11.141653
56.110 10.94587
56.115 10.562459
56.120 10.34612
56.125 10.176122
56.130 10.028775
56.135 9.612603
56.140 10.115582
56.145 10.412383
56.150 11.276399
56.155 12.027209
56.160 13.0575
56.165 13.414527
56.170 12.901094
56.175 12.091432
56.180 11.747863
56.185 11.333474
56.190 10.732771
56.195 10.747722
56.200 11.099811
56.205 11.979588
56.210 12.555714
56.215 12.815154
56.220 13.025447
56.225 12.693629
56.230 12.272694
56.235 12.240507
56.240 12.159977
56.245 12.411226
56.250 12.287082
56.255 12.211371
56.260 12.630311
56.265 12.567028
56.270 12.76155
56.275 12.853757
56.280 12.812321
56.285 13.45481
56.290 13.899529
56.295 14.119165
56.300 14.290747
56.305 13.731241
56.310 13.332817
56.315 13.158266
56.320 12.620003
56.325 12.579315
56.330 12.434788
56.335 12.382544
56.340 12.277227
56.345 12.18825
56.350 12.171625
56.355 12.30391
56.360 11.810472
56.365 11.526663
56.370 11.55518
56.375 12.117142
56.380 12.285768
56.385 12.317617
56.390 12.811248
56.395 13.042116
56.400 13.269208
56.405 12.906461
56.410 12.399164
56.415 12.438271
56.420 12.30481
56.425 11.978369
56.430 12.449266
56.435 12.452593
56.440 12.618808
56.445 12.762608
56.450 12.860548
56.455 12.844772
56.460 13.038669
56.465 12.9827
56.470 13.203904
56.475 13.073073
56.480 13.141023
56.485 13.37989
56.490 13.659656
56.495 13.732105
56.500 13.519759
56.505 13.773457
56.510 13.992932
56.515 13.885845
56.520 13.778326
56.525 13.672
56.530 13.219784
56.535 13.176368
56.540 12.906272
56.545 12.936504
56.550 12.916592
56.555 12.698809
56.560 12.494624
56.565 12.692246
56.570 12.434271
56.575 12.386158
56.580 12.155071
56.585 11.869338
56.590 12.128585
56.595 12.516412
56.600 12.747461
56.605 12.787176
56.610 12.552505
56.615 12.513019
56.620 12.362994
56.625 12.135632
56.630 11.767532
56.635 11.261522
56.640 11.304535
56.645 11.377198
56.650 11.255509
56.655 11.709952
56.660 11.983432
56.665 12.412869
56.670 12.425233
56.675 12.516682
56.680 12.586238
56.685 12.677044
56.690 12.682714
56.695 12.572081
56.700 12.861919
56.705 13.307549
56.710 13.524719
56.715 13.83616
56.720 14.125734
56.725 14.240874
56.730 13.947293
56.735 13.779043
56.740 13.55175
56.745 13.469926
56.750 13.443764
56.755 13.165727
56.760 13.105364
56.765 13.182254
56.770 13.680047
56.775 14.103022
56.780 13.916653
56.785 13.989983
56.790 14.357702
56.795 14.376114
56.800 13.689031
56.805 12.873846
56.810 12.589614
56.815 13.020684
56.820 13.056656
56.825 12.713268
56.830 12.781066
56.835 13.160705
56.840 13.321254
56.845 13.332261
56.850 12.949486
56.855 12.833591
56.860 12.813937
56.865 13.315327
56.870 13.47169
56.875 13.421339
56.880 13.096647
56.885 13.170512
56.890 13.570409
56.895 13.42884
56.900 13.013514
56.905 13.386498
56.910 13.807258
56.915 14.221933
56.920 13.885833
56.925 13.605965
56.930 13.260619
56.935 13.360761
56.940 12.777353
56.945 12.372302
56.950 12.366732
56.955 12.328615
56.960 12.572996
56.965 12.801916
56.970 12.611283
56.975 12.51334
56.980 12.763165
56.985 12.440413
56.990 12.600205
56.995 13.118362
57.000 13.486124
57.005 13.933674
57.010 13.855116
57.015 14.059377
57.020 14.367802
57.025 14.319959
57.030 13.800467
57.035 13.505469
57.040 13.570951
57.045 14.176471
57.050 14.349703
57.055 14.711752
57.060 14.717099
57.065 14.832512
57.070 14.882444
57.075 14.867565
57.080 14.593897
57.085 14.366406
57.090 13.816401
57.095 13.724183
57.100 13.668454
57.105 13.522183
57.110 13.419986
57.115 13.64789
57.120 13.211413
57.125 13.20101
57.130 13.111869
57.135 13.113158
57.140 13.121246
57.145 12.880756
57.150 13.132639
57.155 13.430713
57.160 13.111385
57.165 12.574928
57.170 12.530727
57.175 12.534752
57.180 12.25809
57.185 11.516851
57.190 11.419908
57.195 11.890709
57.200 12.222643
57.205 11.83459
57.210 11.795005
57.215 11.997347
57.220 12.647709
57.225 12.972157
57.230 12.931173
57.235 12.951123
57.240 13.708496
57.245 14.126593
57.250 14.370818
57.255 14.547085
57.260 15.387646
57.265 16.150198
57.270 16.412306
57.275 15.906616
57.280 15.195819
57.285 15.344405
57.290 15.271874
57.295 14.873345
57.300 14.247167
57.305 13.884363
57.310 13.854476
57.315 13.971138
57.320 13.714393
57.325 13.850908
57.330 13.913308
57.335 14.215613
57.340 14.350667
57.345 14.256182
57.350 14.720462
57.355 14.456694
57.360 13.909349
57.365 13.732137
57.370 13.522046
57.375 13.945263
57.380 14.325381
57.385 13.992383
57.390 14.045348
57.395 13.999793
57.400 14.171742
57.405 13.881063
57.410 13.3507
57.415 13.306713
57.420 13.275819
57.425 12.869739
57.430 13.453113
57.435 13.426294
57.440 13.722171
57.445 13.864583
57.450 14.179231
57.455 14.40224
57.460 14.774698
57.465 14.500283
57.470 14.429917
57.475 14.23667
57.480 14.153515
57.485 13.723174
57.490 13.644855
57.495 13.359962
57.500 13.259891
57.505 14.13829
57.510 14.020738
57.515 14.166104
57.520 14.449083
57.525 14.306525
57.530 14.380959
57.535 14.300705
57.540 14.175309
57.545 15.033137
57.550 14.922142
57.555 14.352098
57.560 14.663522
57.565 14.762208
57.570 14.438202
57.575 13.99163
57.580 13.46036
57.585 13.942304
57.590 14.168985
57.595 14.132784
57.600 14.214789
57.605 13.800478
57.610 13.898464
57.615 13.950802
57.620 13.748913
57.625 14.00313
57.630 13.956837
57.635 13.723492
57.640 13.977573
57.645 13.881497
57.650 13.758874
57.655 13.803099
57.660 13.508023
57.665 13.459008
57.670 13.837616
57.675 13.759516
57.680 13.513279
57.685 13.663557
57.690 13.707276
57.695 14.032382
57.700 14.026496
57.705 13.927076
57.710 14.245512
57.715 14.587707
57.720 15.0142
57.725 14.881707
57.730 15.006335
57.735 15.252484
57.740 15.67793
57.745 16.341496
57.750 16.814381
57.755 16.477259
57.760 17.092268
57.765 17.29623
57.770 17.436678
57.775 16.575579
57.780 15.810878
57.785 15.135249
57.790 14.978072
57.795 14.568141
57.800 14.397718
57.805 14.36383
57.810 14.792361
57.815 15.472506
57.820 15.888635
57.825 15.666403
57.830 15.779776
57.835 15.768874
57.840 15.690681
57.845 16.232008
57.850 15.761296
57.855 15.346028
57.860 15.471655
57.865 15.705135
57.870 16.060863
57.875 15.998931
57.880 15.553705
57.885 15.163953
57.890 15.308219
57.895 15.023062
57.900 14.878644
57.905 14.960661
57.910 14.733004
57.915 14.660125
57.920 15.074983
57.925 15.266994
57.930 15.596966
57.935 15.846984
57.940 15.666466
57.945 15.761453
57.950 16.073523
57.955 15.900213
57.960 16.349535
57.965 16.394924
57.970 16.500547
57.975 16.355791
57.980 15.813256
57.985 15.855118
57.990 16.071537
57.995 15.704631
58.000 15.762603
58.005 15.333883
58.010 15.39979
58.015 15.869316
58.020 15.183124
58.025 14.596569
58.030 14.280756
58.035 14.321781
58.040 14.486011
58.045 14.865038
58.050 15.120645
58.055 15.797467
58.060 16.274162
58.065 16.172319
58.070 16.149092
58.075 15.957895
58.080 15.989479
58.085 15.850947
58.090 15.878515
58.095 15.4811
58.100 15.548379
58.105 15.704672
58.110 15.427895
58.115 15.354972
58.120 15.291795
58.125 15.369538
58.130 15.864499
58.135 16.630238
58.140 17.294909
58.145 17.689096
58.150 17.468042
58.155 17.108387
58.160 16.795223
58.165 16.555611
58.170 15.628426
58.175 14.71937
58.180 14.83443
58.185 15.135206
58.190 15.714779
58.195 16.276815
58.200 16.71117
58.205 17.351444
58.210 17.35899
58.215 16.936024
58.220 17.110052
58.225 17.44669
58.230 17.417826
58.235 17.481113
58.240 17.491737
58.245 17.835407
58.250 17.93433
58.255 17.301184
58.260 17.317888
58.265 17.175282
58.270 16.70619
58.275 16.450714
58.280 16.748053
58.285 17.442875
58.290 18.06601
58.295 17.535059
58.300 17.503466
58.305 17.782463
58.310 17.514107
58.315 17.156527
58.320 16.571293
58.325 16.55143
58.330 16.951466
58.335 17.143255
58.340 17.200788
58.345 17.742224
58.350 18.170605
58.355 18.632458
58.360 18.683992
58.365 18.577309
58.370 18.451672
58.375 19.116426
58.380 19.404732
58.385 19.848286
58.390 19.885202
58.395 20.082247
58.400 20.78002
58.405 21.120348
58.410 20.9179
58.415 21.466812
58.420 21.392756
58.425 21.441179
58.430 21.582258
58.435 21.519123
58.440 21.946077
58.445 22.464958
58.450 22.133709
58.455 21.711493
58.460 22.304445
58.465 22.456736
58.470 23.006954
58.475 23.21386
58.480 23.32053
58.485 23.965031
58.490 25.391119
