!@!!GADDS PLOTSO FILE: Chi integration type
!@!!Title/SampleName: map-94
!@!!Comment: ?
!@!!User: Bruker Instrument Administrator
!@!!Site: University of Illinois Chicago
!@!!Frame: map-94_01_000.gfrm
!@!!Wavelengths    1.54184   1.54056   1.54439
!@!!Frame angles: 2Theta: 63.000 Omega: 50.000 Phi: 0.000 Chi: 90.000
!@!!Integration range: 2Theta: 53.000 to 73.000  Gamma: -105.000 to -75.000
!@!!Integration method: bin normalized
!@!N
!@!SS
!@!M
!@!L 0.0 0.0 0.0 0.0
!@!XDegrees
!@!YCounts
53.000 8.113519
53.005 8.031637
53.010 7.78346
53.015 7.690019
53.020 7.926937
53.025 7.870679
53.030 7.950089
53.035 8.485798
53.040 8.638874
53.045 9.154241
53.050 8.882118
53.055 8.355152
53.060 8.12336
53.065 7.858748
53.070 7.633436
53.075 7.628093
53.080 7.561706
53.085 8.12589
53.090 8.664238
53.095 9.210209
53.100 9.362646
53.105 9.427476
53.110 9.495656
53.115 9.386947
53.120 9.378795
53.125 9.120987
53.130 8.894292
53.135 8.855094
53.140 8.97112
53.145 9.035789
53.150 9.848526
53.155 10.384296
53.160 10.155922
53.165 10.60579
53.170 10.573153
53.175 10.544801
53.180 10.479189
53.185 9.728075
53.190 9.831219
53.195 9.825674
53.200 9.623354
53.205 9.670836
53.210 9.423217
53.215 9.418314
53.220 9.431673
53.225 9.414559
53.230 9.164106
53.235 8.592081
53.240 8.279693
53.245 8.202798
53.250 7.394566
53.255 7.223931
53.260 7.321398
53.265 7.478715
53.270 7.796978
53.275 7.846798
53.280 7.969711
53.285 8.161997
53.290 8.274977
53.295 8.275376
53.300 8.690361
53.305 8.965818
53.310 9.463596
53.315 9.91138
53.320 9.49791
53.325 9.275347
53.330 9.41974
53.335 9.628174
53.340 9.630178
53.345 9.636993
53.350 9.579949
53.355 10.038007
53.360 10.36133
53.365 10.449537
53.370 10.221632
53.375 9.836039
53.380 9.717024
53.385 9.286454
53.390 9.084166
53.395 8.957994
53.400 8.274627
53.405 8.042743
53.410 8.227551
53.415 8.205694
53.420 8.795787
53.425 9.076499
53.430 9.407186
53.435 9.870929
53.440 9.741916
53.445 9.709597
53.450 9.617287
53.455 9.724864
53.460 9.601392
53.465 9.484377
53.470 9.257798
53.475 9.271952
53.480 8.948347
53.485 8.554588
53.490 7.882083
53.495 7.1061
53.500 6.567468
53.505 6.859533
53.510 7.348815
53.515 7.618611
53.520 8.15015
53.525 8.592478
53.530 9.464051
53.535 9.995557
53.540 10.002399
53.545 9.853933
53.550 9.939016
53.555 9.196459
53.560 8.778595
53.565 8.900398
53.570 9.005048
53.575 8.597895
53.580 8.53344
53.585 8.697662
53.590 9.334967
53.595 9.489521
53.600 8.947671
53.605 8.525323
53.610 8.342559
53.615 8.336174
53.620 8.582566
53.625 8.662429
53.630 9.419214
53.635 9.733231
53.640 10.328308
53.645 10.180466
53.650 10.368155
53.655 10.232856
53.660 9.834729
53.665 8.991957
53.670 8.771728
53.675 8.441843
53.680 8.333348
53.685 8.138241
53.690 8.935611
53.695 9.162206
53.700 9.419892
53.705 9.787166
53.710 10.253047
53.715 10.707618
53.720 10.551049
53.725 10.175312
53.730 10.284648
53.735 10.628039
53.740 10.354291
53.745 10.392327
53.750 10.062612
53.755 9.809181
53.760 9.567418
53.765 9.039479
53.770 8.999528
53.775 9.344767
53.780 9.424388
53.785 9.669413
53.790 9.82304
53.795 10.118631
53.800 10.56957
53.805 10.631555
53.810 10.443183
53.815 9.932258
53.820 9.540956
53.825 9.725832
53.830 9.682631
53.835 9.444623
53.840 9.427235
53.845 9.397671
53.850 10.035782
53.855 10.382494
53.860 10.673697
53.865 10.382513
53.870 9.947479
53.875 9.762462
53.880 9.992037
53.885 9.846118
53.890 9.80237
53.895 9.48486
53.900 10.00458
53.905 10.740088
53.910 10.527558
53.915 10.823218
53.920 11.048193
53.925 10.736457
53.930 10.904533
53.935 10.518989
53.940 10.334165
53.945 10.440121
53.950 10.399823
53.955 10.337694
53.960 10.462442
53.965 10.373006
53.970 10.487772
53.975 10.617742
53.980 10.595819
53.985 10.420617
53.990 10.305545
53.995 10.188277
54.000 9.922544
54.005 9.912517
54.010 10.002277
54.015 10.048668
54.020 9.844828
54.025 10.01275
54.030 10.281909
54.035 10.584816
54.040 11.008122
54.045 11.432643
54.050 11.322872
54.055 11.494322
54.060 11.692457
54.065 11.813854
54.070 11.853924
54.075 11.385413
54.080 11.003473
54.085 10.945745
54.090 11.02696
54.095 10.715656
54.100 10.501952
54.105 9.996511
54.110 9.923821
54.115 10.125764
54.120 9.750216
54.125 9.237926
54.130 9.560569
54.135 9.475956
54.140 9.883639
54.145 9.7693
54.150 9.629243
54.155 10.194149
54.160 10.588705
54.165 10.544266
54.170 10.529906
54.175 10.223961
54.180 10.032542
54.185 10.145738
54.190 10.168786
54.195 9.951286
54.200 9.593572
54.205 9.935525
54.210 10.498952
54.215 10.685902
54.220 10.833762
54.225 10.61181
54.230 10.971355
54.235 10.978873
54.240 10.614985
54.245 10.740957
54.250 10.840854
54.255 10.803486
54.260 10.819565
54.265 10.454401
54.270 10.55888
54.275 10.793217
54.280 10.835512
54.285 10.643343
54.290 10.482488
54.295 10.728233
54.300 10.884519
54.305 10.641453
54.310 10.159406
54.315 10.112751
54.320 10.145779
54.325 10.008343
54.330 10.091332
54.335 10.888496
54.340 11.211499
54.345 11.229939
54.350 10.842484
54.355 11.110949
54.360 10.927032
54.365 10.423858
54.370 10.351967
54.375 10.151026
54.380 10.043256
54.385 9.965441
54.390 9.950045
54.395 10.359797
54.400 10.7845
54.405 10.364114
54.410 10.49748
54.415 10.589626
54.420 10.498341
54.425 10.242282
54.430 9.644555
54.435 9.281877
54.440 9.683927
54.445 9.912502
54.450 10.397309
54.455 10.799833
54.460 11.128632
54.465 11.316481
54.470 10.816514
54.475 10.502934
54.480 9.703969
54.485 9.41918
54.490 9.502314
54.495 9.49398
54.500 9.688634
54.505 9.704319
54.510 10.362288
54.515 11.082885
54.520 11.248566
54.525 11.004217
54.530 11.034422
54.535 11.269255
54.540 11.296576
54.545 10.696923
54.550 10.184215
54.555 10.061152
54.560 10.05983
54.565 9.932121
54.570 9.778812
54.575 9.926864
54.580 10.471035
54.585 10.748507
54.590 11.336469
54.595 11.226727
54.600 11.42477
54.605 11.488153
54.610 11.126003
54.615 10.400214
54.620 9.800338
54.625 9.304611
54.630 9.34744
54.635 9.587717
54.640 9.718164
54.645 9.777353
54.650 10.222269
54.655 10.736057
54.660 10.852221
54.665 10.948858
54.670 10.49581
54.675 10.312562
54.680 9.978105
54.685 9.45156
54.690 9.370577
54.695 9.529174
54.700 9.275603
54.705 9.362124
54.710 10.01996
54.715 10.526198
54.720 10.745463
54.725 10.555911
54.730 10.652076
54.735 10.7722
54.740 10.958585
54.745 10.883493
54.750 10.85312
54.755 10.675793
54.760 10.633884
54.765 11.068547
54.770 11.093228
54.775 11.000952
54.780 10.992774
54.785 10.927853
54.790 11.116138
54.795 10.809531
54.800 10.280462
54.805 10.176904
54.810 9.957783
54.815 9.871359
54.820 10.013408
54.825 10.270844
54.830 10.39318
54.835 10.894498
54.840 11.40122
54.845 11.424865
54.850 11.43114
54.855 11.074609
54.860 10.857734
54.865 11.166886
54.870 10.50831
54.875 10.078188
54.880 10.583491
54.885 10.715158
54.890 10.936244
54.895 10.88777
54.900 10.693544
54.905 11.186042
54.910 10.950711
54.915 10.461441
54.920 10.684752
54.925 11.100941
54.930 11.463421
54.935 11.581898
54.940 11.599337
54.945 11.905728
54.950 11.9432
54.955 11.448991
54.960 11.195493
54.965 10.811295
54.970 10.59273
54.975 10.460057
54.980 10.258681
54.985 10.204017
54.990 10.504141
54.995 10.178558
55.000 9.930481
55.005 10.049915
55.010 9.842267
55.015 9.840344
55.020 9.660443
55.025 9.85613
55.030 10.171097
55.035 10.756835
55.040 10.582438
55.045 10.610942
55.050 10.980009
55.055 10.905015
55.060 10.921686
55.065 10.837733
55.070 10.938
55.075 11.630013
55.080 12.208592
55.085 11.880507
55.090 11.730575
55.095 11.224228
55.100 10.984269
55.105 10.721403
55.110 10.115665
55.115 10.163134
55.120 10.300508
55.125 10.238241
55.130 10.440088
55.135 10.525378
55.140 10.754639
55.145 10.953435
55.150 10.621412
55.155 10.477324
55.160 10.559647
55.165 10.299866
55.170 9.665389
55.175 9.134477
55.180 9.016744
55.185 9.07857
55.190 9.336905
55.195 9.568799
55.200 10.056506
55.205 10.793205
55.210 11.28865
55.215 11.655229
55.220 11.552315
55.225 11.460325
55.230 11.401293
55.235 11.059982
55.240 10.992741
55.245 10.881336
55.250 10.387882
55.255 11.033722
55.260 11.067029
55.265 10.925719
55.270 10.780975
55.275 10.399735
55.280 10.065807
55.285 10.428358
55.290 9.729862
55.295 9.599975
55.300 9.476575
55.305 9.524612
55.310 9.475423
55.315 9.873618
55.320 9.365484
55.325 9.830661
55.330 9.950215
55.335 9.809058
55.340 10.522855
55.345 10.770265
55.350 11.091228
55.355 11.765133
55.360 11.821599
55.365 12.153842
55.370 12.304049
55.375 12.194921
55.380 12.577874
55.385 12.01093
55.390 12.030172
55.395 12.062496
55.400 11.938524
55.405 11.917654
55.410 11.087665
55.415 10.931223
55.420 11.430276
55.425 11.007299
55.430 10.973889
55.435 10.9763
55.440 11.128608
55.445 11.315578
55.450 11.128329
55.455 11.026941
55.460 11.15516
55.465 11.108212
55.470 10.942483
55.475 10.802193
55.480 10.901745
55.485 10.508589
55.490 10.578349
55.495 10.284099
55.500 10.764487
55.505 10.845453
55.510 10.94949
55.515 10.918612
55.520 10.882537
55.525 11.315033
55.530 11.808955
55.535 11.436055
55.540 11.378585
55.545 11.44901
55.550 11.933043
55.555 11.956806
55.560 11.036622
55.565 10.686584
55.570 10.59031
55.575 10.612553
55.580 10.75745
55.585 10.857373
55.590 11.165497
55.595 11.489767
55.600 11.338057
55.605 11.493108
55.610 11.498896
55.615 10.998052
55.620 10.74239
55.625 10.107129
55.630 10.089133
55.635 10.250728
55.640 10.538711
55.645 10.679048
55.650 10.938626
55.655 11.135402
55.660 11.363005
55.665 11.635416
55.670 11.654839
55.675 11.252497
55.680 11.233034
55.685 11.126608
55.690 11.34424
55.695 11.542995
55.700 12.022751
55.705 12.43032
55.710 12.674601
55.715 12.69222
55.720 12.425076
55.725 11.922731
55.730 11.686037
55.735 10.743773
55.740 11.118665
55.745 11.206299
55.750 11.559394
55.755 11.568853
55.760 11.73724
55.765 11.836162
55.770 11.518461
55.775 11.432978
55.780 11.501349
55.785 11.177466
55.790 11.277206
55.795 11.05535
55.800 10.948524
55.805 10.520977
55.810 9.85345
55.815 10.149949
55.820 10.056267
55.825 10.339003
55.830 10.585887
55.835 10.982373
55.840 11.475194
55.845 11.52558
55.850 11.353257
55.855 11.825267
55.860 11.916749
55.865 11.951999
55.870 12.042207
55.875 12.009611
55.880 12.234204
55.885 12.366433
55.890 12.3867
55.895 12.369631
55.900 12.355709
55.905 12.664752
55.910 12.997743
55.915 13.041496
55.920 12.862475
55.925 12.855303
55.930 12.868067
55.935 12.922383
55.940 13.058081
55.945 13.040442
55.950 12.644213
55.955 12.618052
55.960 12.509857
55.965 12.406015
55.970 12.681085
55.975 11.918976
55.980 12.073743
55.985 12.022664
55.990 11.710447
55.995 11.488608
56.000 11.250794
56.005 10.93341
56.010 10.690492
56.015 10.327492
56.020 10.608001
56.025 10.891656
56.030 11.195037
56.035 11.619568
56.040 11.802698
56.045 12.034532
56.050 12.115831
56.055 12.343325
56.060 12.195787
56.065 12.145577
56.070 12.004945
56.075 12.164022
56.080 12.625493
56.085 12.831978
56.090 12.527529
56.095 12.93082
56.100 12.889162
56.105 12.852734
56.110 12.398071
56.115 11.561252
56.120 11.099117
56.125 11.18364
56.130 11.002203
56.135 11.120279
56.140 11.539944
56.145 12.093865
56.150 12.872813
56.155 13.689021
56.160 13.429737
56.165 13.253392
56.170 13.515295
56.175 12.975474
56.180 12.618615
56.185 12.091138
56.190 11.95058
56.195 12.174812
56.200 12.253969
56.205 11.828046
56.210 11.642315
56.215 11.480725
56.220 11.483815
56.225 11.089849
56.230 10.804836
56.235 10.772968
56.240 11.003791
56.245 11.705424
56.250 12.0385
56.255 12.272331
56.260 12.741794
56.265 13.171341
56.270 13.253066
56.275 12.854975
56.280 12.606164
56.285 12.752468
56.290 12.549887
56.295 12.822851
56.300 12.178101
56.305 12.297601
56.310 12.183803
56.315 11.725729
56.320 11.313247
56.325 10.842504
56.330 10.526785
56.335 11.105378
56.340 11.431254
56.345 12.265903
56.350 12.769031
56.355 12.893707
56.360 13.001353
56.365 12.797942
56.370 12.566854
56.375 12.551242
56.380 12.393544
56.385 12.39655
56.390 12.399089
56.395 12.722783
56.400 13.028119
56.405 13.061456
56.410 13.021476
56.415 12.498491
56.420 12.522744
56.425 12.967818
56.430 12.978793
56.435 12.826362
56.440 12.629231
56.445 12.55498
56.450 12.55256
56.455 12.182549
56.460 12.102913
56.465 12.428104
56.470 12.684926
56.475 13.299664
56.480 13.51986
56.485 13.666038
56.490 14.08664
56.495 13.331516
56.500 12.97376
56.505 12.380377
56.510 11.328269
56.515 11.135818
56.520 11.467188
56.525 11.43303
56.530 11.690835
56.535 11.677823
56.540 11.992882
56.545 12.342252
56.550 12.30381
56.555 11.847569
56.560 12.033753
56.565 12.421596
56.570 12.468298
56.575 12.090708
56.580 12.242893
56.585 12.321079
56.590 12.16295
56.595 11.902767
56.600 11.531084
56.605 11.738868
56.610 11.538412
56.615 11.371463
56.620 11.255738
56.625 11.232218
56.630 11.468482
56.635 11.278966
56.640 11.084686
56.645 11.106547
56.650 11.391569
56.655 11.61239
56.660 11.910642
56.665 11.810996
56.670 12.718666
56.675 13.066854
56.680 13.404979
56.685 13.365332
56.690 13.36964
56.695 13.240676
56.700 12.714094
56.705 12.503929
56.710 12.429223
56.715 12.345319
56.720 12.245927
56.725 12.180049
56.730 12.404124
56.735 13.049306
56.740 13.452703
56.745 13.806074
56.750 14.004108
56.755 14.021686
56.760 14.506248
56.765 14.687056
56.770 14.102116
56.775 13.502173
56.780 12.867133
56.785 12.85767
56.790 12.389785
56.795 12.115778
56.800 12.229189
56.805 12.189059
56.810 12.916568
56.815 13.415286
56.820 13.290694
56.825 13.514359
56.830 13.408484
56.835 13.439215
56.840 13.237167
56.845 12.401386
56.850 12.351481
56.855 12.123983
56.860 12.304096
56.865 12.353671
56.870 12.13204
56.875 12.48873
56.880 12.789707
56.885 12.966053
56.890 13.292626
56.895 13.096248
56.900 12.854543
56.905 13.294971
56.910 13.64717
56.915 13.873652
56.920 13.892544
56.925 13.821622
56.930 14.029771
56.935 14.155853
56.940 13.725272
56.945 13.298977
56.950 13.121817
56.955 13.12677
56.960 13.058373
56.965 13.297174
56.970 13.212492
56.975 13.379212
56.980 13.182375
56.985 13.204416
56.990 13.256382
56.995 13.390571
57.000 13.593627
57.005 13.16511
57.010 12.700891
57.015 12.687884
57.020 12.778717
57.025 12.984798
57.030 12.585407
57.035 12.628481
57.040 13.301831
57.045 13.5207
57.050 13.636329
57.055 13.664582
57.060 13.866266
57.065 13.693191
57.070 13.163615
57.075 12.389243
57.080 12.601389
57.085 11.988591
57.090 11.477861
57.095 11.226431
57.100 11.307818
57.105 11.62197
57.110 12.271275
57.115 12.327322
57.120 12.950116
57.125 12.989721
57.130 12.593363
57.135 12.727837
57.140 12.281498
57.145 11.795536
57.150 11.497069
57.155 11.153662
57.160 11.917848
57.165 12.412846
57.170 12.513762
57.175 12.917255
57.180 13.246331
57.185 13.981537
57.190 14.362264
57.195 14.627095
57.200 14.577201
57.205 14.725496
57.210 15.113687
57.215 14.938728
57.220 14.924918
57.225 15.418756
57.230 14.746288
57.235 14.940011
57.240 14.557717
57.245 13.894979
57.250 13.846077
57.255 13.56738
57.260 13.05912
57.265 13.267371
57.270 12.98686
57.275 13.448042
57.280 14.095065
57.285 14.081479
57.290 13.988395
57.295 14.19655
57.300 14.331558
57.305 14.537621
57.310 14.805775
57.315 15.176475
57.320 15.318772
57.325 15.09985
57.330 14.447845
57.335 14.383336
57.340 13.862943
57.345 13.038012
57.350 12.201827
57.355 12.301965
57.360 12.161006
57.365 12.473581
57.370 12.83443
57.375 13.471467
57.380 13.968464
57.385 14.090276
57.390 13.997433
57.395 14.258714
57.400 14.183748
57.405 13.790648
57.410 13.51879
57.415 13.626795
57.420 13.417646
57.425 13.277525
57.430 12.999104
57.435 12.819919
57.440 13.047581
57.445 12.700787
57.450 13.253865
57.455 13.399834
57.460 13.477855
57.465 14.104188
57.470 14.225547
57.475 13.947898
57.480 14.047348
57.485 13.397062
57.490 13.150623
57.495 13.287561
57.500 12.976551
57.505 12.633307
57.510 12.991322
57.515 12.83887
57.520 12.840893
57.525 13.206482
57.530 13.02897
57.535 13.126687
57.540 13.27789
57.545 13.560872
57.550 14.500193
57.555 14.992619
57.560 14.889923
57.565 15.015688
57.570 15.11348
57.575 15.203675
57.580 14.778263
57.585 13.993148
57.590 13.905475
57.595 14.09796
57.600 13.663936
57.605 13.427797
57.610 13.124804
57.615 13.364309
57.620 13.362943
57.625 13.209306
57.630 13.066257
57.635 13.288903
57.640 12.933404
57.645 12.949087
57.650 12.542274
57.655 12.815656
57.660 12.984864
57.665 13.051388
57.670 12.938936
57.675 13.198738
57.680 13.653358
57.685 14.052174
57.690 13.825637
57.695 14.361739
57.700 14.618044
57.705 14.988208
57.710 15.637053
57.715 15.682479
57.720 16.135969
57.725 16.164707
57.730 15.906721
57.735 16.809422
57.740 16.917095
57.745 16.413511
57.750 16.261486
57.755 15.914206
57.760 15.932923
57.765 16.042709
57.770 15.348276
57.775 15.603265
57.780 15.481172
57.785 15.484938
57.790 15.610337
57.795 15.343471
57.800 14.767623
57.805 14.150792
57.810 13.560802
57.815 13.403456
57.820 13.304392
57.825 13.229667
57.830 13.422343
57.835 14.200297
57.840 15.097333
57.845 15.108524
57.850 14.345374
57.855 13.752867
57.860 13.542591
57.865 13.312057
57.870 12.659245
57.875 12.102647
57.880 12.256329
57.885 13.093301
57.890 14.119041
57.895 14.172732
57.900 14.340075
57.905 14.479045
57.910 14.408409
57.915 14.822878
57.920 15.069659
57.925 14.853741
57.930 15.349819
57.935 15.820488
57.940 15.867006
57.945 16.078875
57.950 16.408392
57.955 15.752785
57.960 15.324878
57.965 15.370596
57.970 15.066267
57.975 15.062701
57.980 14.766608
57.985 14.783255
57.990 15.40079
57.995 15.613657
58.000 15.484859
58.005 15.528942
58.010 15.914518
58.015 15.761216
58.020 15.248332
58.025 15.236203
58.030 15.546263
58.035 15.522421
58.040 15.764309
58.045 15.971029
58.050 17.126951
58.055 17.786478
58.060 18.100164
58.065 17.815701
58.070 17.758024
58.075 17.033163
58.080 17.037685
58.085 16.939407
58.090 16.199459
58.095 15.766243
58.100 15.736961
58.105 16.1548
58.110 16.571913
58.115 15.984948
58.120 15.335509
58.125 15.753103
58.130 15.812049
58.135 16.604172
58.140 16.976797
58.145 17.457321
58.150 17.456242
58.155 17.666929
58.160 18.026793
58.165 18.126266
58.170 17.577364
58.175 17.01277
58.180 16.720398
58.185 16.873646
58.190 16.288776
58.195 15.613255
58.200 15.489642
58.205 15.755864
58.210 15.9337
58.215 16.251663
58.220 16.76721
58.225 17.704725
58.230 17.843788
58.235 18.0271
58.240 18.237474
58.245 17.988688
58.250 17.062685
58.255 16.579735
58.260 16.367437
58.265 16.527205
58.270 16.026005
58.275 15.363055
58.280 15.174232
58.285 15.400943
58.290 15.553477
58.295 15.640102
58.300 15.880853
58.305 16.386436
58.310 16.911724
58.315 18.069605
58.320 19.03145
58.325 19.441687
58.330 19.82078
58.335 19.922152
58.340 19.181192
58.345 18.695116
58.350 18.5389
58.355 18.769529
58.360 18.498701
58.365 18.069458
58.370 18.267855
58.375 18.690586
58.380 19.156225
58.385 19.413076
58.390 19.21891
58.395 19.572908
58.400 20.013157
58.405 20.530642
58.410 21.216461
58.415 20.962536
58.420 21.602688
58.425 21.520027
58.430 21.116102
58.435 21.232986
58.440 21.197462
58.445 21.186705
58.450 21.287689
58.455 20.65712
58.460 21.640415
58.465 22.517294
58.470 22.413525
58.475 22.408951
58.480 23.058067
58.485 23.698799
58.490 24.031137
58.495 23.876415
58.500 23.201689
