!@!!GADDS PLOTSO FILE: Chi integration type
!@!!Title/SampleName: map-16
!@!!Comment: ?
!@!!User: Bruker Instrument Administrator
!@!!Site: University of Illinois Chicago
!@!!Frame: map-16_01_000.gfrm
!@!!Wavelengths    1.54184   1.54056   1.54439
!@!!Frame angles: 2Theta: 63.000 Omega: 50.000 Phi: 0.000 Chi: 90.000
!@!!Integration range: 2Theta: 53.000 to 73.000  Gamma: -105.000 to -75.000
!@!!Integration method: bin normalized
!@!N
!@!SS
!@!M
!@!L 0.0 0.0 0.0 0.0
!@!XDegrees
!@!YCounts
53.000 6.629708
53.005 6.788686
53.010 6.836334
53.015 6.764271
53.020 6.646695
53.025 6.288007
53.030 5.822319
53.035 5.800253
53.040 5.848488
53.045 5.452396
53.050 5.912848
53.055 6.328247
53.060 6.882261
53.065 7.21888
53.070 7.087309
53.075 7.339332
53.080 7.720263
53.085 7.449416
53.090 7.251254
53.095 7.066264
53.100 7.330399
53.105 7.917942
53.110 8.228527
53.115 8.462118
53.120 8.09834
53.125 8.2043
53.130 7.966762
53.135 7.424707
53.140 6.712952
53.145 5.919156
53.150 5.418104
53.155 5.387174
53.160 5.568202
53.165 5.835473
53.170 5.895714
53.175 5.901953
53.180 6.171047
53.185 6.429857
53.190 6.316361
53.195 6.167723
53.200 6.270358
53.205 6.117992
53.210 6.088966
53.215 6.281467
53.220 7.196082
53.225 7.628712
53.230 7.73686
53.235 7.957286
53.240 8.274418
53.245 8.537362
53.250 8.1325
53.255 7.251803
53.260 7.034045
53.265 6.885073
53.270 7.127882
53.275 7.27922
53.280 7.347011
53.285 7.487942
53.290 7.772951
53.295 7.82348
53.300 7.706196
53.305 7.880342
53.310 7.853171
53.315 7.486606
53.320 6.951587
53.325 6.42733
53.330 6.591121
53.335 6.336857
53.340 6.155078
53.345 6.200925
53.350 6.619259
53.355 6.802096
53.360 7.032641
53.365 7.01781
53.370 7.139038
53.375 6.961679
53.380 6.690904
53.385 6.482052
53.390 6.714468
53.395 7.249958
53.400 7.064916
53.405 6.779577
53.410 6.782934
53.415 6.885152
53.420 7.095094
53.425 7.004369
53.430 6.760322
53.435 6.934481
53.440 7.000935
53.445 7.060352
53.450 6.822032
53.455 6.456758
53.460 6.142135
53.465 5.937115
53.470 5.760065
53.475 5.701819
53.480 5.988991
53.485 6.256888
53.490 6.956506
53.495 7.177839
53.500 7.201352
53.505 7.534651
53.510 7.706492
53.515 7.862532
53.520 8.017774
53.525 7.904462
53.530 7.789455
53.535 7.972528
53.540 7.897809
53.545 7.747137
53.550 7.836621
53.555 7.393727
53.560 7.394838
53.565 7.837374
53.570 7.740359
53.575 7.840957
53.580 7.668457
53.585 7.549996
53.590 8.151472
53.595 7.718828
53.600 7.517571
53.605 7.56438
53.610 7.752813
53.615 8.120002
53.620 7.789349
53.625 7.651366
53.630 8.131056
53.635 7.978621
53.640 7.836783
53.645 7.666924
53.650 7.458941
53.655 7.575547
53.660 7.440933
53.665 7.61736
53.670 7.891705
53.675 7.457995
53.680 6.918242
53.685 6.930715
53.690 7.362743
53.695 7.35495
53.700 7.232736
53.705 7.099911
53.710 7.58035
53.715 7.770633
53.720 7.671747
53.725 7.250247
53.730 7.208809
53.735 6.843851
53.740 7.057985
53.745 6.865854
53.750 7.059932
53.755 7.456746
53.760 7.676982
53.765 7.707787
53.770 8.067291
53.775 7.918611
53.780 7.928294
53.785 7.800685
53.790 7.538174
53.795 7.415783
53.800 7.618892
53.805 7.360734
53.810 7.734664
53.815 7.858778
53.820 8.024812
53.825 8.179002
53.830 8.152477
53.835 8.022727
53.840 8.044484
53.845 8.148968
53.850 7.777532
53.855 7.686092
53.860 7.748316
53.865 7.736311
53.870 7.990112
53.875 7.902976
53.880 7.716029
53.885 7.972963
53.890 7.965156
53.895 7.823999
53.900 7.56484
53.905 7.670159
53.910 7.523331
53.915 7.6723
53.920 7.910902
53.925 7.917769
53.930 7.847981
53.935 7.771404
53.940 7.983389
53.945 8.009416
53.950 7.86793
53.955 7.357277
53.960 7.418449
53.965 7.280294
53.970 7.010612
53.975 7.032027
53.980 7.243126
53.985 7.278722
53.990 7.364257
53.995 7.382796
54.000 7.622151
54.005 7.618292
54.010 7.542005
54.015 7.522221
54.020 7.697237
54.025 7.851824
54.030 7.744502
54.035 7.698236
54.040 7.642282
54.045 7.803656
54.050 8.369132
54.055 8.365428
54.060 8.086598
54.065 8.445658
54.070 8.772121
54.075 9.133657
54.080 9.155754
54.085 9.174686
54.090 9.331946
54.095 9.260408
54.100 8.738116
54.105 8.33182
54.110 7.92697
54.115 7.405875
54.120 7.285292
54.125 6.975368
54.130 7.013967
54.135 7.907047
54.140 8.415639
54.145 8.584879
54.150 8.827493
54.155 8.93028
54.160 9.374768
54.165 9.650639
54.170 8.991796
54.175 8.536239
54.180 8.477886
54.185 8.498801
54.190 8.143934
54.195 7.754671
54.200 8.040056
54.205 8.559629
54.210 8.834799
54.215 8.676202
54.220 8.685261
54.225 8.948892
54.230 8.845181
54.235 8.943835
54.240 8.986765
54.245 8.617502
54.250 8.700513
54.255 8.944301
54.260 9.172886
54.265 9.516493
54.270 9.182984
54.275 9.166609
54.280 9.108693
54.285 9.20535
54.290 9.227108
54.295 8.850054
54.300 8.21978
54.305 8.014152
54.310 7.739554
54.315 8.165838
54.320 7.664861
54.325 7.295975
54.330 7.48288
54.335 7.336239
54.340 7.015087
54.345 7.240832
54.350 6.784159
54.355 7.234677
54.360 7.544042
54.365 7.553554
54.370 8.016005
54.375 8.361375
54.380 8.571995
54.385 8.541199
54.390 8.270403
54.395 7.994108
54.400 8.166392
54.405 8.246572
54.410 8.402228
54.415 8.016643
54.420 8.260448
54.425 8.401378
54.430 8.317786
54.435 8.352649
54.440 8.236494
54.445 7.812125
54.450 7.831928
54.455 7.480384
54.460 7.40297
54.465 7.534972
54.470 7.443516
54.475 7.902822
54.480 8.198645
54.485 8.025991
54.490 7.977776
54.495 8.357818
54.500 8.170496
54.505 7.75811
54.510 7.401189
54.515 7.544565
54.520 7.698606
54.525 7.870205
54.530 7.833634
54.535 8.305779
54.540 8.438278
54.545 8.266519
54.550 8.492662
54.555 9.02009
54.560 9.06137
54.565 8.989681
54.570 8.816247
54.575 9.099188
54.580 9.02506
54.585 8.550577
54.590 8.19481
54.595 8.03868
54.600 7.92956
54.605 7.759432
54.610 7.763689
54.615 7.94272
54.620 8.00269
54.625 7.954297
54.630 8.498627
54.635 8.890365
54.640 9.091549
54.645 9.099264
54.650 9.218132
54.655 9.617692
54.660 9.613345
54.665 9.102242
54.670 9.246716
54.675 9.362091
54.680 9.653707
54.685 10.046576
54.690 10.001626
54.695 9.702585
54.700 9.587391
54.705 9.480066
54.710 9.568805
54.715 9.890094
54.720 9.471201
54.725 9.592686
54.730 10.183505
54.735 9.968585
54.740 9.367189
54.745 8.833463
54.750 8.654593
54.755 8.543595
54.760 8.345919
54.765 8.230656
54.770 8.520154
54.775 8.910266
54.780 8.789133
54.785 8.381876
54.790 8.333916
54.795 8.229879
54.800 8.100829
54.805 8.068123
54.810 7.719119
54.815 7.252635
54.820 7.051965
54.825 6.86384
54.830 7.232155
54.835 7.53003
54.840 7.937284
54.845 8.427883
54.850 9.286913
54.855 10.015182
54.860 10.3204
54.865 9.933788
54.870 9.651571
54.875 9.821733
54.880 10.002766
54.885 9.690762
54.890 9.790741
54.895 10.047032
54.900 9.98166
54.905 9.67685
54.910 9.204216
54.915 9.164793
54.920 9.194901
54.925 8.847346
54.930 8.460559
54.935 8.590295
54.940 8.852599
54.945 8.637875
54.950 8.583323
54.955 8.578598
54.960 8.673156
54.965 8.875495
54.970 8.828914
54.975 8.581935
54.980 8.688767
54.985 8.902476
54.990 8.65269
54.995 9.053002
55.000 9.508356
55.005 9.565816
55.010 9.714062
55.015 9.965495
55.020 10.3358
55.025 10.419171
55.030 10.003466
55.035 10.07919
55.040 10.260631
55.045 10.051949
55.050 9.761498
55.055 10.070936
55.060 10.335166
55.065 9.810862
55.070 9.441233
55.075 9.498528
55.080 9.987179
55.085 9.814342
55.090 9.412811
55.095 9.43726
55.100 9.660501
55.105 9.591941
55.110 9.602242
55.115 9.520077
55.120 9.372563
55.125 9.130608
55.130 9.38695
55.135 9.842201
55.140 9.954945
55.145 10.033687
55.150 9.56359
55.155 9.865592
55.160 9.303752
55.165 8.949798
55.170 8.780367
55.175 8.542036
55.180 8.261513
55.185 8.413446
55.190 8.323262
55.195 8.961802
55.200 9.418407
55.205 9.125078
55.210 9.212782
55.215 9.264479
55.220 9.45858
55.225 9.507777
55.230 9.129669
55.235 8.641563
55.240 8.947021
55.245 9.481311
55.250 9.837609
55.255 9.685705
55.260 9.467666
55.265 9.96361
55.270 9.889966
55.275 9.808425
55.280 9.663375
55.285 9.338333
55.290 9.24249
55.295 9.353672
55.300 9.4759
55.305 9.707444
55.310 9.870225
55.315 9.955492
55.320 10.049459
55.325 10.345181
55.330 10.233267
55.335 10.457722
55.340 10.555223
55.345 10.223847
55.350 10.345366
55.355 10.643344
55.360 10.96976
55.365 10.735655
55.370 10.127976
55.375 9.644704
55.380 9.675496
55.385 9.389434
55.390 9.482022
55.395 9.212121
55.400 9.43805
55.405 9.463192
55.410 9.593388
55.415 9.452159
55.420 9.24296
55.425 9.454834
55.430 9.616781
55.435 9.518004
55.440 9.752447
55.445 9.85488
55.450 10.017608
55.455 9.858121
55.460 9.896438
55.465 10.417984
55.470 10.33063
55.475 10.312352
55.480 9.988082
55.485 9.864066
55.490 9.678947
55.495 8.337426
55.500 8.603261
55.505 9.209488
55.510 9.640774
55.515 9.777371
55.520 9.820727
55.525 10.258327
55.530 10.545484
55.535 10.164374
55.540 9.556274
55.545 8.839298
55.550 8.630544
55.555 9.126817
55.560 9.349999
55.565 9.298952
55.570 8.849996
55.575 8.705659
55.580 9.20017
55.585 9.308002
55.590 8.801771
55.595 8.653661
55.600 8.684807
55.605 8.916219
55.610 8.96776
55.615 9.155681
55.620 9.255909
55.625 9.329264
55.630 10.157866
55.635 10.953377
55.640 11.039074
55.645 10.91954
55.650 11.120845
55.655 11.257052
55.660 10.842894
55.665 9.740117
55.670 8.752335
55.675 8.36819
55.680 8.47371
55.685 8.454363
55.690 8.511744
55.695 8.570376
55.700 8.907855
55.705 9.076215
55.710 9.773336
55.715 10.081457
55.720 9.817017
55.725 10.120366
55.730 10.671319
55.735 10.854049
55.740 11.093041
55.745 11.204673
55.750 11.010694
55.755 10.871625
55.760 10.884877
55.765 10.670389
55.770 10.710954
55.775 10.764849
55.780 10.180953
55.785 10.023234
55.790 9.847319
55.795 9.779367
55.800 9.806823
55.805 9.669525
55.810 9.797935
55.815 10.44465
55.820 10.920372
55.825 10.806038
55.830 10.584144
55.835 10.621632
55.840 10.419428
55.845 10.045135
55.850 9.628943
55.855 9.456491
55.860 9.507529
55.865 9.459315
55.870 9.37379
55.875 9.604749
55.880 9.859871
55.885 10.006232
55.890 9.916745
55.895 9.726915
55.900 9.52177
55.905 9.159881
55.910 9.560008
55.915 9.424066
55.920 9.396253
55.925 9.443825
55.930 9.733555
55.935 10.096602
55.940 10.645205
55.945 10.718799
55.950 10.948032
55.955 11.117166
55.960 11.073695
55.965 11.053695
55.970 10.849222
55.975 10.837725
55.980 10.494791
55.985 10.427001
55.990 9.837502
55.995 10.038726
56.000 10.51043
56.005 10.739944
56.010 10.509773
56.015 10.430002
56.020 10.538885
56.025 10.759336
56.030 10.936917
56.035 10.65228
56.040 10.269624
56.045 10.069987
56.050 10.354168
56.055 10.191222
56.060 10.020806
56.065 9.53978
56.070 9.680161
56.075 9.658639
56.080 10.198406
56.085 9.92978
56.090 9.727033
56.095 9.520207
56.100 9.341056
56.105 9.334373
56.110 9.411062
56.115 8.963925
56.120 9.500888
56.125 9.968046
56.130 10.174126
56.135 10.238971
56.140 9.901435
56.145 10.498441
56.150 10.464331
56.155 10.110668
56.160 10.275266
56.165 10.317625
56.170 10.398746
56.175 10.315921
56.180 9.962602
56.185 10.43636
56.190 10.428197
56.195 10.080792
56.200 10.269341
56.205 10.917583
56.210 11.034236
56.215 10.78237
56.220 11.087068
56.225 11.524081
56.230 12.098313
56.235 12.220777
56.240 11.902451
56.245 11.989584
56.250 11.777046
56.255 11.450354
56.260 11.239858
56.265 10.750163
56.270 10.365961
56.275 10.247749
56.280 10.458844
56.285 10.919503
56.290 10.477714
56.295 10.613264
56.300 10.716029
56.305 10.587569
56.310 10.523639
56.315 9.978699
56.320 9.355474
56.325 9.550372
56.330 9.229424
56.335 9.384712
56.340 9.401109
56.345 9.6599
56.350 9.860563
56.355 9.855034
56.360 9.793897
56.365 10.000731
56.370 9.811567
56.375 9.965636
56.380 10.012076
56.385 10.445374
56.390 10.962308
56.395 11.135472
56.400 11.174104
56.405 11.800662
56.410 12.166746
56.415 12.326278
56.420 12.484099
56.425 12.260732
56.430 12.728045
56.435 12.834551
56.440 12.649044
56.445 12.500558
56.450 12.244367
56.455 11.596328
56.460 11.887912
56.465 11.614863
56.470 11.509489
56.475 11.153815
56.480 11.353301
56.485 11.326276
56.490 11.732223
56.495 11.517754
56.500 11.727932
56.505 12.3402
56.510 12.113006
56.515 11.840508
56.520 12.324729
56.525 12.423283
56.530 12.403795
56.535 12.072018
56.540 11.773545
56.545 12.186578
56.550 11.586572
56.555 10.46183
56.560 10.2982
56.565 9.859322
56.570 9.770113
56.575 9.419391
56.580 9.322306
56.585 9.834332
56.590 10.749807
56.595 10.90258
56.600 10.916919
56.605 10.81685
56.610 11.23895
56.615 11.43354
56.620 11.279904
56.625 10.684961
56.630 11.004609
56.635 11.224755
56.640 11.030722
56.645 11.097445
56.650 11.223177
56.655 11.771406
56.660 11.690411
56.665 11.525451
56.670 11.685029
56.675 11.828013
56.680 10.979889
56.685 10.945314
56.690 11.174643
56.695 11.503255
56.700 11.260429
56.705 11.09142
56.710 11.226638
56.715 11.802731
56.720 11.657849
56.725 11.769402
56.730 11.487004
56.735 11.689348
56.740 11.843437
56.745 11.987979
56.750 12.265396
56.755 11.924313
56.760 12.108595
56.765 12.943782
56.770 13.255744
56.775 13.51866
56.780 13.495571
56.785 13.036451
56.790 13.223262
56.795 12.793306
56.800 12.096741
56.805 11.545858
56.810 11.059312
56.815 11.097859
56.820 11.373393
56.825 11.211102
56.830 11.557252
56.835 11.891419
56.840 12.376524
56.845 12.728333
56.850 12.246261
56.855 12.584263
56.860 12.735582
56.865 12.235402
56.870 12.445107
56.875 12.164678
56.880 11.85587
56.885 12.190915
56.890 11.953638
56.895 11.83848
56.900 11.420217
56.905 10.929358
56.910 10.974318
56.915 11.155663
56.920 10.808494
56.925 10.332952
56.930 10.304323
56.935 10.666861
56.940 10.568014
56.945 10.439908
56.950 10.453436
56.955 10.694022
56.960 11.195244
56.965 11.173667
56.970 10.90949
56.975 11.105071
56.980 11.068399
56.985 10.771229
56.990 10.798277
56.995 11.247839
57.000 11.823641
57.005 12.095414
57.010 12.190466
57.015 12.345797
57.020 12.655684
57.025 12.764708
57.030 12.195246
57.035 12.252752
57.040 12.652134
57.045 12.734134
57.050 12.280012
57.055 12.078659
57.060 11.819645
57.065 11.849748
57.070 11.231072
57.075 10.626207
57.080 11.072217
57.085 11.133986
57.090 10.920431
57.095 10.867709
57.100 11.025836
57.105 11.660614
57.110 11.959415
57.115 11.903282
57.120 12.499576
57.125 12.873693
57.130 13.034205
57.135 12.926494
57.140 13.078169
57.145 12.88342
57.150 12.60352
57.155 12.516259
57.160 12.3071
57.165 12.462728
57.170 12.679798
57.175 12.246332
57.180 12.762219
57.185 12.659516
57.190 12.62031
57.195 12.701671
57.200 12.250031
57.205 11.974257
57.210 12.361753
57.215 12.270493
57.220 12.544037
57.225 12.649888
57.230 12.820565
57.235 12.946594
57.240 12.711617
57.245 11.849792
57.250 11.488792
57.255 11.785658
57.260 11.96386
57.265 12.22169
57.270 12.540937
57.275 12.771997
57.280 13.333168
57.285 13.070969
57.290 12.359718
57.295 12.199192
57.300 11.875583
57.305 11.768166
57.310 11.866658
57.315 11.859144
57.320 11.760682
57.325 12.57711
57.330 12.769607
57.335 12.777216
57.340 12.706569
57.345 12.240355
57.350 12.6795
57.355 12.881322
57.360 12.633973
57.365 12.644337
57.370 12.475442
57.375 12.698429
57.380 12.948102
57.385 12.748175
57.390 12.32303
57.395 12.051435
57.400 12.182049
57.405 12.284021
57.410 12.641758
57.415 12.872757
57.420 12.622029
57.425 12.869123
57.430 12.891828
57.435 12.797972
57.440 13.023124
57.445 12.780831
57.450 12.702417
57.455 12.85346
57.460 12.596418
57.465 12.594111
57.470 12.60342
57.475 12.204215
57.480 12.090166
57.485 12.179849
57.490 12.209699
57.495 12.772726
57.500 12.565214
57.505 12.458561
57.510 12.286412
57.515 12.287759
57.520 12.325844
57.525 12.470704
57.530 12.11249
57.535 12.165829
57.540 12.177443
57.545 12.383297
57.550 12.556343
57.555 12.866665
57.560 13.24146
57.565 13.212102
57.570 13.076015
57.575 13.620927
57.580 13.522462
57.585 13.216222
57.590 12.7559
57.595 12.689156
57.600 13.320889
57.605 13.122738
57.610 12.794218
57.615 12.954632
57.620 13.026558
57.625 12.585783
57.630 12.53174
57.635 12.212002
57.640 12.43754
57.645 12.058317
57.650 12.29247
57.655 12.314095
57.660 11.919959
57.665 11.799901
57.670 11.269676
57.675 11.523932
57.680 11.689416
57.685 11.676428
57.690 11.799922
57.695 12.428182
57.700 12.497083
57.705 12.493771
57.710 12.211949
57.715 12.161297
57.720 12.242045
57.725 12.386657
57.730 12.247809
57.735 12.257823
57.740 12.661491
57.745 12.874777
57.750 13.222844
57.755 13.171121
57.760 13.364536
57.765 13.415223
57.770 13.339326
57.775 13.019471
57.780 12.330227
57.785 12.232904
57.790 12.226683
57.795 11.823405
57.800 11.535048
57.805 11.672991
57.810 12.366453
57.815 12.932377
57.820 12.716041
57.825 12.877396
57.830 13.33026
57.835 13.575325
57.840 13.809991
57.845 13.616425
57.850 13.638894
57.855 13.807452
57.860 13.323406
57.865 12.97309
57.870 13.074766
57.875 12.655663
57.880 12.68772
57.885 12.594707
57.890 12.577502
57.895 12.821966
57.900 12.977912
57.905 13.394369
57.910 13.493511
57.915 13.078966
57.920 13.28249
57.925 13.263781
57.930 13.722739
57.935 13.857833
57.940 13.813717
57.945 13.886263
57.950 14.072912
57.955 13.686986
57.960 13.220591
57.965 12.811933
57.970 12.566718
57.975 11.86528
57.980 11.888165
57.985 11.969564
57.990 12.553986
57.995 12.988043
58.000 12.976952
58.005 13.626386
58.010 14.33019
58.015 14.518698
58.020 13.99713
58.025 13.444366
58.030 13.073227
58.035 12.844221
58.040 12.346116
58.045 11.522804
58.050 11.042759
58.055 11.615033
58.060 11.852281
58.065 12.363976
58.070 12.427673
58.075 11.857245
58.080 12.992886
58.085 13.8315
58.090 13.598643
58.095 13.142389
58.100 12.870368
58.105 12.883936
58.110 13.263287
58.115 12.45508
58.120 12.286472
58.125 12.225977
58.130 12.336123
58.135 12.513697
58.140 12.915491
58.145 13.190083
58.150 13.216758
58.155 13.124884
58.160 13.387891
58.165 13.226723
58.170 13.156182
58.175 13.00316
58.180 12.856123
58.185 12.484839
58.190 12.644027
58.195 12.364613
58.200 12.833261
58.205 13.107747
58.210 12.849089
58.215 12.806422
58.220 12.780179
58.225 12.721189
58.230 12.841525
58.235 12.461
58.240 11.930017
58.245 12.174563
58.250 12.34696
58.255 12.231375
58.260 12.220695
58.265 12.834496
58.270 13.00388
58.275 12.863727
58.280 13.16455
58.285 13.155404
58.290 12.895898
58.295 12.716865
58.300 11.909615
58.305 11.765038
58.310 11.809591
58.315 11.619719
58.320 11.792934
58.325 12.089889
58.330 11.919024
58.335 12.314281
58.340 12.625832
58.345 12.931784
58.350 12.168006
58.355 12.301144
58.360 12.593016
58.365 12.445882
58.370 12.403949
58.375 12.540971
58.380 12.52152
58.385 13.188801
58.390 13.24644
58.395 13.929873
58.400 14.359759
58.405 14.088323
58.410 14.396038
58.415 14.759706
58.420 14.756022
58.425 14.590335
58.430 14.192749
58.435 14.295622
58.440 14.594824
58.445 14.386988
58.450 14.121636
58.455 13.990254
58.460 14.332333
58.465 14.641258
58.470 14.52529
58.475 14.35037
58.480 13.748428
58.485 13.708197
58.490 13.867784
58.495 13.526957
58.500 12.9673
58.505 12.918595
58.510 13.361794
58.515 13.395375
58.520 13.152122
58.525 12.88231
58.530 13.101589
58.535 13.534939
58.540 13.530871
58.545 13.194922
58.550 13.72595
58.555 13.94219
58.560 13.902545
58.565 13.858288
58.570 13.950904
58.575 14.130181
58.580 14.184917
58.585 14.133179
58.590 14.096664
58.595 14.352302
58.600 13.833465
