!@!!GADDS PLOTSO FILE: Chi integration type
!@!!Title/SampleName: map-67
!@!!Comment: ?
!@!!User: Bruker Instrument Administrator
!@!!Site: University of Illinois Chicago
!@!!Frame: map-67_01_000.gfrm
!@!!Wavelengths    1.54184   1.54056   1.54439
!@!!Frame angles: 2Theta: 63.000 Omega: 50.000 Phi: 0.000 Chi: 90.000
!@!!Integration range: 2Theta: 53.000 to 73.000  Gamma: -105.000 to -75.000
!@!!Integration method: bin normalized
!@!N
!@!SS
!@!M
!@!L 0.0 0.0 0.0 0.0
!@!XDegrees
!@!YCounts
53.000 8.960422
53.005 9.147635
53.010 9.536204
53.015 9.988927
53.020 9.799047
53.025 9.831314
53.030 10.001824
53.035 9.657498
53.040 9.130391
53.045 8.71876
53.050 8.591918
53.055 8.527475
53.060 8.594888
53.065 8.635242
53.070 8.505327
53.075 8.678738
53.080 8.715074
53.085 8.532816
53.090 8.595911
53.095 8.613258
53.100 8.727725
53.105 9.365739
53.110 9.234124
53.115 9.001419
53.120 9.039205
53.125 9.104844
53.130 9.238898
53.135 9.292302
53.140 8.95886
53.145 9.02724
53.150 9.416694
53.155 9.120461
53.160 8.816491
53.165 8.824383
53.170 8.881839
53.175 9.336005
53.180 9.217526
53.185 9.137045
53.190 9.333789
53.195 9.197192
53.200 9.169763
53.205 8.869001
53.210 8.614091
53.215 8.500598
53.220 8.442394
53.225 8.635377
53.230 8.342675
53.235 8.428415
53.240 8.337762
53.245 8.11449
53.250 8.227551
53.255 8.179034
53.260 8.410882
53.265 8.586328
53.270 8.394759
53.275 8.67416
53.280 8.849216
53.285 8.896976
53.290 8.919415
53.295 8.797142
53.300 8.978139
53.305 9.147367
53.310 8.973897
53.315 8.76875
53.320 8.251155
53.325 8.26317
53.330 8.692801
53.335 8.657614
53.340 8.58494
53.345 8.757113
53.350 8.845016
53.355 9.363544
53.360 9.347779
53.365 8.952429
53.370 9.063716
53.375 9.06431
53.380 9.025166
53.385 9.590606
53.390 9.6272
53.395 9.388513
53.400 9.198969
53.405 9.231869
53.410 9.52578
53.415 9.547872
53.420 9.068726
53.425 8.850419
53.430 9.434944
53.435 9.841029
53.440 9.73058
53.445 9.775868
53.450 9.653439
53.455 10.145079
53.460 9.956386
53.465 9.719729
53.470 9.44762
53.475 9.322341
53.480 9.402216
53.485 9.728617
53.490 9.600098
53.495 9.50324
53.500 9.162334
53.505 9.176561
53.510 8.991996
53.515 8.855761
53.520 8.621354
53.525 8.500271
53.530 8.697534
53.535 9.293532
53.540 9.605062
53.545 9.778502
53.550 10.316517
53.555 10.105431
53.560 9.970514
53.565 9.33446
53.570 8.845689
53.575 8.591519
53.580 8.857103
53.585 8.91103
53.590 9.700977
53.595 10.16907
53.600 10.622718
53.605 11.247962
53.610 11.070042
53.615 10.473214
53.620 10.035039
53.625 10.082884
53.630 10.007477
53.635 9.853205
53.640 9.441726
53.645 9.698594
53.650 9.600159
53.655 8.867547
53.660 8.291866
53.665 8.754477
53.670 9.175745
53.675 9.20601
53.680 9.473869
53.685 9.565237
53.690 9.555842
53.695 9.57703
53.700 9.010397
53.705 8.409121
53.710 8.032152
53.715 7.648553
53.720 7.91504
53.725 8.434911
53.730 8.858791
53.735 8.849093
53.740 9.225973
53.745 9.408679
53.750 9.2923
53.755 9.193952
53.760 8.794447
53.765 8.349205
53.770 8.173234
53.775 8.084698
53.780 8.090254
53.785 8.22292
53.790 8.392287
53.795 8.692555
53.800 9.166519
53.805 9.592772
53.810 9.90951
53.815 9.924649
53.820 10.096575
53.825 10.518716
53.830 10.213769
53.835 9.725669
53.840 9.436771
53.845 9.363847
53.850 9.047892
53.855 8.72296
53.860 8.3527
53.865 8.429756
53.870 8.801992
53.875 8.86797
53.880 9.270404
53.885 9.968861
53.890 10.275271
53.895 10.575661
53.900 10.991163
53.905 11.268171
53.910 10.967518
53.915 10.587545
53.920 10.58701
53.925 10.252614
53.930 9.994221
53.935 9.608915
53.940 9.722174
53.945 9.901636
53.950 10.0626
53.955 9.633864
53.960 9.762564
53.965 9.959654
53.970 10.204399
53.975 10.110843
53.980 9.935494
53.985 9.400327
53.990 9.46545
53.995 9.464232
54.000 8.995011
54.005 8.316597
54.010 8.416937
54.015 8.598411
54.020 9.03407
54.025 9.43761
54.030 9.140864
54.035 9.857687
54.040 10.138244
54.045 9.801558
54.050 9.637055
54.055 9.065119
54.060 8.767976
54.065 8.755581
54.070 8.537983
54.075 8.453848
54.080 8.199847
54.085 8.616928
54.090 9.249205
54.095 10.068449
54.100 10.594923
54.105 10.760857
54.110 11.170725
54.115 11.415165
54.120 11.514191
54.125 10.782068
54.130 10.066337
54.135 10.057625
54.140 10.179812
54.145 10.207673
54.150 10.017211
54.155 9.834067
54.160 10.126691
54.165 10.402635
54.170 10.653837
54.175 10.495807
54.180 10.408456
54.185 10.381709
54.190 10.520721
54.195 10.871943
54.200 10.823462
54.205 10.553395
54.210 10.732028
54.215 10.801832
54.220 11.072692
54.225 11.232675
54.230 10.976909
54.235 10.622709
54.240 10.516705
54.245 10.914862
54.250 11.175
54.255 10.959811
54.260 11.115957
54.265 11.095581
54.270 10.684226
54.275 10.589336
54.280 10.322046
54.285 10.160281
54.290 10.498837
54.295 10.534636
54.300 10.538375
54.305 10.930089
54.310 10.62015
54.315 10.766376
54.320 10.800532
54.325 10.356436
54.330 10.32512
54.335 10.26929
54.340 10.7286
54.345 11.112593
54.350 11.270736
54.355 11.410865
54.360 11.509179
54.365 11.626586
54.370 11.977321
54.375 11.755061
54.380 11.739167
54.385 11.594378
54.390 11.558376
54.395 11.521068
54.400 11.189586
54.405 11.033135
54.410 10.76495
54.415 10.393641
54.420 10.287746
54.425 10.475768
54.430 10.733812
54.435 11.227453
54.440 11.168677
54.445 11.095367
54.450 11.077931
54.455 10.882875
54.460 10.792879
54.465 10.959044
54.470 10.564885
54.475 10.329769
54.480 10.192918
54.485 10.248848
54.490 10.132446
54.495 9.679475
54.500 9.305303
54.505 9.482965
54.510 9.822916
54.515 10.050079
54.520 10.118143
54.525 10.439939
54.530 10.945111
54.535 10.693316
54.540 10.583763
54.545 10.237911
54.550 10.174586
54.555 10.245672
54.560 9.635653
54.565 9.320589
54.570 9.414656
54.575 9.602466
54.580 9.938655
54.585 9.925188
54.590 9.853642
54.595 9.81741
54.600 9.68913
54.605 9.521716
54.610 8.820999
54.615 8.564059
54.620 8.945959
54.625 8.594288
54.630 8.888904
54.635 9.33539
54.640 10.023661
54.645 10.649973
54.650 10.312045
54.655 9.802826
54.660 9.961935
54.665 9.891139
54.670 9.409955
54.675 9.453718
54.680 9.92465
54.685 10.314784
54.690 10.942904
54.695 11.251798
54.700 11.088545
54.705 11.125849
54.710 10.31828
54.715 10.300341
54.720 10.394691
54.725 9.936337
54.730 9.856616
54.735 10.21498
54.740 10.496713
54.745 10.598292
54.750 9.996037
54.755 9.846209
54.760 9.880239
54.765 10.041463
54.770 9.957555
54.775 10.274097
54.780 10.537619
54.785 10.914647
54.790 11.1986
54.795 11.024461
54.800 11.027102
54.805 11.069489
54.810 10.762968
54.815 10.727006
54.820 10.489965
54.825 10.560672
54.830 11.030697
54.835 11.01145
54.840 11.106398
54.845 11.213464
54.850 11.404703
54.855 11.498007
54.860 11.291641
54.865 11.016157
54.870 11.127934
54.875 11.1468
54.880 11.150302
54.885 10.733257
54.890 10.834602
54.895 10.897116
54.900 10.891933
54.905 10.655041
54.910 10.366902
54.915 10.577125
54.920 10.455953
54.925 9.847271
54.930 9.994028
54.935 10.051079
54.940 9.784355
54.945 9.901196
54.950 9.725642
54.955 10.017607
54.960 10.406065
54.965 10.319789
54.970 10.709618
54.975 10.981611
54.980 11.025462
54.985 10.839972
54.990 10.762033
54.995 10.808435
55.000 10.743783
55.005 10.293587
55.010 10.202839
55.015 10.072289
55.020 10.668924
55.025 11.104734
55.030 11.138352
55.035 11.15082
55.040 11.561004
55.045 11.802374
55.050 11.835864
55.055 12.397605
55.060 12.259758
55.065 12.093493
55.070 11.647684
55.075 11.655992
55.080 11.800328
55.085 11.353032
55.090 10.319678
55.095 10.238093
55.100 9.839979
55.105 10.454204
55.110 10.538856
55.115 10.233446
55.120 10.420927
55.125 10.555716
55.130 10.474333
55.135 10.372283
55.140 10.058451
55.145 9.75843
55.150 10.121394
55.155 10.178205
55.160 10.287335
55.165 10.506766
55.170 10.643759
55.175 11.052558
55.180 11.072551
55.185 10.913505
55.190 11.199479
55.195 11.36372
55.200 11.455429
55.205 11.32788
55.210 10.477975
55.215 10.455822
55.220 10.946228
55.225 11.097372
55.230 11.520365
55.235 11.626039
55.240 12.123446
55.245 12.19932
55.250 11.923881
55.255 11.209347
55.260 10.919117
55.265 10.556276
55.270 10.174614
55.275 10.113738
55.280 10.281897
55.285 10.418769
55.290 10.968882
55.295 10.785608
55.300 10.554023
55.305 10.709759
55.310 10.63112
55.315 10.574071
55.320 10.825991
55.325 10.457791
55.330 10.644213
55.335 10.682348
55.340 10.045621
55.345 9.884353
55.350 9.923051
55.355 9.79606
55.360 9.984134
55.365 9.924204
55.370 10.384709
55.375 11.081946
55.380 11.513573
55.385 11.681037
55.390 11.919063
55.395 12.386979
55.400 12.599304
55.405 12.151856
55.410 11.898148
55.415 11.412985
55.420 11.128959
55.425 10.781153
55.430 10.395061
55.435 10.392763
55.440 10.329547
55.445 10.785716
55.450 11.491922
55.455 11.759947
55.460 12.280972
55.465 12.168791
55.470 12.373823
55.475 12.291889
55.480 11.682429
55.485 11.628308
55.490 11.331018
55.495 11.149838
55.500 11.281189
55.505 11.454835
55.510 11.966743
55.515 11.874324
55.520 11.862882
55.525 11.813983
55.530 11.438775
55.535 11.747631
55.540 12.08549
55.545 12.237772
55.550 12.717752
55.555 12.499651
55.560 12.685152
55.565 12.982171
55.570 12.052942
55.575 11.679704
55.580 11.492464
55.585 10.974181
55.590 10.966576
55.595 10.951324
55.600 11.411697
55.605 11.836335
55.610 11.806498
55.615 11.722437
55.620 12.314401
55.625 12.406736
55.630 11.623394
55.635 10.812268
55.640 10.185065
55.645 10.011357
55.650 10.054398
55.655 9.849873
55.660 9.86408
55.665 10.29974
55.670 10.572779
55.675 10.84304
55.680 10.913564
55.685 11.010808
55.690 11.058821
55.695 10.966578
55.700 10.568206
55.705 10.278224
55.710 10.46148
55.715 10.58222
55.720 10.890192
55.725 10.851465
55.730 11.088152
55.735 11.542621
55.740 11.808501
55.745 11.637551
55.750 11.587384
55.755 11.593367
55.760 11.613538
55.765 11.417446
55.770 11.40236
55.775 11.305701
55.780 11.367924
55.785 11.548424
55.790 11.127904
55.795 11.396383
55.800 10.9978
55.805 10.769681
55.810 11.211726
55.815 10.814869
55.820 10.932223
55.825 11.610547
55.830 11.897112
55.835 12.836095
55.840 13.126136
55.845 13.312021
55.850 13.324594
55.855 12.872223
55.860 12.399678
55.865 12.479891
55.870 12.243118
55.875 12.198513
55.880 12.187686
55.885 12.314092
55.890 12.369163
55.895 12.626882
55.900 12.676591
55.905 12.426815
55.910 12.165804
55.915 12.49018
55.920 12.693904
55.925 12.341892
55.930 11.664365
55.935 11.40823
55.940 11.653502
55.945 11.647055
55.950 11.299769
55.955 11.812793
55.960 11.981766
55.965 11.983651
55.970 12.056232
55.975 12.448007
55.980 12.560477
55.985 12.303823
55.990 12.123378
55.995 12.067781
56.000 12.536037
56.005 12.739923
56.010 12.706401
56.015 12.942035
56.020 12.733597
56.025 12.215909
56.030 12.646171
56.035 11.917969
56.040 11.374036
56.045 11.298114
56.050 11.153292
56.055 11.469562
56.060 11.556346
56.065 11.204472
56.070 11.284954
56.075 11.435704
56.080 11.361629
56.085 11.023422
56.090 10.984879
56.095 11.358149
56.100 11.673623
56.105 12.006041
56.110 11.924559
56.115 11.376474
56.120 11.611531
56.125 11.540013
56.130 11.618279
56.135 11.543882
56.140 11.668544
56.145 11.457877
56.150 11.619523
56.155 11.633126
56.160 11.798571
56.165 11.41983
56.170 11.799783
56.175 11.852437
56.180 12.228278
56.185 12.421901
56.190 12.666224
56.195 12.89782
56.200 13.270817
56.205 12.793946
56.210 12.438486
56.215 12.275041
56.220 12.261415
56.225 12.277651
56.230 12.193055
56.235 12.21654
56.240 12.483501
56.245 12.808034
56.250 12.78893
56.255 12.95416
56.260 12.891521
56.265 12.93672
56.270 12.823823
56.275 12.810249
56.280 12.983932
56.285 13.084972
56.290 13.071287
56.295 13.574885
56.300 13.495782
56.305 13.476549
56.310 13.680128
56.315 13.409786
56.320 13.222133
56.325 12.650734
56.330 11.956952
56.335 12.004368
56.340 12.316998
56.345 12.005448
56.350 12.201078
56.355 12.586776
56.360 12.53348
56.365 12.401861
56.370 12.317805
56.375 12.400497
56.380 12.98922
56.385 13.024389
56.390 13.122569
56.395 13.582891
56.400 14.191024
56.405 14.021638
56.410 13.827843
56.415 13.369133
56.420 12.985192
56.425 13.142708
56.430 12.83827
56.435 12.520525
56.440 12.126145
56.445 11.790964
56.450 11.480863
56.455 11.409245
56.460 11.592422
56.465 11.617191
56.470 11.367222
56.475 11.653431
56.480 11.800488
56.485 12.058085
56.490 12.179427
56.495 11.552056
56.500 11.435479
56.505 11.486452
56.510 11.613053
56.515 11.516861
56.520 11.669234
56.525 11.642159
56.530 12.035434
56.535 12.342822
56.540 12.717644
56.545 12.867969
56.550 13.195403
56.555 13.160822
56.560 13.31221
56.565 13.006329
56.570 12.736187
56.575 12.681089
56.580 12.742936
56.585 12.672652
56.590 12.861858
56.595 12.760595
56.600 13.058504
56.605 12.939368
56.610 12.68623
56.615 12.45823
56.620 12.235982
56.625 12.157537
56.630 12.065314
56.635 12.221821
56.640 12.271627
56.645 12.514324
56.650 12.632547
56.655 12.714672
56.660 12.444432
56.665 12.542117
56.670 12.656749
56.675 12.399606
56.680 12.327302
56.685 12.598992
56.690 13.156466
56.695 13.495967
56.700 12.923881
56.705 12.709754
56.710 13.182288
56.715 12.703827
56.720 12.404572
56.725 12.30154
56.730 12.38573
56.735 13.121762
56.740 13.568261
56.745 13.915423
56.750 14.519016
56.755 14.907792
56.760 15.330736
56.765 16.02898
56.770 15.484312
56.775 15.215592
56.780 14.688969
56.785 14.170304
56.790 13.612927
56.795 13.000267
56.800 12.686564
56.805 13.711176
56.810 13.92539
56.815 14.285987
56.820 14.576516
56.825 14.601601
56.830 14.459816
56.835 13.988022
56.840 13.278666
56.845 13.377586
56.850 13.198091
56.855 13.144567
56.860 13.030902
56.865 13.455544
56.870 13.645774
56.875 13.206205
56.880 12.896793
56.885 12.792109
56.890 12.840445
56.895 12.874884
56.900 12.445881
56.905 12.482268
56.910 13.136133
56.915 13.252586
56.920 13.176311
56.925 12.936812
56.930 12.638731
56.935 12.583447
56.940 12.330442
56.945 11.730305
56.950 11.71044
56.955 11.723968
56.960 11.808111
56.965 12.187629
56.970 12.395127
56.975 13.133974
56.980 13.376317
56.985 13.644821
56.990 14.113641
56.995 14.089676
57.000 13.65281
57.005 13.440973
57.010 12.998109
57.015 13.074534
57.020 13.145955
57.025 13.249717
57.030 13.581846
57.035 13.553277
57.040 13.166539
57.045 13.428459
57.050 13.562057
57.055 12.8894
57.060 12.68725
57.065 12.98631
57.070 13.306729
57.075 13.982127
57.080 13.845871
57.085 13.259081
57.090 13.294827
57.095 13.056585
57.100 12.625397
57.105 12.23932
57.110 11.547685
57.115 11.38554
57.120 11.657781
57.125 11.664949
57.130 12.11376
57.135 12.009766
57.140 12.378251
57.145 12.610271
57.150 12.7253
57.155 12.340289
57.160 12.103088
57.165 12.204762
57.170 12.987614
57.175 12.886327
57.180 13.284523
57.185 13.421876
57.190 13.705646
57.195 14.043207
57.200 14.113105
57.205 13.45706
57.210 13.579555
57.215 13.65743
57.220 14.170967
57.225 14.345822
57.230 14.294432
57.235 13.97667
57.240 14.253864
57.245 14.436395
57.250 14.494422
57.255 14.035505
57.260 14.22465
57.265 14.158622
57.270 14.089879
57.275 14.126225
57.280 13.616879
57.285 13.132988
57.290 13.253242
57.295 13.023029
57.300 13.329007
57.305 13.425336
57.310 13.08603
57.315 13.763733
57.320 13.748179
57.325 13.710596
57.330 13.695729
57.335 13.558941
57.340 13.840438
57.345 14.278261
57.350 14.002045
57.355 14.105134
57.360 14.461333
57.365 14.417388
57.370 14.124548
57.375 13.340943
57.380 12.585658
57.385 12.375218
57.390 12.447684
57.395 12.143308
57.400 12.28174
57.405 12.453094
57.410 12.585836
57.415 12.827735
57.420 13.015522
57.425 13.058524
57.430 12.839674
57.435 12.653512
57.440 12.505068
57.445 12.638691
57.450 12.408648
57.455 11.771392
57.460 11.824066
57.465 12.444481
57.470 12.583859
57.475 13.1366
57.480 13.196542
57.485 13.891907
57.490 14.441524
57.495 14.156404
57.500 13.695123
57.505 13.035913
57.510 12.643408
57.515 12.965931
57.520 12.970108
57.525 12.882181
57.530 12.733785
57.535 13.299982
57.540 13.889139
57.545 14.649612
57.550 14.680902
57.555 14.155294
57.560 14.059716
57.565 14.273242
57.570 14.095808
57.575 14.264166
57.580 13.250601
57.585 12.654876
57.590 13.305305
57.595 13.950583
57.600 14.984761
57.605 14.933534
57.610 14.442396
57.615 14.688595
57.620 14.937602
57.625 15.256329
57.630 14.728931
57.635 14.109162
57.640 14.1393
57.645 14.181725
57.650 14.374786
57.655 14.066131
57.660 13.325512
57.665 13.40038
57.670 13.291619
57.675 13.594737
57.680 13.897072
57.685 13.940799
57.690 14.269588
57.695 14.187653
57.700 14.038343
57.705 13.50593
57.710 13.541077
57.715 14.036223
57.720 14.059673
57.725 14.6464
57.730 14.886245
57.735 14.837184
57.740 15.526076
57.745 15.568726
57.750 15.563834
57.755 15.677361
57.760 15.381336
57.765 15.346879
57.770 15.454391
57.775 15.237365
57.780 14.915203
57.785 14.895851
57.790 14.632646
57.795 14.3241
57.800 14.467943
57.805 14.839619
57.810 14.80075
57.815 14.616714
57.820 14.364038
57.825 14.625718
57.830 14.814581
57.835 15.09962
57.840 15.157424
57.845 14.889087
57.850 14.775556
57.855 14.543288
57.860 14.35727
57.865 14.46545
57.870 14.401729
57.875 14.40607
57.880 14.784625
57.885 14.945055
57.890 14.925164
57.895 15.296758
57.900 15.107967
57.905 14.654952
57.910 14.880391
57.915 15.204221
57.920 15.589888
57.925 15.789288
57.930 15.358279
57.935 15.854777
57.940 16.340672
57.945 15.655948
57.950 15.569741
57.955 15.516735
57.960 15.972334
57.965 16.024191
57.970 15.857022
57.975 16.040686
57.980 17.121412
57.985 17.542439
57.990 17.111275
57.995 16.951742
58.000 17.56192
58.005 17.515572
58.010 17.201653
58.015 16.773867
58.020 17.027477
58.025 17.560337
58.030 17.323671
58.035 16.975248
58.040 17.02972
58.045 16.662565
58.050 16.321165
58.055 15.904363
58.060 15.429129
58.065 15.444334
58.070 15.103513
58.075 15.308651
58.080 16.046028
58.085 16.007088
58.090 16.266605
58.095 16.513607
58.100 16.242943
58.105 16.434038
58.110 16.154068
58.115 15.647705
58.120 15.549458
58.125 15.300244
58.130 14.938926
58.135 15.082122
58.140 15.154468
58.145 15.186415
58.150 16.067822
58.155 16.221462
58.160 16.505579
58.165 17.016453
58.170 16.900021
58.175 17.285324
58.180 17.428215
58.185 16.585222
58.190 16.011295
58.195 15.940062
58.200 16.296591
58.205 17.120283
58.210 16.860895
58.215 16.898148
58.220 17.376167
58.225 17.990366
58.230 18.122458
58.235 18.073069
58.240 18.137085
58.245 17.957584
58.250 17.305304
58.255 17.25609
58.260 17.03116
58.265 17.292166
58.270 16.666962
58.275 15.956349
58.280 16.265587
58.285 16.718578
58.290 17.517895
58.295 17.727537
58.300 17.343641
58.305 17.956478
58.310 18.023338
58.315 18.213581
58.320 18.301226
58.325 18.164705
58.330 18.485468
58.335 19.316776
58.340 19.689665
58.345 19.981112
58.350 20.060265
58.355 20.303837
58.360 20.281485
58.365 20.914431
58.370 21.108408
58.375 20.933641
58.380 21.060455
58.385 21.012581
58.390 21.680929
58.395 21.971161
58.400 21.64963
58.405 21.642759
58.410 21.824118
58.415 22.084303
58.420 23.073719
58.425 22.737404
58.430 22.705166
58.435 23.000334
58.440 22.99399
58.445 22.777332
58.450 22.683809
58.455 22.698298
58.460 23.811579
58.465 24.4774
58.470 25.270643
58.475 25.691681
58.480 26.268707
58.485 26.840609
58.490 27.036888
58.495 27.317896
58.500 27.43799
58.505 27.912657
58.510 28.729277
