!@!!GADDS PLOTSO FILE: Chi integration type
!@!!Title/SampleName: map-188
!@!!Comment: ?
!@!!User: Bruker Instrument Administrator
!@!!Site: University of Illinois Chicago
!@!!Frame: map-188_01_000.gfrm
!@!!Wavelengths    1.54184   1.54056   1.54439
!@!!Frame angles: 2Theta: 63.000 Omega: 50.000 Phi: 0.000 Chi: 90.000
!@!!Integration range: 2Theta: 53.000 to 73.000  Gamma: -105.000 to -75.000
!@!!Integration method: bin normalized
!@!N
!@!SS
!@!M
!@!L 0.0 0.0 0.0 0.0
!@!XDegrees
!@!YCounts
53.000 10.103893
53.005 9.899301
53.010 9.981721
53.015 9.644599
53.020 9.556402
53.025 9.743921
53.030 10.159102
53.035 10.368478
53.040 10.222453
53.045 9.793542
53.050 9.713099
53.055 9.92003
53.060 9.97784
53.065 9.903757
53.070 10.292607
53.075 10.543003
53.080 10.968584
53.085 10.946182
53.090 10.836826
53.095 10.522183
53.100 10.318434
53.105 9.800159
53.110 9.675472
53.115 9.811793
53.120 10.073709
53.125 10.211915
53.130 10.276958
53.135 10.388479
53.140 10.872094
53.145 10.520544
53.150 10.261591
53.155 10.127186
53.160 10.290668
53.165 10.529548
53.170 10.163967
53.175 9.851295
53.180 9.842479
53.185 9.707503
53.190 9.740988
53.195 9.733421
53.200 9.917658
53.205 10.273624
53.210 10.350955
53.215 10.468924
53.220 9.978401
53.225 9.671171
53.230 9.522261
53.235 9.838023
53.240 9.358265
53.245 9.038433
53.250 9.08825
53.255 9.589329
53.260 9.240425
53.265 8.967236
53.270 9.051882
53.275 9.953844
53.280 10.828259
53.285 11.159781
53.290 11.362589
53.295 11.564921
53.300 11.716877
53.305 11.756634
53.310 11.432539
53.315 11.397592
53.320 11.651864
53.325 11.106296
53.330 11.036865
53.335 10.811122
53.340 10.380407
53.345 10.702247
53.350 10.673288
53.355 10.673877
53.360 11.038573
53.365 11.196236
53.370 11.551181
53.375 11.369462
53.380 10.810431
53.385 10.064801
53.390 10.117584
53.395 9.92767
53.400 9.701648
53.405 9.88317
53.410 10.489717
53.415 10.899155
53.420 10.905762
53.425 10.895077
53.430 10.965703
53.435 11.097164
53.440 11.172203
53.445 11.02503
53.450 10.79685
53.455 10.974231
53.460 11.119156
53.465 11.451474
53.470 10.910551
53.475 10.385815
53.480 10.150804
53.485 10.500577
53.490 10.784765
53.495 10.539095
53.500 10.264601
53.505 10.24607
53.510 10.244298
53.515 10.041759
53.520 9.50662
53.525 9.065309
53.530 9.104195
53.535 8.70966
53.540 8.752666
53.545 9.144841
53.550 9.369245
53.555 9.351177
53.560 9.432893
53.565 9.713685
53.570 10.556026
53.575 11.012477
53.580 11.182875
53.585 11.394923
53.590 11.606637
53.595 11.813293
53.600 11.909319
53.605 11.345696
53.610 10.874866
53.615 10.803544
53.620 11.009876
53.625 11.508899
53.630 11.323545
53.635 11.112705
53.640 11.808296
53.645 12.363964
53.650 12.204709
53.655 11.991346
53.660 12.075223
53.665 12.282624
53.670 12.305448
53.675 12.029396
53.680 11.911732
53.685 11.792653
53.690 11.444147
53.695 10.919147
53.700 11.105907
53.705 11.042396
53.710 10.786643
53.715 10.604452
53.720 10.734229
53.725 10.961686
53.730 10.732817
53.735 10.396275
53.740 10.391726
53.745 10.380902
53.750 10.095591
53.755 9.864639
53.760 10.047162
53.765 10.179241
53.770 10.01469
53.775 9.831115
53.780 9.66573
53.785 9.520163
53.790 9.589995
53.795 9.882132
53.800 10.783107
53.805 11.038682
53.810 11.224933
53.815 11.493717
53.820 11.581544
53.825 11.976888
53.830 11.289128
53.835 10.445233
53.840 10.177803
53.845 10.632482
53.850 11.236746
53.855 11.469356
53.860 10.988031
53.865 11.266101
53.870 11.839079
53.875 11.903687
53.880 11.3366
53.885 11.107499
53.890 11.275725
53.895 11.186584
53.900 10.646137
53.905 10.490761
53.910 10.445324
53.915 10.308474
53.920 9.946455
53.925 9.658731
53.930 10.067355
53.935 10.50843
53.940 11.000646
53.945 10.737404
53.950 11.093616
53.955 11.186031
53.960 11.033674
53.965 10.691041
53.970 10.032516
53.975 9.649613
53.980 10.17389
53.985 10.484618
53.990 10.827524
53.995 11.438543
54.000 12.066853
54.005 12.49063
54.010 12.397067
54.015 11.892391
54.020 11.461689
54.025 11.143752
54.030 10.532724
54.035 9.718432
54.040 9.542933
54.045 10.090792
54.050 10.160257
54.055 10.037553
54.060 10.1262
54.065 10.240632
54.070 10.444704
54.075 10.214279
54.080 9.726202
54.085 9.880836
54.090 10.295333
54.095 10.129047
54.100 10.514164
54.105 10.747071
54.110 10.523748
54.115 10.177478
54.120 10.257046
54.125 10.563126
54.130 10.314611
54.135 10.445988
54.140 10.351058
54.145 10.51641
54.150 10.772891
54.155 10.283212
54.160 10.46975
54.165 11.30266
54.170 11.365693
54.175 11.502908
54.180 11.745811
54.185 11.91614
54.190 12.248151
54.195 12.280739
54.200 11.938127
54.205 11.927164
54.210 12.027411
54.215 12.049022
54.220 11.962836
54.225 12.301517
54.230 12.252055
54.235 12.594023
54.240 12.48739
54.245 12.6916
54.250 12.978011
54.255 12.94145
54.260 12.534511
54.265 12.280951
54.270 11.959065
54.275 12.361328
54.280 12.559711
54.285 12.276948
54.290 12.18942
54.295 12.141532
54.300 12.337588
54.305 12.554098
54.310 12.040027
54.315 11.675501
54.320 11.40544
54.325 10.941648
54.330 10.704343
54.335 10.612221
54.340 10.450378
54.345 10.277371
54.350 10.480168
54.355 10.543921
54.360 10.886893
54.365 10.491168
54.370 10.251474
54.375 9.989925
54.380 10.292796
54.385 10.815421
54.390 10.707995
54.395 10.399371
54.400 10.495715
54.405 10.813368
54.410 11.160997
54.415 10.582726
54.420 9.948344
54.425 9.859732
54.430 10.369787
54.435 10.71277
54.440 10.450507
54.445 10.55171
54.450 11.021825
54.455 11.131878
54.460 11.096805
54.465 11.281446
54.470 11.187941
54.475 11.453019
54.480 10.825065
54.485 10.476413
54.490 10.793524
54.495 10.932439
54.500 10.22814
54.505 10.135562
54.510 10.096922
54.515 11.023984
54.520 11.496716
54.525 11.616088
54.530 11.618282
54.535 11.589222
54.540 11.799584
54.545 11.553233
54.550 10.888179
54.555 10.618417
54.560 10.237081
54.565 10.308867
54.570 10.497875
54.575 10.503875
54.580 10.939466
54.585 11.385656
54.590 11.439006
54.595 11.868012
54.600 11.658895
54.605 11.676239
54.610 11.421353
54.615 11.075423
54.620 10.811999
54.625 10.557327
54.630 11.054153
54.635 11.340878
54.640 10.750087
54.645 10.547635
54.650 10.866918
54.655 11.076028
54.660 10.651693
54.665 9.815419
54.670 9.824621
54.675 9.896817
54.680 9.865952
54.685 9.477583
54.690 9.892042
54.695 10.321844
54.700 10.601959
54.705 10.842582
54.710 11.21515
54.715 11.323231
54.720 11.359756
54.725 11.022474
54.730 11.189355
54.735 11.233513
54.740 11.556041
54.745 12.070007
54.750 11.726583
54.755 11.599429
54.760 11.44305
54.765 11.286762
54.770 11.320503
54.775 10.964154
54.780 11.670984
54.785 12.092046
54.790 11.992177
54.795 12.112484
54.800 12.345068
54.805 12.473026
54.810 12.325047
54.815 11.633217
54.820 11.552773
54.825 11.671635
54.830 11.841877
54.835 11.486432
54.840 11.764041
54.845 12.127951
54.850 12.248135
54.855 12.010137
54.860 11.843011
54.865 11.915099
54.870 11.903356
54.875 11.329445
54.880 11.116744
54.885 11.285472
54.890 11.599504
54.895 11.745399
54.900 11.553529
54.905 11.349327
54.910 11.302247
54.915 11.459458
54.920 11.643557
54.925 11.573079
54.930 11.684328
54.935 12.063223
54.940 12.483683
54.945 12.437304
54.950 12.250924
54.955 11.863465
54.960 11.700611
54.965 11.629172
54.970 11.134603
54.975 10.437515
54.980 10.870686
54.985 10.882778
54.990 11.012155
54.995 10.930224
55.000 11.365212
55.005 11.912436
55.010 12.057393
55.015 11.882411
55.020 11.768627
55.025 11.979643
55.030 12.064495
55.035 11.415568
55.040 11.289238
55.045 11.201832
55.050 11.532123
55.055 12.108072
55.060 12.3362
55.065 12.577118
55.070 12.898989
55.075 13.086676
55.080 12.886574
55.085 12.358788
55.090 12.272854
55.095 12.200471
55.100 12.242316
55.105 12.262341
55.110 12.243448
55.115 12.349444
55.120 12.320479
55.125 11.90433
55.130 11.465106
55.135 11.624973
55.140 11.588791
55.145 11.512533
55.150 11.278668
55.155 11.132206
55.160 11.240396
55.165 11.286697
55.170 11.337636
55.175 11.857794
55.180 12.178728
55.185 12.785518
55.190 13.10014
55.195 13.275724
55.200 13.567303
55.205 12.827132
55.210 12.206839
55.215 12.131877
55.220 11.718355
55.225 11.544692
55.230 11.513805
55.235 10.891024
55.240 11.038449
55.245 11.399306
55.250 11.233241
55.255 11.081732
55.260 10.46744
55.265 10.431517
55.270 10.97001
55.275 10.796748
55.280 10.611736
55.285 10.773547
55.290 11.04638
55.295 11.598851
55.300 11.788758
55.305 11.536674
55.310 12.005112
55.315 12.291106
55.320 12.301249
55.325 12.500668
55.330 12.392547
55.335 12.289812
55.340 12.17303
55.345 11.541561
55.350 11.518476
55.355 11.144577
55.360 11.281619
55.365 11.004899
55.370 11.002534
55.375 11.407043
55.380 11.661827
55.385 11.305059
55.390 11.62171
55.395 11.762362
55.400 11.891116
55.405 11.763177
55.410 11.857945
55.415 12.309405
55.420 12.672441
55.425 12.329516
55.430 12.364788
55.435 12.46567
55.440 12.315129
55.445 11.532236
55.450 11.129504
55.455 10.904948
55.460 10.719236
55.465 10.273751
55.470 10.105809
55.475 9.991997
55.480 10.358729
55.485 10.776484
55.490 11.58682
55.495 11.970304
55.500 12.094258
55.505 12.362999
55.510 13.189959
55.515 13.552912
55.520 13.028424
55.525 12.878994
55.530 12.738277
55.535 13.03619
55.540 13.401106
55.545 13.094758
55.550 13.734321
55.555 13.802811
55.560 13.550626
55.565 13.766659
55.570 13.520659
55.575 13.710642
55.580 13.541861
55.585 12.426728
55.590 12.222671
55.595 12.124268
55.600 11.831188
55.605 11.794998
55.610 11.140326
55.615 10.785584
55.620 10.968778
55.625 11.229134
55.630 11.581135
55.635 11.804006
55.640 11.720743
55.645 11.91297
55.650 12.094733
55.655 11.986861
55.660 11.611751
55.665 11.034207
55.670 10.422827
55.675 10.248381
55.680 10.00695
55.685 10.068475
55.690 10.29829
55.695 10.618382
55.700 10.779156
55.705 11.256149
55.710 11.105567
55.715 11.208123
55.720 10.956293
55.725 10.594469
55.730 10.308346
55.735 10.364847
55.740 10.516262
55.745 10.526862
55.750 10.473075
55.755 10.603746
55.760 10.937588
55.765 10.835461
55.770 10.720065
55.775 10.537045
55.780 11.072753
55.785 11.132912
55.790 10.782334
55.795 10.754225
55.800 10.484097
55.805 10.777505
55.810 10.868443
55.815 11.30322
55.820 11.041616
55.825 11.081556
55.830 11.127451
55.835 11.745496
55.840 11.876898
55.845 11.75583
55.850 11.533103
55.855 12.476606
55.860 12.760995
55.865 12.726801
55.870 12.47363
55.875 12.642355
55.880 12.824337
55.885 12.725122
55.890 12.461253
55.895 12.580182
55.900 12.572209
55.905 12.765692
55.910 12.55627
55.915 12.167262
55.920 11.898291
55.925 11.877314
55.930 11.6279
55.935 11.687642
55.940 11.836526
55.945 12.294922
55.950 12.760242
55.955 12.44849
55.960 12.267145
55.965 12.47986
55.970 12.444678
55.975 11.754648
55.980 11.094602
55.985 10.890274
55.990 11.276978
55.995 11.61313
56.000 11.915853
56.005 12.070741
56.010 12.577421
56.015 13.386746
56.020 13.814307
56.025 13.647766
56.030 12.811901
56.035 12.650069
56.040 12.419974
56.045 12.401869
56.050 11.865921
56.055 11.813972
56.060 12.072721
56.065 12.586112
56.070 12.501739
56.075 12.230782
56.080 11.710046
56.085 11.499487
56.090 11.148421
56.095 11.158139
56.100 10.959056
56.105 11.155915
56.110 11.719216
56.115 11.846346
56.120 12.360788
56.125 12.705226
56.130 12.648997
56.135 12.621342
56.140 12.220657
56.145 12.041275
56.150 12.018769
56.155 11.324288
56.160 11.528715
56.165 11.168717
56.170 11.189113
56.175 11.363712
56.180 11.41864
56.185 11.616812
56.190 12.007139
56.195 11.64571
56.200 11.608762
56.205 11.205341
56.210 11.252013
56.215 11.352144
56.220 11.167849
56.225 11.068161
56.230 11.359361
56.235 11.86327
56.240 12.127996
56.245 12.285501
56.250 11.988809
56.255 11.824616
56.260 11.828356
56.265 11.879578
56.270 11.571995
56.275 11.496614
56.280 11.289739
56.285 11.368169
56.290 11.586714
56.295 11.536274
56.300 11.913793
56.305 12.31669
56.310 12.680928
56.315 13.048523
56.320 13.35505
56.325 13.419391
56.330 13.56573
56.335 13.649262
56.340 13.64144
56.345 13.879067
56.350 14.233225
56.355 14.338944
56.360 13.877648
56.365 13.556513
56.370 13.24771
56.375 13.114225
56.380 12.822784
56.385 12.503329
56.390 12.540524
56.395 13.092117
56.400 13.222516
56.405 13.544714
56.410 13.81121
56.415 13.965456
56.420 14.140885
56.425 14.650776
56.430 14.676319
56.435 14.646459
56.440 14.603612
56.445 14.58527
56.450 14.26806
56.455 14.215803
56.460 13.894164
56.465 14.124076
56.470 14.27337
56.475 14.695147
56.480 14.757449
56.485 15.014471
56.490 15.656943
56.495 15.513203
56.500 15.350003
56.505 15.259841
56.510 14.542345
56.515 14.329456
56.520 14.527838
56.525 14.383195
56.530 14.389348
56.535 14.285473
56.540 14.109247
56.545 14.539931
56.550 14.4391
56.555 13.20696
56.560 12.654443
56.565 13.337165
56.570 13.694952
56.575 13.826306
56.580 13.693521
56.585 14.279783
56.590 14.684813
56.595 14.565328
56.600 13.753296
56.605 13.492678
56.610 13.35451
56.615 13.577445
56.620 13.963017
56.625 14.335409
56.630 14.4954
56.635 14.577263
56.640 14.596992
56.645 14.745307
56.650 14.497557
56.655 14.140344
56.660 14.373187
56.665 14.500982
56.670 14.177362
56.675 13.946195
56.680 13.636741
56.685 13.984451
56.690 13.812292
56.695 13.784264
56.700 14.190567
56.705 14.697431
56.710 14.893074
56.715 14.97181
56.720 14.485598
56.725 14.482814
56.730 14.61892
56.735 14.500305
56.740 14.469422
56.745 14.475068
56.750 14.548476
56.755 14.460059
56.760 14.328714
56.765 14.189278
56.770 14.088579
56.775 13.987804
56.780 14.054585
56.785 14.137783
56.790 14.178947
56.795 13.737379
56.800 13.385979
56.805 13.284075
56.810 12.991889
56.815 12.827859
56.820 13.202449
56.825 13.282228
56.830 13.253338
56.835 12.902517
56.840 13.360622
56.845 13.409122
56.850 12.957151
56.855 12.819479
56.860 12.813885
56.865 13.146197
56.870 13.132751
56.875 12.840869
56.880 13.146664
56.885 13.579738
56.890 13.167698
56.895 13.037894
56.900 13.042025
56.905 13.032044
56.910 13.198496
56.915 12.382441
56.920 11.791229
56.925 11.61037
56.930 11.633001
56.935 11.770258
56.940 11.714406
56.945 11.249308
56.950 12.051477
56.955 12.213233
56.960 12.462372
56.965 12.659099
56.970 12.317589
56.975 12.314691
56.980 12.5404
56.985 12.723792
56.990 13.105246
56.995 13.134858
57.000 12.953359
57.005 13.311312
57.010 13.663441
57.015 13.819693
57.020 13.576581
57.025 13.802249
57.030 13.8108
57.035 13.71563
57.040 13.592169
57.045 14.050286
57.050 14.296422
57.055 14.470473
57.060 14.089931
57.065 14.486279
57.070 14.486429
57.075 14.35055
57.080 14.038075
57.085 13.571712
57.090 13.184902
57.095 12.95386
57.100 12.612544
57.105 12.888647
57.110 12.352217
57.115 11.912046
57.120 12.030673
57.125 12.257563
57.130 12.674244
57.135 13.386568
57.140 13.604842
57.145 13.892603
57.150 14.360578
57.155 14.113605
57.160 13.948728
57.165 13.624874
57.170 12.629749
57.175 12.358927
57.180 11.671799
57.185 11.811947
57.190 11.810764
57.195 11.861893
57.200 12.170195
57.205 12.421302
57.210 12.732956
57.215 13.102402
57.220 13.074999
57.225 13.263885
57.230 13.115051
57.235 13.047129
57.240 13.367824
57.245 13.14919
57.250 13.130492
57.255 12.793679
57.260 13.362217
57.265 13.175568
57.270 12.717208
57.275 12.645535
57.280 12.862573
57.285 13.109254
57.290 12.824364
57.295 12.268777
57.300 12.978939
57.305 13.106241
57.310 13.010711
57.315 12.910041
57.320 13.272398
57.325 13.639726
57.330 13.126354
57.335 12.984957
57.340 12.959183
57.345 12.980911
57.350 13.256496
57.355 12.931102
57.360 13.341228
57.365 14.344576
57.370 14.25722
57.375 14.741726
57.380 14.895582
57.385 14.514199
57.390 14.682135
57.395 14.265809
57.400 13.716107
57.405 13.792923
57.410 13.504844
57.415 13.464016
57.420 13.523783
57.425 13.352191
57.430 13.487606
57.435 13.529539
57.440 13.469102
57.445 13.655593
57.450 13.481725
57.455 12.968792
57.460 12.97104
57.465 13.12709
57.470 13.196484
57.475 12.677997
57.480 12.185535
57.485 12.035181
57.490 12.281221
57.495 12.238965
57.500 12.105721
57.505 12.285046
57.510 12.65296
57.515 13.059117
57.520 13.323517
57.525 13.500086
57.530 13.51154
57.535 13.510725
57.540 13.412419
57.545 13.750127
57.550 13.947907
57.555 13.853168
57.560 13.854841
57.565 13.534616
57.570 13.846188
57.575 13.808534
57.580 13.180791
57.585 13.103304
57.590 13.273458
57.595 13.168431
57.600 13.63695
57.605 13.1622
57.610 12.976895
57.615 13.292603
57.620 13.171274
57.625 13.461166
57.630 13.484856
57.635 13.028686
57.640 12.526487
57.645 12.393214
57.650 12.364702
57.655 12.189525
57.660 11.904717
57.665 11.978344
57.670 11.849031
57.675 12.156303
57.680 12.325051
57.685 12.380187
57.690 12.895246
57.695 13.308555
57.700 13.852466
57.705 14.280193
57.710 14.408718
57.715 14.208135
57.720 14.429259
57.725 13.742357
57.730 12.987773
57.735 12.332822
57.740 12.065298
57.745 12.19237
57.750 12.000849
57.755 12.023361
57.760 12.921171
57.765 12.927889
57.770 13.067784
57.775 13.505598
57.780 13.74113
57.785 14.083902
57.790 13.7793
57.795 13.156714
57.800 13.467013
57.805 13.333961
57.810 12.913529
57.815 12.890908
57.820 13.072224
57.825 13.088677
57.830 13.326663
57.835 13.370041
57.840 13.758595
57.845 13.690995
57.850 13.404451
57.855 13.386756
57.860 13.421254
57.865 13.361751
57.870 13.114728
57.875 12.57648
57.880 12.05159
57.885 11.778429
57.890 11.737771
57.895 11.676925
57.900 12.360262
57.905 13.164708
57.910 13.338188
57.915 13.79312
57.920 14.08036
57.925 13.706372
57.930 13.89041
57.935 13.743093
57.940 13.403064
57.945 13.450258
57.950 13.358489
57.955 13.169049
57.960 13.376948
57.965 12.902716
57.970 12.719658
57.975 12.614365
57.980 12.833937
57.985 13.12059
57.990 13.206667
57.995 13.013447
58.000 13.141387
58.005 13.401402
58.010 13.551157
58.015 13.879445
58.020 14.053602
58.025 14.079105
58.030 14.126495
58.035 13.877991
58.040 13.824498
58.045 14.219336
58.050 14.142542
58.055 14.684517
58.060 15.322624
58.065 15.746057
58.070 15.869569
58.075 15.687732
58.080 15.521962
58.085 14.769857
58.090 14.053601
58.095 13.641574
58.100 13.499791
58.105 13.803968
58.110 13.390224
58.115 13.02648
58.120 13.583166
58.125 13.905606
58.130 14.361814
58.135 14.516421
58.140 14.158996
58.145 14.461974
58.150 14.783877
58.155 14.508045
58.160 13.990089
58.165 13.630705
58.170 13.316859
58.175 13.256804
58.180 13.141585
58.185 13.163269
58.190 13.24058
58.195 13.032533
58.200 12.993293
58.205 13.202853
58.210 13.000642
58.215 13.013741
58.220 13.292397
58.225 13.219416
58.230 13.453697
58.235 13.479797
58.240 13.673392
58.245 14.26594
58.250 14.240645
58.255 14.081043
58.260 14.067379
58.265 13.630995
58.270 13.739339
58.275 13.855666
58.280 13.537971
58.285 13.575683
58.290 14.005086
58.295 14.229555
58.300 14.819242
58.305 14.985275
58.310 15.321251
58.315 15.765018
58.320 15.866804
58.325 15.58753
58.330 15.689512
58.335 15.65404
58.340 15.426969
58.345 14.967493
58.350 14.682387
58.355 14.517769
58.360 14.624376
58.365 15.128078
58.370 15.283696
58.375 15.487853
58.380 15.513729
58.385 16.101194
58.390 16.676054
58.395 16.75882
58.400 16.411549
58.405 16.58831
58.410 16.35939
58.415 15.951056
58.420 15.294724
58.425 14.906134
58.430 14.244739
58.435 14.254625
58.440 13.939242
58.445 13.569439
58.450 14.271273
58.455 15.353956
