!@!!GADDS PLOTSO FILE: Chi integration type
!@!!Title/SampleName: map-9f
!@!!Comment: ?
!@!!User: Bruker Instrument Administrator
!@!!Site: University of Illinois Chicago
!@!!Frame: map-9f_01_000.gfrm
!@!!Wavelengths    1.54184   1.54056   1.54439
!@!!Frame angles: 2Theta: 63.000 Omega: 50.000 Phi: 0.000 Chi: 90.000
!@!!Integration range: 2Theta: 53.000 to 73.000  Gamma: -105.000 to -75.000
!@!!Integration method: bin normalized
!@!N
!@!SS
!@!M
!@!L 0.0 0.0 0.0 0.0
!@!XDegrees
!@!YCounts
53.000 9.092961
53.005 8.943279
53.010 9.012023
53.015 8.803364
53.020 8.620382
53.025 8.304789
53.030 8.227319
53.035 7.590435
53.040 7.492126
53.045 7.235322
53.050 7.199984
53.055 7.303789
53.060 7.486742
53.065 7.806392
53.070 8.197717
53.075 8.317054
53.080 8.497788
53.085 8.517757
53.090 8.229448
53.095 7.878233
53.100 8.117356
53.105 8.119535
53.110 8.558603
53.115 8.176716
53.120 8.420767
53.125 9.032047
53.130 9.07726
53.135 8.593921
53.140 8.13479
53.145 7.754324
53.150 8.195838
53.155 7.997548
53.160 7.583932
53.165 7.712184
53.170 8.180779
53.175 8.614016
53.180 8.725754
53.185 8.619002
53.190 8.603677
53.195 8.782911
53.200 8.753569
53.205 8.731204
53.210 8.499306
53.215 8.613764
53.220 8.722878
53.225 8.555939
53.230 8.320884
53.235 8.182424
53.240 7.989458
53.245 8.170383
53.250 8.041544
53.255 8.071398
53.260 8.090989
53.265 7.949174
53.270 7.896177
53.275 7.943836
53.280 8.035526
53.285 7.645246
53.290 7.675051
53.295 7.651376
53.300 7.785205
53.305 7.885329
53.310 7.798967
53.315 7.653753
53.320 7.920752
53.325 8.049493
53.330 8.148744
53.335 7.770865
53.340 7.780985
53.345 8.288807
53.350 8.582141
53.355 8.825499
53.360 8.698677
53.365 9.093735
53.370 9.534459
53.375 9.48465
53.380 9.025463
53.385 8.805798
53.390 8.547744
53.395 8.317648
53.400 8.091605
53.405 7.925197
53.410 8.17516
53.415 8.436876
53.420 8.643209
53.425 9.203259
53.430 9.571212
53.435 9.615763
53.440 9.662651
53.445 9.378139
53.450 8.745682
53.455 8.0826
53.460 7.599884
53.465 7.612687
53.470 6.984689
53.475 6.65579
53.480 6.666915
53.485 7.308358
53.490 7.57955
53.495 7.662349
53.500 7.90317
53.505 8.26093
53.510 8.437637
53.515 8.359138
53.520 8.800504
53.525 8.962012
53.530 8.998494
53.535 9.551357
53.540 9.398511
53.545 9.494975
53.550 9.449739
53.555 9.087908
53.560 9.43165
53.565 8.801301
53.570 8.032224
53.575 7.898574
53.580 7.992514
53.585 8.004604
53.590 7.728818
53.595 7.553283
53.600 8.178977
53.605 8.618952
53.610 9.158596
53.615 9.070928
53.620 9.470147
53.625 9.998552
53.630 9.911241
53.635 9.517618
53.640 9.393618
53.645 8.909746
53.650 8.462386
53.655 8.365161
53.660 8.163554
53.665 8.35931
53.670 8.644696
53.675 8.665416
53.680 9.163244
53.685 9.496354
53.690 9.515845
53.695 9.61758
53.700 9.635853
53.705 10.070593
53.710 10.099394
53.715 9.755668
53.720 9.48877
53.725 9.147008
53.730 8.753888
53.735 8.700415
53.740 8.395141
53.745 8.254124
53.750 8.59413
53.755 8.712868
53.760 9.078665
53.765 9.098272
53.770 8.713402
53.775 8.562634
53.780 8.545166
53.785 8.511114
53.790 8.29692
53.795 7.898206
53.800 7.943605
53.805 8.196362
53.810 8.30566
53.815 8.388439
53.820 8.213119
53.825 9.031449
53.830 9.769986
53.835 9.878859
53.840 10.002727
53.845 10.095926
53.850 10.491856
53.855 10.601199
53.860 9.974608
53.865 9.987048
53.870 9.959164
53.875 9.889093
53.880 9.838947
53.885 9.160363
53.890 8.95669
53.895 8.848795
53.900 8.289453
53.905 8.465015
53.910 8.692287
53.915 8.992775
53.920 9.751954
53.925 10.119534
53.930 10.151858
53.935 10.217237
53.940 9.691752
53.945 9.717261
53.950 9.781944
53.955 9.566997
53.960 9.570373
53.965 9.128963
53.970 9.293178
53.975 9.847859
53.980 9.740316
53.985 9.218378
53.990 8.478311
53.995 8.872659
54.000 9.527011
54.005 9.317739
54.010 8.270642
54.015 7.977618
54.020 8.0966
54.025 8.376001
54.030 7.938919
54.035 7.650527
54.040 8.067927
54.045 8.531387
54.050 8.59369
54.055 8.714978
54.060 8.709283
54.065 8.992831
54.070 8.956798
54.075 8.778611
54.080 9.059218
54.085 8.942032
54.090 9.109169
54.095 8.86408
54.100 8.871252
54.105 9.337461
54.110 9.474624
54.115 9.34382
54.120 9.238771
54.125 9.267025
54.130 9.485396
54.135 9.62013
54.140 9.674864
54.145 9.829574
54.150 9.883255
54.155 10.091887
54.160 9.939981
54.165 9.8926
54.170 9.632826
54.175 9.391406
54.180 9.173782
54.185 9.415216
54.190 9.511289
54.195 9.34219
54.200 9.35686
54.205 9.23278
54.210 9.218209
54.215 8.879436
54.220 8.867592
54.225 8.975285
54.230 8.875761
54.235 9.31964
54.240 9.089364
54.245 8.969554
54.250 9.344928
54.255 9.224452
54.260 9.470208
54.265 9.499022
54.270 9.974277
54.275 10.445755
54.280 10.588065
54.285 10.708489
54.290 10.644959
54.295 10.904229
54.300 10.822789
54.305 9.985538
54.310 9.966064
54.315 9.541261
54.320 9.161189
54.325 9.018764
54.330 8.627355
54.335 8.726591
54.340 9.191278
54.345 9.502058
54.350 10.016468
54.355 10.304049
54.360 10.453068
54.365 10.361989
54.370 10.025742
54.375 9.719978
54.380 9.673337
54.385 9.375594
54.390 8.835831
54.395 8.802928
54.400 8.894738
54.405 8.68095
54.410 8.727751
54.415 8.594697
54.420 8.798726
54.425 9.134309
54.430 9.208363
54.435 9.423182
54.440 9.688014
54.445 9.299967
54.450 9.176125
54.455 9.08266
54.460 9.106453
54.465 9.15875
54.470 9.264239
54.475 9.046743
54.480 9.498591
54.485 9.918625
54.490 10.470083
54.495 10.115171
54.500 9.767302
54.505 9.696612
54.510 9.904483
54.515 9.684078
54.520 9.351108
54.525 9.392677
54.530 9.638338
54.535 10.185967
54.540 10.541086
54.545 10.54094
54.550 10.381642
54.555 10.53843
54.560 10.727182
54.565 10.59223
54.570 10.094815
54.575 9.71575
54.580 9.917239
54.585 9.651159
54.590 9.348213
54.595 9.033787
54.600 8.946519
54.605 9.008801
54.610 8.809475
54.615 8.935193
54.620 9.0927
54.625 8.923807
54.630 8.638298
54.635 8.576711
54.640 8.918672
54.645 9.226013
54.650 9.47564
54.655 9.505157
54.660 9.654671
54.665 10.182111
54.670 10.097715
54.675 9.576906
54.680 9.476929
54.685 9.0212
54.690 8.912362
54.695 8.877382
54.700 8.660542
54.705 8.774911
54.710 9.555323
54.715 9.567994
54.720 9.407604
54.725 9.371029
54.730 9.076287
54.735 9.398595
54.740 9.468298
54.745 9.218865
54.750 9.428465
54.755 9.885001
54.760 10.143806
54.765 10.656061
54.770 10.594531
54.775 10.694737
54.780 10.587243
54.785 10.690014
54.790 10.850157
54.795 10.753977
54.800 10.691244
54.805 10.58899
54.810 10.457506
54.815 10.55048
54.820 10.178377
54.825 9.793714
54.830 9.986528
54.835 9.878862
54.840 9.968351
54.845 10.10999
54.850 9.840895
54.855 9.703625
54.860 9.859086
54.865 9.515168
54.870 9.686906
54.875 9.38556
54.880 8.879177
54.885 9.140757
54.890 9.261367
54.895 9.075505
54.900 8.918562
54.905 8.552448
54.910 8.823906
54.915 9.115191
54.920 9.158124
54.925 8.716557
54.930 8.793691
54.935 9.40209
54.940 9.335459
54.945 9.488443
54.950 9.569438
54.955 9.814757
54.960 10.229865
54.965 10.014883
54.970 9.968768
54.975 10.002381
54.980 10.221571
54.985 10.258026
54.990 10.301671
54.995 10.315081
55.000 10.424845
55.005 10.086924
55.010 10.167324
55.015 10.343081
55.020 10.587603
55.025 10.504509
55.030 10.378413
55.035 10.566542
55.040 11.130494
55.045 10.828023
55.050 9.981978
55.055 9.456964
55.060 9.322233
55.065 9.32117
55.070 9.235592
55.075 9.287163
55.080 9.866175
55.085 10.062235
55.090 10.268744
55.095 10.715439
55.100 10.973209
55.105 10.717855
55.110 10.642017
55.115 10.533733
55.120 10.74103
55.125 10.553308
55.130 10.676972
55.135 10.822521
55.140 10.609451
55.145 10.386914
55.150 10.439539
55.155 10.100088
55.160 10.11523
55.165 10.287077
55.170 9.963791
55.175 9.719249
55.180 9.463106
55.185 9.229538
55.190 9.134928
55.195 8.811693
55.200 8.453204
55.205 9.003592
55.210 9.658496
55.215 9.953171
55.220 10.099853
55.225 10.279398
55.230 9.677304
55.235 9.830872
55.240 9.594748
55.245 9.259482
55.250 9.268799
55.255 9.163863
55.260 9.464366
55.265 10.011814
55.270 9.908752
55.275 10.200693
55.280 10.44237
55.285 10.571239
55.290 10.737245
55.295 10.69628
55.300 10.279766
55.305 10.217621
55.310 9.718202
55.315 9.516994
55.320 9.664258
55.325 9.661646
55.330 9.720228
55.335 10.346192
55.340 10.683989
55.345 10.950861
55.350 11.26509
55.355 10.969607
55.360 11.327273
55.365 11.303458
55.370 11.761924
55.375 11.516136
55.380 11.415336
55.385 11.284783
55.390 11.740602
55.395 12.215785
55.400 11.879505
55.405 11.318923
55.410 11.503921
55.415 11.654731
55.420 11.926219
55.425 11.601832
55.430 11.409873
55.435 11.474681
55.440 11.323694
55.445 11.178534
55.450 11.235552
55.455 11.319455
55.460 11.443205
55.465 11.499081
55.470 11.927766
55.475 11.874075
55.480 12.149086
55.485 11.835087
55.490 12.11519
55.495 11.291578
55.500 11.10563
55.505 10.86943
55.510 10.791828
55.515 10.453748
55.520 10.584901
55.525 10.116651
55.530 10.187305
55.535 10.589449
55.540 10.735486
55.545 11.111806
55.550 11.25272
55.555 11.153336
55.560 11.657006
55.565 11.798652
55.570 11.223409
55.575 11.379884
55.580 11.570271
55.585 11.3504
55.590 10.932716
55.595 10.43315
55.600 10.024653
55.605 9.656013
55.610 9.327627
55.615 9.054929
55.620 9.690059
55.625 10.365748
55.630 11.044588
55.635 11.472328
55.640 11.436385
55.645 11.687709
55.650 11.642014
55.655 11.48401
55.660 10.76476
55.665 10.015012
55.670 10.136287
55.675 9.911288
55.680 9.310539
55.685 9.169152
55.690 8.969543
55.695 9.165365
55.700 9.472785
55.705 9.23269
55.710 9.750567
55.715 10.217023
55.720 10.611582
55.725 10.835868
55.730 10.844163
55.735 11.132058
55.740 11.622233
55.745 11.765117
55.750 11.6471
55.755 11.42513
55.760 11.046193
55.765 11.205891
55.770 11.58781
55.775 11.226124
55.780 10.815096
55.785 10.583381
55.790 10.484708
55.795 10.729893
55.800 10.889379
55.805 10.876349
55.810 11.249461
55.815 11.40817
55.820 11.684171
55.825 11.559588
55.830 11.58478
55.835 11.412576
55.840 11.127316
55.845 11.286049
55.850 11.770889
55.855 11.571276
55.860 11.399093
55.865 11.397766
55.870 11.330567
55.875 11.786911
55.880 11.884258
55.885 11.864683
55.890 12.299195
55.895 12.753632
55.900 12.867863
55.905 12.461319
55.910 11.634783
55.915 11.236969
55.920 11.16784
55.925 11.08292
55.930 11.164611
55.935 11.555105
55.940 11.68046
55.945 12.638332
55.950 12.975164
55.955 12.902265
55.960 12.999767
55.965 12.912626
55.970 12.566611
55.975 12.352274
55.980 11.720065
55.985 11.59764
55.990 11.427731
55.995 11.277815
56.000 10.820359
56.005 11.053983
56.010 11.407661
56.015 11.804513
56.020 11.324101
56.025 11.192376
56.030 11.48934
56.035 11.286442
56.040 10.694234
56.045 10.669663
56.050 10.499456
56.055 11.010322
56.060 10.920297
56.065 10.859496
56.070 11.016863
56.075 11.511305
56.080 11.331506
56.085 11.008649
56.090 10.838206
56.095 10.724404
56.100 10.438045
56.105 10.559476
56.110 10.390366
56.115 10.32957
56.120 10.668994
56.125 11.481166
56.130 11.89504
56.135 12.095401
56.140 12.072054
56.145 12.012144
56.150 12.063692
56.155 11.947701
56.160 11.756728
56.165 11.870505
56.170 12.458433
56.175 12.506073
56.180 11.921882
56.185 11.800172
56.190 11.879889
56.195 11.844354
56.200 11.723381
56.205 11.230021
56.210 11.201153
56.215 11.938494
56.220 12.03581
56.225 11.831829
56.230 11.803917
56.235 11.612653
56.240 11.761621
56.245 12.187637
56.250 12.627192
56.255 12.331331
56.260 12.16393
56.265 12.289798
56.270 12.12397
56.275 12.581747
56.280 12.163527
56.285 11.641416
56.290 11.956431
56.295 12.299744
56.300 12.31213
56.305 12.372205
56.310 11.80909
56.315 11.697157
56.320 11.562927
56.325 11.716544
56.330 11.228492
56.335 11.152025
56.340 10.816147
56.345 10.784575
56.350 11.354462
56.355 11.698191
56.360 11.563682
56.365 11.709203
56.370 11.64252
56.375 11.548372
56.380 11.382003
56.385 11.317618
56.390 10.895838
56.395 10.608795
56.400 10.952721
56.405 11.205061
56.410 11.823873
56.415 12.338428
56.420 12.215796
56.425 12.235632
56.430 12.482187
56.435 12.173982
56.440 12.211651
56.445 12.440122
56.450 12.114829
56.455 11.761014
56.460 11.760412
56.465 11.814123
56.470 12.01731
56.475 11.92124
56.480 11.50009
56.485 11.835388
56.490 12.683381
56.495 12.865668
56.500 13.193337
56.505 13.107718
56.510 13.241561
56.515 12.790135
56.520 12.465567
56.525 12.126952
56.530 11.756934
56.535 11.081376
56.540 11.101611
56.545 11.122351
56.550 11.586218
56.555 11.660393
56.560 12.392025
56.565 12.324117
56.570 12.550307
56.575 12.462635
56.580 12.592816
56.585 12.310647
56.590 11.826689
56.595 11.559875
56.600 11.750581
56.605 11.512209
56.610 11.814422
56.615 12.411585
56.620 12.946591
56.625 12.991416
56.630 12.936065
56.635 13.042527
56.640 13.005924
56.645 12.517981
56.650 11.895059
56.655 11.54252
56.660 11.533988
56.665 11.376806
56.670 11.207856
56.675 10.819543
56.680 11.22817
56.685 11.413346
56.690 11.383699
56.695 11.30625
56.700 11.45676
56.705 11.852112
56.710 12.341052
56.715 12.220549
56.720 12.626549
56.725 12.645815
56.730 12.529918
56.735 12.237593
56.740 12.083961
56.745 11.826776
56.750 11.68485
56.755 11.569181
56.760 12.294953
56.765 12.981527
56.770 13.144435
56.775 13.452021
56.780 13.424564
56.785 13.130365
56.790 13.057913
56.795 12.326546
56.800 11.787902
56.805 11.788233
56.810 11.872087
56.815 11.958243
56.820 11.893581
56.825 11.391496
56.830 11.19281
56.835 11.27435
56.840 11.963778
56.845 12.054457
56.850 11.885663
56.855 12.043552
56.860 12.556118
56.865 13.361207
56.870 13.420141
56.875 12.978886
56.880 12.814397
56.885 13.136177
56.890 13.405657
56.895 13.402588
56.900 12.968229
56.905 12.791342
56.910 12.250826
56.915 12.099165
56.920 11.781143
56.925 11.630058
56.930 11.217126
56.935 10.728735
56.940 10.762905
56.945 11.400531
56.950 11.861969
56.955 12.072044
56.960 12.393764
56.965 12.536396
56.970 12.974644
56.975 13.140643
56.980 12.972987
56.985 12.634489
56.990 12.470761
56.995 12.572073
57.000 12.74299
57.005 12.726161
57.010 12.513283
57.015 12.638378
57.020 12.530549
57.025 12.335971
57.030 12.08486
57.035 12.099719
57.040 12.170459
57.045 12.738326
57.050 13.011374
57.055 13.757675
57.060 13.972458
57.065 13.837302
57.070 13.51879
57.075 13.297438
57.080 12.776977
57.085 12.16106
57.090 12.000483
57.095 11.94172
57.100 12.16754
57.105 12.58014
57.110 12.248634
57.115 12.202327
57.120 12.336689
57.125 12.080482
57.130 12.559582
57.135 12.948783
57.140 12.891272
57.145 12.680608
57.150 12.406414
57.155 12.175868
57.160 11.915291
57.165 11.597857
57.170 11.066825
57.175 11.716033
57.180 12.523895
57.185 12.102913
57.190 12.69377
57.195 13.305772
57.200 13.66326
57.205 14.292367
57.210 13.646742
57.215 13.717023
57.220 13.847475
57.225 13.093385
57.230 12.407339
57.235 11.75302
57.240 11.405136
57.245 11.405882
57.250 11.323891
57.255 11.791768
57.260 12.298491
57.265 12.68543
57.270 13.249445
57.275 13.654767
57.280 13.423926
57.285 13.618695
57.290 13.609748
57.295 13.791595
57.300 13.850213
57.305 13.329883
57.310 13.388998
57.315 13.590209
57.320 13.250329
57.325 12.883884
57.330 12.540709
57.335 12.382606
57.340 12.401978
57.345 11.788613
57.350 11.503591
57.355 11.950182
57.360 12.215028
57.365 12.381639
57.370 12.746122
57.375 12.916311
57.380 13.659189
57.385 14.080936
57.390 14.062235
57.395 14.043941
57.400 13.86709
57.405 13.468359
57.410 13.576282
57.415 13.233027
57.420 13.374153
57.425 13.409688
57.430 13.10509
57.435 13.09915
57.440 13.380704
57.445 13.586745
57.450 13.935973
57.455 13.659728
57.460 13.978905
57.465 14.525899
57.470 14.487696
57.475 14.157307
57.480 13.920035
57.485 13.950521
57.490 14.027373
57.495 13.658389
57.500 13.56779
57.505 13.424514
57.510 13.243057
57.515 13.469511
57.520 13.276059
57.525 13.070277
57.530 13.095446
57.535 13.845807
57.540 14.126694
57.545 14.721882
57.550 14.747518
57.555 14.605083
57.560 14.853501
57.565 14.73128
57.570 14.361309
57.575 14.93095
57.580 14.423804
57.585 14.155331
57.590 14.782551
57.595 14.776455
57.600 14.898816
57.605 14.348824
57.610 14.185678
57.615 14.232668
57.620 13.97187
57.625 14.293964
57.630 14.07255
57.635 13.836742
57.640 14.393939
57.645 14.751433
57.650 15.292555
57.655 15.708591
57.660 14.980021
57.665 14.98104
57.670 15.386017
57.675 14.917679
57.680 14.168489
57.685 13.903618
57.690 13.893696
57.695 14.219662
57.700 14.518444
57.705 14.600954
57.710 14.56067
57.715 14.535502
57.720 14.416018
57.725 14.49105
57.730 14.972206
57.735 15.19263
57.740 14.414506
57.745 14.097548
57.750 14.296075
57.755 14.286602
57.760 14.287115
57.765 13.907591
57.770 13.279186
57.775 14.062708
57.780 14.353092
57.785 14.613918
57.790 14.398026
57.795 14.407291
57.800 14.322999
57.805 14.582548
57.810 14.523964
57.815 14.806571
57.820 15.124795
57.825 15.339322
57.830 14.96702
57.835 15.022142
57.840 15.170754
57.845 15.013148
57.850 14.287148
57.855 13.525217
57.860 13.088564
57.865 13.052572
57.870 12.780444
57.875 12.28163
57.880 11.768195
57.885 11.792487
57.890 12.295054
57.895 12.779069
57.900 12.736732
57.905 13.230511
57.910 13.491022
57.915 13.918637
57.920 13.953579
57.925 13.71708
57.930 12.825129
57.935 12.342559
57.940 11.836389
57.945 11.913283
57.950 12.105277
57.955 11.834458
57.960 11.966475
57.965 12.534754
57.970 13.339714
57.975 13.762019
57.980 13.924638
57.985 13.783626
57.990 13.739961
57.995 13.508501
58.000 13.58615
58.005 13.697251
58.010 13.714293
58.015 13.797768
58.020 13.810575
58.025 14.586344
58.030 15.158598
58.035 15.448727
58.040 15.678482
58.045 15.555494
58.050 15.46243
58.055 15.869241
58.060 15.199646
58.065 14.454959
58.070 14.527201
58.075 14.339152
58.080 14.458232
58.085 14.507283
58.090 14.028232
58.095 14.011398
58.100 14.289889
58.105 13.336497
58.110 13.127876
58.115 13.005962
58.120 12.765485
58.125 12.752591
58.130 12.738241
58.135 12.990623
58.140 13.474716
58.145 13.536725
58.150 13.635483
58.155 13.825805
58.160 14.809926
58.165 14.894098
58.170 14.505698
58.175 14.325607
58.180 14.112278
58.185 14.557012
58.190 14.435867
58.195 13.72262
58.200 14.351845
58.205 15.064932
58.210 15.481936
58.215 15.85131
58.220 15.564299
58.225 15.539863
58.230 15.482018
58.235 15.054256
58.240 14.848848
58.245 14.769966
58.250 14.237716
58.255 14.80121
58.260 15.011332
58.265 14.904722
58.270 15.215167
58.275 15.028571
58.280 14.738884
58.285 14.875622
58.290 14.50423
58.295 14.78084
58.300 15.395973
58.305 15.542518
58.310 15.244574
58.315 15.514287
58.320 15.507257
58.325 15.407649
58.330 14.845044
58.335 15.165667
58.340 15.263954
58.345 15.458521
58.350 15.435499
58.355 15.29039
58.360 15.870787
58.365 16.141073
58.370 15.64293
58.375 16.027979
58.380 16.183804
58.385 15.915437
58.390 15.806977
58.395 15.823934
58.400 15.694536
58.405 15.301707
58.410 14.723468
58.415 14.651665
58.420 14.844596
58.425 15.099298
58.430 15.157389
58.435 15.564633
58.440 15.878983
58.445 16.083889
58.450 16.395475
58.455 16.477509
58.460 16.152075
58.465 15.446293
58.470 15.007118
58.475 14.8071
58.480 14.494081
58.485 14.724678
58.490 15.304992
58.495 15.37036
58.500 15.597201
58.505 15.954013
58.510 16.158537
58.515 16.760597
58.520 17.141796
58.525 17.251539
58.530 17.416567
58.535 16.741051
58.540 16.426886
58.545 16.12509
58.550 15.333353
