!@!!GADDS PLOTSO FILE: Chi integration type
!@!!Title/SampleName: map-8e
!@!!Comment: ?
!@!!User: Bruker Instrument Administrator
!@!!Site: University of Illinois Chicago
!@!!Frame: map-8e_01_000.gfrm
!@!!Wavelengths    1.54184   1.54056   1.54439
!@!!Frame angles: 2Theta: 63.000 Omega: 50.000 Phi: 0.000 Chi: 90.000
!@!!Integration range: 2Theta: 53.000 to 73.000  Gamma: -105.000 to -75.000
!@!!Integration method: bin normalized
!@!N
!@!SS
!@!M
!@!L 0.0 0.0 0.0 0.0
!@!XDegrees
!@!YCounts
53.000 8.894837
53.005 8.933828
53.010 9.228637
53.015 9.102641
53.020 8.602307
53.025 8.432549
53.030 8.36077
53.035 7.981863
53.040 8.125066
53.045 7.960223
53.050 7.755882
53.055 7.792425
53.060 8.03601
53.065 8.190304
53.070 8.148404
53.075 7.957537
53.080 8.090318
53.085 8.410255
53.090 8.449877
53.095 8.034862
53.100 8.004848
53.105 8.382642
53.110 8.917548
53.115 8.695326
53.120 8.454473
53.125 8.588099
53.130 9.057739
53.135 9.130565
53.140 8.63813
53.145 8.821481
53.150 8.961825
53.155 9.020406
53.160 9.036934
53.165 9.162905
53.170 9.668696
53.175 10.057425
53.180 9.86692
53.185 9.83746
53.190 10.073023
53.195 10.385649
53.200 10.081199
53.205 9.512283
53.210 9.552279
53.215 10.223588
53.220 10.271433
53.225 9.910448
53.230 9.305021
53.235 9.166029
53.240 9.068124
53.245 8.478728
53.250 8.001935
53.255 7.858418
53.260 7.898704
53.265 7.741569
53.270 7.775385
53.275 7.722078
53.280 7.497821
53.285 7.58413
53.290 7.611931
53.295 7.692978
53.300 7.723252
53.305 7.997792
53.310 8.625519
53.315 8.760401
53.320 8.699973
53.325 8.843129
53.330 8.764266
53.335 8.662698
53.340 8.343946
53.345 8.216125
53.350 8.371731
53.355 8.530045
53.360 8.431369
53.365 8.396382
53.370 8.497386
53.375 8.324823
53.380 8.441101
53.385 8.850012
53.390 8.630457
53.395 8.80069
53.400 8.853253
53.405 9.184616
53.410 9.491701
53.415 9.752147
53.420 9.728454
53.425 10.027965
53.430 10.01019
53.435 9.854918
53.440 9.772419
53.445 9.564356
53.450 9.426057
53.455 9.544285
53.460 9.782657
53.465 9.796566
53.470 9.882504
53.475 9.596404
53.480 9.597104
53.485 9.531227
53.490 8.929155
53.495 8.901542
53.500 9.124886
53.505 9.205579
53.510 9.133896
53.515 9.206575
53.520 9.554199
53.525 9.561808
53.530 9.926846
53.535 10.040525
53.540 10.047885
53.545 10.256973
53.550 9.940055
53.555 10.324796
53.560 10.160445
53.565 9.787683
53.570 10.012435
53.575 9.720676
53.580 9.562116
53.585 9.407971
53.590 8.931195
53.595 9.210583
53.600 8.875413
53.605 8.558422
53.610 8.680432
53.615 8.536328
53.620 8.390134
53.625 8.583117
53.630 8.928268
53.635 9.255361
53.640 9.649435
53.645 9.769217
53.650 10.064486
53.655 9.915156
53.660 9.76819
53.665 9.340615
53.670 9.128752
53.675 9.193426
53.680 9.209281
53.685 8.88477
53.690 8.655537
53.695 8.290163
53.700 8.37941
53.705 8.139335
53.710 7.584674
53.715 7.295773
53.720 7.896235
53.725 8.231466
53.730 8.164578
53.735 8.404144
53.740 8.804242
53.745 9.153313
53.750 9.501532
53.755 9.489401
53.760 10.029937
53.765 10.439752
53.770 10.374109
53.775 10.285673
53.780 10.143884
53.785 9.574281
53.790 9.338918
53.795 8.943975
53.800 8.682673
53.805 8.777785
53.810 8.608331
53.815 8.51147
53.820 8.906263
53.825 9.439782
53.830 9.511546
53.835 9.712013
53.840 9.606108
53.845 9.812876
53.850 9.917793
53.855 9.755974
53.860 9.249508
53.865 9.263501
53.870 8.990616
53.875 9.028414
53.880 9.500188
53.885 9.238596
53.890 8.931463
53.895 8.680904
53.900 8.225928
53.905 8.500401
53.910 8.598506
53.915 8.548841
53.920 8.61852
53.925 8.854465
53.930 9.083231
53.935 9.493695
53.940 9.099683
53.945 8.622631
53.950 8.561843
53.955 8.66332
53.960 8.973909
53.965 9.399098
53.970 9.182392
53.975 9.230171
53.980 9.325004
53.985 9.345846
53.990 9.480012
53.995 9.345305
54.000 9.183331
54.005 9.276526
54.010 10.027144
54.015 10.477375
54.020 10.524725
54.025 10.488267
54.030 10.554175
54.035 10.699946
54.040 10.678393
54.045 10.257476
54.050 9.683841
54.055 9.597767
54.060 9.493367
54.065 9.101469
54.070 9.156584
54.075 9.128005
54.080 9.250602
54.085 9.484427
54.090 9.78989
54.095 9.838031
54.100 9.978282
54.105 9.62775
54.110 9.335016
54.115 9.630435
54.120 9.42084
54.125 8.897253
54.130 8.923212
54.135 9.124199
54.140 9.686549
54.145 10.008027
54.150 9.737374
54.155 9.904419
54.160 10.034071
54.165 9.504262
54.170 9.446979
54.175 9.013637
54.180 8.601744
54.185 8.881678
54.190 8.954545
54.195 9.428538
54.200 9.74036
54.205 9.42221
54.210 9.100255
54.215 9.117588
54.220 9.111065
54.225 9.396161
54.230 9.392163
54.235 9.494752
54.240 9.602285
54.245 9.889714
54.250 9.567759
54.255 9.127051
54.260 8.880804
54.265 8.708435
54.270 9.362329
54.275 9.419804
54.280 9.569137
54.285 9.667795
54.290 9.510382
54.295 9.071522
54.300 8.686651
54.305 8.462987
54.310 8.797558
54.315 8.882479
54.320 9.315428
54.325 9.714135
54.330 10.28021
54.335 10.930051
54.340 10.9546
54.345 11.089374
54.350 10.920904
54.355 10.929589
54.360 10.689839
54.365 10.471539
54.370 9.836618
54.375 9.623735
54.380 9.52051
54.385 9.41603
54.390 9.223415
54.395 9.042353
54.400 8.938542
54.405 9.129098
54.410 9.428297
54.415 9.912632
54.420 10.061922
54.425 9.805345
54.430 9.623368
54.435 9.674598
54.440 9.014836
54.445 9.040844
54.450 8.925231
54.455 9.253882
54.460 9.782782
54.465 9.912408
54.470 10.036294
54.475 10.261255
54.480 10.140314
54.485 10.216003
54.490 9.947656
54.495 10.254111
54.500 10.191153
54.505 9.823105
54.510 9.714231
54.515 9.363098
54.520 9.329248
54.525 9.851176
54.530 9.707773
54.535 9.922528
54.540 10.320536
54.545 10.27572
54.550 10.434632
54.555 9.897517
54.560 10.095726
54.565 10.234426
54.570 10.298589
54.575 10.129665
54.580 10.183428
54.585 10.224147
54.590 10.656976
54.595 10.550475
54.600 10.46062
54.605 10.326829
54.610 10.289994
54.615 10.256659
54.620 10.440338
54.625 10.02037
54.630 9.639304
54.635 10.250418
54.640 10.362885
54.645 10.744278
54.650 11.117985
54.655 11.432797
54.660 11.617122
54.665 11.660556
54.670 11.555632
54.675 11.42139
54.680 11.394397
54.685 11.028549
54.690 10.562487
54.695 11.024803
54.700 11.053122
54.705 10.652108
54.710 10.520472
54.715 10.330576
54.720 9.910813
54.725 9.318551
54.730 9.029439
54.735 9.249998
54.740 9.761873
54.745 9.937012
54.750 9.848899
54.755 10.02117
54.760 10.142804
54.765 10.001578
54.770 9.684697
54.775 9.470915
54.780 8.811185
54.785 8.845253
54.790 9.420329
54.795 9.327208
54.800 8.850067
54.805 9.092232
54.810 9.528818
54.815 10.749394
54.820 10.442963
54.825 10.082264
54.830 10.348248
54.835 10.791791
54.840 10.816183
54.845 10.510508
54.850 10.436196
54.855 10.798528
54.860 11.122225
54.865 11.278319
54.870 11.097895
54.875 11.464593
54.880 11.137751
54.885 10.731562
54.890 10.822047
54.895 10.816795
54.900 11.052958
54.905 11.019538
54.910 10.864513
54.915 11.027761
54.920 11.092752
54.925 10.59814
54.930 10.592382
54.935 10.09402
54.940 10.210961
54.945 10.393209
54.950 10.549366
54.955 10.875216
54.960 11.294095
54.965 10.949623
54.970 11.295182
54.975 11.145676
54.980 10.861101
54.985 10.922333
54.990 10.744287
54.995 10.790773
55.000 11.049832
55.005 10.836559
55.010 10.612577
55.015 10.625385
55.020 10.292786
55.025 10.664355
55.030 10.713837
55.035 10.394984
55.040 10.612965
55.045 10.72483
55.050 10.810684
55.055 11.037997
55.060 10.913875
55.065 10.783637
55.070 10.994294
55.075 10.892201
55.080 10.911235
55.085 10.90922
55.090 10.462132
55.095 10.535657
55.100 10.713822
55.105 10.487877
55.110 10.366083
55.115 10.643485
55.120 10.983619
55.125 11.163958
55.130 10.74858
55.135 10.447334
55.140 10.723749
55.145 10.961008
55.150 10.753255
55.155 10.675161
55.160 10.579191
55.165 10.787651
55.170 11.047056
55.175 11.304708
55.180 11.493163
55.185 11.654047
55.190 11.46944
55.195 11.412178
55.200 11.944897
55.205 11.674549
55.210 11.216641
55.215 10.873176
55.220 10.903025
55.225 11.237944
55.230 10.859048
55.235 9.804566
55.240 9.838006
55.245 10.100105
55.250 9.990331
55.255 9.834463
55.260 9.554134
55.265 10.268071
55.270 10.79906
55.275 11.007277
55.280 11.002702
55.285 11.170896
55.290 11.030373
55.295 11.242543
55.300 11.037801
55.305 11.298862
55.310 11.118458
55.315 11.007982
55.320 11.156265
55.325 11.140693
55.330 10.827873
55.335 10.858989
55.340 10.292968
55.345 10.382589
55.350 10.378129
55.355 10.233222
55.360 10.260213
55.365 9.857094
55.370 9.558784
55.375 9.519753
55.380 9.315929
55.385 8.880922
55.390 8.449197
55.395 9.035376
55.400 9.649709
55.405 9.617058
55.410 9.534795
55.415 9.773686
55.420 10.037915
55.425 10.748631
55.430 10.163806
55.435 10.193941
55.440 10.654429
55.445 11.253358
55.450 11.470813
55.455 11.787134
55.460 11.067397
55.465 11.165987
55.470 11.130892
55.475 10.740813
55.480 10.465779
55.485 10.041812
55.490 10.042455
55.495 10.367995
55.500 10.173342
55.505 10.20627
55.510 10.382983
55.515 10.400471
55.520 10.565485
55.525 10.235776
55.530 10.550205
55.535 10.62732
55.540 10.472902
55.545 10.245989
55.550 10.552392
55.555 10.528775
55.560 10.39543
55.565 10.418161
55.570 10.399291
55.575 10.430409
55.580 10.11819
55.585 10.025137
55.590 10.413779
55.595 10.734896
55.600 10.905097
55.605 10.912047
55.610 11.131392
55.615 11.431099
55.620 10.786496
55.625 10.225233
55.630 10.176887
55.635 10.175625
55.640 10.311265
55.645 10.159109
55.650 10.427451
55.655 10.788949
55.660 10.819912
55.665 10.234232
55.670 10.128794
55.675 10.261928
55.680 10.342574
55.685 10.53397
55.690 10.917054
55.695 11.513023
55.700 12.405675
55.705 12.807188
55.710 12.857133
55.715 12.848113
55.720 12.829453
55.725 12.651733
55.730 12.427479
55.735 12.303273
55.740 11.983385
55.745 11.980633
55.750 11.59084
55.755 11.211278
55.760 11.078684
55.765 10.740797
55.770 10.067157
55.775 10.306538
55.780 10.691768
55.785 10.875804
55.790 11.082605
55.795 11.155279
55.800 11.181004
55.805 11.568085
55.810 11.079741
55.815 10.744979
55.820 11.104863
55.825 11.263638
55.830 11.233747
55.835 11.838187
55.840 11.944134
55.845 12.411909
55.850 12.20669
55.855 12.193395
55.860 12.060305
55.865 12.668701
55.870 12.644063
55.875 12.373256
55.880 12.407522
55.885 12.681515
55.890 12.507668
55.895 12.590902
55.900 12.16581
55.905 11.992479
55.910 12.214995
55.915 12.28964
55.920 11.771967
55.925 11.682528
55.930 11.739451
55.935 11.891276
55.940 12.270157
55.945 12.344766
55.950 12.221458
55.955 12.724681
55.960 12.714182
55.965 12.126084
55.970 11.6631
55.975 11.272898
55.980 11.223425
55.985 10.740903
55.990 10.44838
55.995 10.625627
56.000 10.792321
56.005 10.902669
56.010 11.283831
56.015 11.236563
56.020 11.586644
56.025 11.69115
56.030 11.696939
56.035 11.860591
56.040 11.605892
56.045 11.263935
56.050 11.448817
56.055 11.662721
56.060 11.312915
56.065 11.354268
56.070 11.810513
56.075 12.401902
56.080 12.768849
56.085 12.456017
56.090 12.349635
56.095 12.895461
56.100 12.989609
56.105 12.778966
56.110 12.131905
56.115 11.785986
56.120 11.631919
56.125 11.744147
56.130 11.456329
56.135 11.089005
56.140 10.806007
56.145 11.381432
56.150 11.294741
56.155 11.833529
56.160 11.990949
56.165 11.866242
56.170 12.12166
56.175 12.600183
56.180 12.432859
56.185 12.34242
56.190 11.902891
56.195 11.69127
56.200 12.001663
56.205 11.926631
56.210 11.53451
56.215 11.315813
56.220 11.522273
56.225 11.550149
56.230 12.006085
56.235 12.489355
56.240 12.603692
56.245 13.213464
56.250 13.782933
56.255 13.937979
56.260 13.724892
56.265 13.414123
56.270 13.02102
56.275 12.736534
56.280 11.991439
56.285 11.328249
56.290 11.641293
56.295 12.115715
56.300 12.256177
56.305 12.439789
56.310 12.215875
56.315 12.192716
56.320 12.058385
56.325 12.02033
56.330 12.071855
56.335 12.031999
56.340 12.228783
56.345 12.569865
56.350 12.870944
56.355 13.245884
56.360 12.625603
56.365 12.182728
56.370 11.896294
56.375 11.598368
56.380 11.736556
56.385 12.173535
56.390 11.816159
56.395 12.054401
56.400 12.066773
56.405 12.057656
56.410 11.958401
56.415 11.833712
56.420 11.611864
56.425 11.932416
56.430 11.828477
56.435 11.934841
56.440 11.753448
56.445 11.458425
56.450 11.306646
56.455 10.703866
56.460 10.653095
56.465 10.97829
56.470 10.51869
56.475 10.388469
56.480 10.235281
56.485 10.756333
56.490 11.636252
56.495 11.83148
56.500 11.090715
56.505 11.240334
56.510 12.044481
56.515 12.544589
56.520 12.309756
56.525 12.10141
56.530 12.199134
56.535 12.482426
56.540 12.496319
56.545 12.146952
56.550 12.22854
56.555 12.254115
56.560 11.953646
56.565 12.192416
56.570 12.395653
56.575 12.441617
56.580 12.697017
56.585 12.441664
56.590 12.15789
56.595 12.294619
56.600 11.975033
56.605 11.924755
56.610 11.966821
56.615 11.696565
56.620 11.931846
56.625 11.980459
56.630 12.303172
56.635 12.594772
56.640 12.728082
56.645 12.831965
56.650 12.947167
56.655 13.017386
56.660 12.881559
56.665 12.581195
56.670 12.452311
56.675 12.614074
56.680 12.779681
56.685 13.117245
56.690 13.387728
56.695 13.023961
56.700 12.872526
56.705 13.153378
56.710 13.2607
56.715 12.902846
56.720 12.989057
56.725 12.800284
56.730 13.128705
56.735 13.12114
56.740 12.956256
56.745 12.541062
56.750 12.416138
56.755 12.247901
56.760 12.802762
56.765 13.249058
56.770 13.490769
56.775 13.553144
56.780 13.14175
56.785 12.953509
56.790 12.550446
56.795 12.432526
56.800 12.478521
56.805 12.8763
56.810 12.897529
56.815 13.490987
56.820 13.638136
56.825 13.927939
56.830 13.115774
56.835 12.443023
56.840 11.817418
56.845 12.243041
56.850 12.469875
56.855 12.566693
56.860 13.128666
56.865 13.765338
56.870 14.951067
56.875 14.94109
56.880 14.829587
56.885 14.788609
56.890 14.303076
56.895 13.632777
56.900 13.18542
56.905 12.098373
56.910 12.136792
56.915 11.643834
56.920 12.123869
56.925 12.660804
56.930 13.389956
56.935 13.599545
56.940 13.78309
56.945 13.58696
56.950 13.461898
56.955 13.142101
56.960 12.369439
56.965 11.739613
56.970 12.084102
56.975 12.567556
56.980 13.26539
56.985 13.470263
56.990 13.492783
56.995 13.79094
57.000 13.781963
57.005 13.421506
57.010 13.646293
57.015 13.287077
57.020 13.120018
57.025 13.208532
57.030 13.148942
57.035 13.183139
57.040 13.129821
57.045 12.898128
57.050 13.503511
57.055 13.253304
57.060 13.003107
57.065 13.024697
57.070 13.171988
57.075 13.671071
57.080 13.584762
57.085 13.175919
57.090 14.097799
57.095 14.414086
57.100 14.372536
57.105 14.484771
57.110 13.946055
57.115 13.794605
57.120 13.756302
57.125 13.410778
57.130 13.432776
57.135 13.146985
57.140 12.899914
57.145 12.893042
57.150 12.703998
57.155 11.946768
57.160 11.508763
57.165 11.00457
57.170 11.207915
57.175 11.314976
57.180 11.521663
57.185 11.792085
57.190 11.969126
57.195 12.032246
57.200 12.287116
57.205 12.242163
57.210 12.499456
57.215 12.401237
57.220 12.856128
57.225 13.308021
57.230 13.679178
57.235 14.231685
57.240 14.399597
57.245 14.0195
57.250 14.397186
57.255 14.561145
57.260 14.992688
57.265 15.079316
57.270 15.04355
57.275 14.813632
57.280 14.82617
57.285 14.125808
57.290 13.766487
57.295 13.550889
57.300 12.942336
57.305 12.466082
57.310 12.702303
57.315 12.182234
57.320 12.297687
57.325 12.211113
57.330 12.56039
57.335 12.910552
57.340 12.906754
57.345 13.14033
57.350 14.060855
57.355 14.388487
57.360 14.707649
57.365 14.680584
57.370 15.061947
57.375 15.375693
57.380 15.382351
57.385 14.871486
57.390 14.474379
57.395 14.137152
57.400 13.828275
57.405 13.904071
57.410 13.566691
57.415 13.172832
57.420 13.323438
57.425 13.571054
57.430 13.130204
57.435 13.160365
57.440 12.819104
57.445 12.669213
57.450 13.135442
57.455 12.973533
57.460 12.641416
57.465 12.994246
57.470 12.782052
57.475 12.627711
57.480 12.651382
57.485 12.619948
57.490 12.857568
57.495 12.592083
57.500 12.101571
57.505 12.013911
57.510 12.172591
57.515 12.445622
57.520 11.886102
57.525 11.855299
57.530 12.719378
57.535 13.315888
57.540 13.622309
57.545 13.691204
57.550 13.609303
57.555 14.136789
57.560 14.025697
57.565 13.939007
57.570 13.986498
57.575 13.833494
57.580 13.855134
57.585 13.889648
57.590 14.176629
57.595 14.126032
57.600 13.652395
57.605 13.668297
57.610 13.674129
57.615 13.744915
57.620 13.938537
57.625 13.90132
57.630 14.447936
57.635 14.796057
57.640 15.018138
57.645 14.990321
57.650 14.905872
57.655 14.576465
57.660 14.239746
57.665 13.630597
57.670 13.118811
57.675 13.346067
57.680 13.970592
57.685 13.837576
57.690 13.556777
57.695 13.55254
57.700 13.694322
57.705 13.58569
57.710 13.207295
57.715 12.840467
57.720 13.187965
57.725 13.552587
57.730 13.922085
57.735 14.038198
57.740 14.329046
57.745 14.242011
57.750 14.245121
57.755 14.436754
57.760 14.604224
57.765 14.488622
57.770 14.155427
57.775 14.218768
57.780 14.736607
57.785 14.943678
57.790 15.183678
57.795 14.890957
57.800 15.289473
57.805 15.735355
57.810 15.356096
57.815 14.787902
57.820 14.316645
57.825 14.206006
57.830 15.089659
57.835 15.605014
57.840 15.839244
57.845 16.249294
57.850 16.062147
57.855 15.516564
57.860 15.765407
57.865 15.177617
57.870 14.440057
57.875 14.002846
57.880 14.057578
57.885 14.675427
57.890 15.41687
57.895 15.029372
57.900 15.75247
57.905 16.272072
57.910 16.556337
57.915 16.439478
57.920 16.42021
57.925 16.35915
57.930 15.99696
57.935 15.422528
57.940 15.242082
57.945 15.027343
57.950 15.144591
57.955 15.256025
57.960 15.023705
57.965 15.17706
57.970 14.743478
57.975 14.650407
57.980 14.690505
57.985 14.633812
57.990 14.330053
57.995 14.775422
58.000 15.169968
58.005 15.392625
58.010 15.775351
58.015 16.111698
58.020 15.939078
58.025 15.685593
58.030 15.431274
58.035 15.253345
58.040 15.165487
58.045 15.151981
58.050 15.130964
58.055 15.218199
58.060 15.348114
58.065 15.354756
58.070 15.553859
58.075 15.72064
58.080 15.20404
58.085 14.921265
58.090 14.950406
58.095 14.669656
58.100 14.640059
58.105 14.278125
58.110 14.38709
58.115 14.189789
58.120 14.240404
58.125 14.476079
58.130 14.99929
58.135 15.06397
58.140 15.435217
58.145 16.113394
58.150 16.627953
58.155 16.895731
58.160 17.242102
58.165 17.415558
58.170 17.823778
58.175 17.728823
58.180 17.17288
58.185 16.81217
58.190 16.407116
58.195 16.124428
58.200 15.702327
58.205 15.284292
58.210 15.162878
58.215 15.060204
58.220 15.071074
58.225 15.437531
58.230 15.455391
58.235 15.546071
58.240 15.411363
58.245 15.186934
58.250 15.979239
58.255 16.675512
58.260 16.40243
58.265 16.432461
58.270 16.648914
58.275 16.919224
58.280 17.489164
58.285 17.446703
58.290 17.5641
58.295 17.529058
58.300 17.959082
58.305 18.192934
58.310 18.476849
58.315 18.563459
58.320 18.167315
58.325 18.250633
58.330 18.848238
58.335 18.810287
58.340 18.66946
58.345 18.440929
58.350 18.085688
58.355 18.388195
58.360 18.659834
58.365 19.269297
58.370 19.949316
58.375 20.485601
58.380 21.197084
58.385 22.029873
58.390 22.718559
58.395 22.769171
58.400 21.850105
58.405 21.514814
58.410 21.847015
58.415 22.058914
58.420 21.673103
58.425 21.673676
58.430 21.814308
58.435 21.941595
58.440 22.101013
58.445 21.810045
58.450 21.875572
58.455 22.319899
58.460 22.539928
58.465 22.96036
58.470 23.567616
58.475 24.335505
58.480 24.492449
58.485 24.795433
58.490 25.110224
58.495 25.526567
58.500 25.781935
58.505 26.034918
58.510 26.696539
58.515 27.236761
