!@!!GADDS PLOTSO FILE: Chi integration type
!@!!Title/SampleName: map-d6
!@!!Comment: ?
!@!!User: Bruker Instrument Administrator
!@!!Site: University of Illinois Chicago
!@!!Frame: map-d6_01_000.gfrm
!@!!Wavelengths    1.54184   1.54056   1.54439
!@!!Frame angles: 2Theta: 63.000 Omega: 50.000 Phi: 0.000 Chi: 90.000
!@!!Integration range: 2Theta: 53.000 to 73.000  Gamma: -105.000 to -75.000
!@!!Integration method: bin normalized
!@!N
!@!SS
!@!M
!@!L 0.0 0.0 0.0 0.0
!@!XDegrees
!@!YCounts
53.000 8.399442
53.005 8.524859
53.010 8.970796
53.015 8.921494
53.020 8.389714
53.025 8.278508
53.030 8.669233
53.035 9.105643
53.040 8.900952
53.045 8.639837
53.050 8.978438
53.055 9.039495
53.060 9.028337
53.065 9.17047
53.070 9.35334
53.075 9.384783
53.080 8.952559
53.085 8.894828
53.090 8.490876
53.095 8.214938
53.100 7.679094
53.105 7.490653
53.110 7.436465
53.115 7.432542
53.120 7.649704
53.125 8.359598
53.130 8.531643
53.135 9.052444
53.140 9.1803
53.145 9.279049
53.150 9.237888
53.155 8.907254
53.160 9.055992
53.165 9.284115
53.170 9.123234
53.175 9.054281
53.180 8.976892
53.185 9.080419
53.190 8.912732
53.195 8.59573
53.200 8.411892
53.205 8.271438
53.210 8.670124
53.215 9.04141
53.220 9.158703
53.225 8.80125
53.230 8.845869
53.235 8.759828
53.240 8.803806
53.245 8.394089
53.250 7.983825
53.255 7.931149
53.260 7.88951
53.265 7.678618
53.270 7.493011
53.275 7.387401
53.280 7.63114
53.285 7.593563
53.290 7.925896
53.295 8.209699
53.300 8.236691
53.305 7.962631
53.310 8.552735
53.315 8.729536
53.320 8.712431
53.325 8.077228
53.330 7.833952
53.335 8.410336
53.340 8.719378
53.345 8.257952
53.350 8.44829
53.355 8.574336
53.360 8.959041
53.365 8.921168
53.370 8.884176
53.375 8.745989
53.380 9.005418
53.385 8.764051
53.390 9.079392
53.395 9.675723
53.400 9.332264
53.405 9.241376
53.410 9.440522
53.415 9.5236
53.420 9.844144
53.425 9.448753
53.430 8.866295
53.435 9.107938
53.440 9.273434
53.445 9.291329
53.450 8.815846
53.455 8.66888
53.460 8.424607
53.465 8.943532
53.470 8.850877
53.475 8.514963
53.480 8.351566
53.485 8.584257
53.490 8.869868
53.495 9.388529
53.500 9.893242
53.505 10.191812
53.510 10.418043
53.515 10.379638
53.520 10.892527
53.525 10.613069
53.530 10.39883
53.535 9.86265
53.540 9.807091
53.545 9.491327
53.550 9.496691
53.555 9.394838
53.560 9.842649
53.565 9.990721
53.570 10.086881
53.575 9.956331
53.580 9.959792
53.585 9.737166
53.590 9.973986
53.595 9.458346
53.600 9.436306
53.605 9.610888
53.610 9.737906
53.615 9.998079
53.620 9.943857
53.625 9.269009
53.630 9.06961
53.635 8.671054
53.640 8.600952
53.645 8.503451
53.650 8.322322
53.655 8.587849
53.660 9.053468
53.665 9.191545
53.670 9.484084
53.675 9.727599
53.680 10.035874
53.685 9.964536
53.690 9.742016
53.695 9.822199
53.700 9.782359
53.705 9.400984
53.710 9.429589
53.715 9.342644
53.720 9.789879
53.725 10.192253
53.730 10.217687
53.735 10.145751
53.740 9.93292
53.745 9.679779
53.750 9.63123
53.755 9.597323
53.760 9.123287
53.765 9.284125
53.770 9.93856
53.775 10.314258
53.780 10.608087
53.785 10.359875
53.790 10.139718
53.795 10.175889
53.800 9.957023
53.805 9.425979
53.810 9.099109
53.815 8.958761
53.820 8.935619
53.825 8.391223
53.830 8.561421
53.835 8.575301
53.840 9.006324
53.845 8.821787
53.850 8.806011
53.855 9.067022
53.860 9.765111
53.865 9.703376
53.870 9.359373
53.875 9.199486
53.880 9.63434
53.885 9.919788
53.890 9.685703
53.895 9.510307
53.900 9.265881
53.905 9.49595
53.910 9.278615
53.915 8.930661
53.920 8.817057
53.925 8.398664
53.930 8.69464
53.935 9.511784
53.940 9.393514
53.945 9.611649
53.950 9.726625
53.955 10.004009
53.960 10.712408
53.965 10.651237
53.970 10.576329
53.975 11.046211
53.980 11.062722
53.985 11.376856
53.990 11.209011
53.995 10.728229
54.000 10.326041
54.005 9.872787
54.010 9.503904
54.015 9.021967
54.020 8.856048
54.025 8.8814
54.030 8.95819
54.035 9.120516
54.040 9.455504
54.045 9.591606
54.050 9.753518
54.055 9.797738
54.060 9.958175
54.065 10.504708
54.070 10.13989
54.075 9.941433
54.080 10.112717
54.085 10.236609
54.090 10.195225
54.095 9.68435
54.100 9.425807
54.105 9.705649
54.110 9.893549
54.115 9.72565
54.120 9.530501
54.125 9.906836
54.130 9.95638
54.135 10.122524
54.140 10.623185
54.145 10.437492
54.150 10.698331
54.155 10.346048
54.160 10.392685
54.165 10.283422
54.170 10.26937
54.175 10.105783
54.180 10.170914
54.185 10.07157
54.190 10.408188
54.195 10.652409
54.200 11.281564
54.205 11.086676
54.210 11.002587
54.215 10.904792
54.220 10.925663
54.225 10.698265
54.230 10.545376
54.235 10.613203
54.240 10.429987
54.245 10.107628
54.250 10.574471
54.255 10.69092
54.260 10.57456
54.265 10.412064
54.270 10.182214
54.275 10.495752
54.280 10.175489
54.285 9.863969
54.290 10.226274
54.295 10.244747
54.300 9.979384
54.305 10.478023
54.310 10.525396
54.315 10.900994
54.320 10.773425
54.325 10.872019
54.330 10.855671
54.335 11.222421
54.340 11.085685
54.345 11.099534
54.350 10.573284
54.355 10.49787
54.360 10.38553
54.365 10.182978
54.370 9.471136
54.375 9.229954
54.380 9.551349
54.385 9.882556
54.390 10.3732
54.395 10.675476
54.400 10.918765
54.405 11.426589
54.410 11.253352
54.415 10.942176
54.420 10.824099
54.425 10.316564
54.430 10.29497
54.435 10.001412
54.440 9.956746
54.445 10.412484
54.450 10.803462
54.455 10.850729
54.460 10.611611
54.465 10.495896
54.470 11.441342
54.475 11.441223
54.480 11.422807
54.485 11.483937
54.490 11.751158
54.495 12.093326
54.500 11.794039
54.505 11.049187
54.510 10.937771
54.515 11.175733
54.520 10.932884
54.525 11.366948
54.530 11.212186
54.535 11.429685
54.540 11.321978
54.545 11.234021
54.550 11.362727
54.555 11.123041
54.560 10.566262
54.565 10.259336
54.570 10.602184
54.575 11.569886
54.580 11.347618
54.585 11.194795
54.590 10.931031
54.595 11.135915
54.600 11.434635
54.605 10.900768
54.610 10.486351
54.615 10.362101
54.620 10.581415
54.625 10.664259
54.630 10.217896
54.635 10.240329
54.640 9.999598
54.645 9.792897
54.650 9.78046
54.655 9.992938
54.660 10.187415
54.665 10.803736
54.670 10.749417
54.675 10.991012
54.680 11.675029
54.685 11.597441
54.690 11.630527
54.695 11.909456
54.700 11.050623
54.705 10.777802
54.710 10.572975
54.715 9.940348
54.720 9.804397
54.725 9.8078
54.730 9.982193
54.735 10.519237
54.740 10.981225
54.745 11.041713
54.750 11.179746
54.755 11.069542
54.760 10.793232
54.765 10.740044
54.770 10.676977
54.775 10.601159
54.780 10.480904
54.785 10.152966
54.790 10.155465
54.795 9.992968
54.800 9.847284
54.805 9.792681
54.810 9.960894
54.815 10.442072
54.820 10.574297
54.825 10.714612
54.830 10.595878
54.835 10.652555
54.840 10.331772
54.845 9.692554
54.850 9.648514
54.855 10.028389
54.860 10.226974
54.865 10.333383
54.870 10.185708
54.875 10.49979
54.880 10.384585
54.885 10.416552
54.890 10.647548
54.895 10.299917
54.900 10.040174
54.905 9.907693
54.910 10.223977
54.915 10.575555
54.920 10.592504
54.925 10.20568
54.930 10.697137
54.935 11.063244
54.940 11.273146
54.945 10.904121
54.950 11.27456
54.955 11.229206
54.960 10.803389
54.965 10.609825
54.970 10.492426
54.975 10.586074
54.980 11.011006
54.985 10.917141
54.990 11.093583
54.995 11.735986
55.000 12.315879
55.005 12.319955
55.010 12.215863
55.015 11.778913
55.020 11.486769
55.025 11.62329
55.030 11.453853
55.035 11.271875
55.040 11.211652
55.045 11.178852
55.050 11.05615
55.055 10.814948
55.060 10.374614
55.065 9.762648
55.070 9.625401
55.075 9.668178
55.080 9.593021
55.085 9.88659
55.090 9.736755
55.095 10.058053
55.100 10.451887
55.105 10.451649
55.110 10.274296
55.115 10.16345
55.120 10.306606
55.125 10.757439
55.130 10.592946
55.135 10.585182
55.140 10.697812
55.145 11.243021
55.150 11.440963
55.155 11.299204
55.160 11.213281
55.165 11.054015
55.170 11.173351
55.175 11.294704
55.180 11.317883
55.185 11.432514
55.190 11.32036
55.195 11.431771
55.200 11.28577
55.205 11.351664
55.210 11.354446
55.215 11.175855
55.220 11.031802
55.225 11.011688
55.230 11.044001
55.235 11.079303
55.240 10.866582
55.245 11.015087
55.250 10.889489
55.255 10.283043
55.260 10.224536
55.265 10.335592
55.270 10.655919
55.275 10.588943
55.280 10.31208
55.285 10.783356
55.290 11.52534
55.295 11.486903
55.300 11.223112
55.305 11.17595
55.310 11.269209
55.315 11.401075
55.320 11.474898
55.325 11.686169
55.330 11.745546
55.335 12.175141
55.340 12.439196
55.345 12.501533
55.350 12.561067
55.355 12.536205
55.360 12.710047
55.365 12.959711
55.370 12.615214
55.375 11.983047
55.380 11.742325
55.385 11.610538
55.390 11.602025
55.395 11.488442
55.400 11.415586
55.405 11.62576
55.410 11.966384
55.415 12.155222
55.420 12.093957
55.425 11.899203
55.430 12.249791
55.435 12.33343
55.440 12.413616
55.445 12.738481
55.450 12.836873
55.455 12.538287
55.460 12.541162
55.465 12.481012
55.470 12.398051
55.475 11.690503
55.480 11.220883
55.485 10.913798
55.490 10.733416
55.495 9.977922
55.500 9.958371
55.505 10.476295
55.510 10.952194
55.515 11.03491
55.520 11.231553
55.525 11.519211
55.530 11.583677
55.535 11.225561
55.540 10.754697
55.545 10.66455
55.550 11.131557
55.555 11.450127
55.560 11.82768
55.565 12.380772
55.570 12.955071
55.575 13.773813
55.580 14.152463
55.585 13.634049
55.590 13.240911
55.595 12.859895
55.600 12.43405
55.605 11.828815
55.610 11.263561
55.615 11.283711
55.620 11.391153
55.625 11.644047
55.630 11.805434
55.635 12.000094
55.640 12.090278
55.645 12.050177
55.650 11.971285
55.655 11.986341
55.660 11.960124
55.665 11.803277
55.670 11.517353
55.675 10.987493
55.680 10.476033
55.685 10.551491
55.690 10.45979
55.695 10.408999
55.700 10.460422
55.705 10.428413
55.710 10.771684
55.715 11.296277
55.720 11.615404
55.725 11.967869
55.730 12.142944
55.735 12.25021
55.740 12.335008
55.745 12.36224
55.750 12.038929
55.755 11.78251
55.760 11.204956
55.765 10.780159
55.770 10.501533
55.775 10.175272
55.780 10.272797
55.785 10.16981
55.790 10.516806
55.795 10.870498
55.800 11.556142
55.805 11.686411
55.810 11.745027
55.815 12.134034
55.820 12.492155
55.825 12.135887
55.830 11.858191
55.835 11.628541
55.840 11.622203
55.845 11.855995
55.850 11.355207
55.855 11.211501
55.860 11.263886
55.865 11.143546
55.870 11.329609
55.875 12.169069
55.880 12.416133
55.885 12.430417
55.890 12.307796
55.895 12.976695
55.900 13.823874
55.905 13.91243
55.910 14.119584
55.915 13.778925
55.920 13.678197
55.925 13.982905
55.930 13.424702
55.935 12.802585
55.940 11.913399
55.945 11.701563
55.950 12.071804
55.955 12.582338
55.960 12.162529
55.965 11.989987
55.970 11.980997
55.975 12.229007
55.980 12.211764
55.985 12.313663
55.990 12.062336
55.995 11.714252
56.000 11.838946
56.005 11.804186
56.010 11.691648
56.015 10.997377
56.020 10.449394
56.025 10.482553
56.030 11.046475
56.035 10.671866
56.040 10.684319
56.045 10.498853
56.050 10.617099
56.055 10.819442
56.060 11.008506
56.065 11.187686
56.070 11.55315
56.075 11.879088
56.080 11.912076
56.085 11.781814
56.090 11.918494
56.095 11.832434
56.100 11.875128
56.105 12.274965
56.110 11.889498
56.115 12.086584
56.120 12.067666
56.125 11.497351
56.130 11.652071
56.135 11.177801
56.140 10.681463
56.145 11.268319
56.150 11.234368
56.155 11.800722
56.160 12.184856
56.165 12.03776
56.170 12.370564
56.175 12.084326
56.180 11.493403
56.185 11.418912
56.190 10.724829
56.195 10.235595
56.200 10.68917
56.205 10.932017
56.210 11.464143
56.215 12.19712
56.220 12.694825
56.225 13.592411
56.230 14.350672
56.235 14.149856
56.240 14.30291
56.245 14.132598
56.250 13.737871
56.255 13.349881
56.260 12.379508
56.265 11.928009
56.270 11.431187
56.275 11.619905
56.280 12.066454
56.285 12.02364
56.290 12.447194
56.295 12.922531
56.300 13.094691
56.305 13.359908
56.310 13.191678
56.315 12.846741
56.320 12.626979
56.325 12.012897
56.330 11.663496
56.335 11.386939
56.340 11.444066
56.345 11.334837
56.350 11.335773
56.355 11.524323
56.360 11.555649
56.365 11.581313
56.370 11.555869
56.375 11.731757
56.380 11.961277
56.385 12.612517
56.390 12.673099
56.395 13.050712
56.400 13.366484
56.405 13.174781
56.410 13.093209
56.415 12.593892
56.420 12.055851
56.425 11.657845
56.430 11.274282
56.435 11.167629
56.440 11.319216
56.445 10.897438
56.450 11.40411
56.455 11.687512
56.460 12.460982
56.465 13.043671
56.470 12.958711
56.475 13.205213
56.480 13.128501
56.485 12.802608
56.490 13.336808
56.495 13.256735
56.500 13.008843
56.505 13.118845
56.510 12.969747
56.515 13.331955
56.520 13.266595
56.525 13.033191
56.530 12.94276
56.535 13.319645
56.540 13.260913
56.545 13.179795
56.550 12.982483
56.555 13.07639
56.560 13.02737
56.565 12.887308
56.570 12.568745
56.575 12.701768
56.580 12.749557
56.585 12.721354
56.590 12.438342
56.595 12.111294
56.600 12.087495
56.605 11.847897
56.610 11.499465
56.615 11.558982
56.620 11.371711
56.625 11.611496
56.630 12.061292
56.635 12.270742
56.640 12.497873
56.645 12.838131
56.650 13.218725
56.655 13.340662
56.660 13.366613
56.665 13.15021
56.670 12.77787
56.675 12.89254
56.680 12.767322
56.685 12.62811
56.690 12.835676
56.695 13.485916
56.700 13.990211
56.705 14.616627
56.710 14.507647
56.715 14.528019
56.720 14.470963
56.725 14.694207
56.730 14.501179
56.735 14.142566
56.740 14.045738
56.745 14.26617
56.750 14.66992
56.755 15.165705
56.760 15.020344
56.765 14.454438
56.770 14.48285
56.775 15.003827
56.780 14.753823
56.785 14.560541
56.790 14.011014
56.795 13.933049
56.800 14.405629
56.805 14.375698
56.810 14.250078
56.815 14.386491
56.820 14.398499
56.825 14.494054
56.830 14.104877
56.835 13.796866
56.840 13.932025
56.845 13.817749
56.850 13.633252
56.855 13.640676
56.860 13.565993
56.865 13.904016
56.870 13.869716
56.875 13.27434
56.880 13.513067
56.885 13.313594
56.890 13.369077
56.895 12.903912
56.900 12.495159
56.905 12.749983
56.910 12.656194
56.915 12.185059
56.920 12.053102
56.925 12.131663
56.930 12.501245
56.935 12.914193
56.940 12.809061
56.945 13.225433
56.950 13.445328
56.955 13.565399
56.960 13.199961
56.965 13.040674
56.970 12.819148
56.975 12.984125
56.980 12.82357
56.985 13.064573
56.990 13.412332
56.995 13.789865
57.000 14.106916
57.005 14.064883
57.010 13.730613
57.015 13.529466
57.020 13.09999
57.025 12.721357
57.030 12.574144
57.035 12.53106
57.040 12.691927
57.045 13.022899
57.050 13.367794
57.055 13.377021
57.060 13.385634
57.065 13.617588
57.070 12.941039
57.075 12.551285
57.080 12.42389
57.085 12.420215
57.090 12.858356
57.095 12.949865
57.100 12.99696
57.105 13.791881
57.110 13.957101
57.115 13.509581
57.120 13.314985
57.125 13.244627
57.130 13.073642
57.135 13.129363
57.140 13.402631
57.145 13.979788
57.150 15.127153
57.155 15.473757
57.160 15.212664
57.165 14.96559
57.170 14.763571
57.175 14.006473
57.180 13.384541
57.185 12.96591
57.190 12.633192
57.195 12.634659
57.200 12.804337
57.205 12.764617
57.210 13.168845
57.215 12.876051
57.220 12.47113
57.225 12.194114
57.230 12.44039
57.235 12.254245
57.240 12.292958
57.245 12.028264
57.250 11.875552
57.255 11.993133
57.260 12.199756
57.265 12.375334
57.270 12.573718
57.275 12.428682
57.280 12.615983
57.285 13.001729
57.290 13.481675
57.295 13.493666
57.300 13.464593
57.305 13.54285
57.310 13.591893
57.315 13.642263
57.320 13.563177
57.325 12.759062
57.330 12.484839
57.335 12.861459
57.340 12.400558
57.345 12.354542
57.350 11.91833
57.355 12.076186
57.360 12.427431
57.365 12.226319
57.370 11.882355
57.375 12.796473
57.380 12.736336
57.385 12.668234
57.390 12.452187
57.395 13.196026
57.400 13.38803
57.405 13.33682
57.410 12.805594
57.415 13.002765
57.420 13.471084
57.425 13.643621
57.430 12.925056
57.435 13.080564
57.440 13.130978
57.445 13.145641
57.450 13.292836
57.455 12.815634
57.460 12.968063
57.465 13.614241
57.470 13.540178
57.475 13.215747
57.480 13.558826
57.485 13.438271
57.490 13.727492
57.495 13.151254
57.500 12.601131
57.505 12.805361
57.510 12.912791
57.515 12.593417
57.520 12.460025
57.525 12.190755
57.530 12.797709
57.535 13.049133
57.540 13.328041
57.545 13.460882
57.550 14.210312
57.555 14.665693
57.560 14.902108
57.565 15.103977
57.570 14.650301
57.575 14.419204
57.580 14.353431
57.585 13.934139
57.590 14.594439
57.595 14.846942
57.600 14.74323
57.605 15.128838
57.610 15.376139
57.615 15.38889
57.620 15.055999
57.625 14.576152
57.630 14.190839
57.635 14.157207
57.640 13.953045
57.645 13.660329
57.650 13.49628
57.655 13.729033
57.660 13.555807
57.665 14.097275
57.670 14.159693
57.675 13.81791
57.680 14.144952
57.685 14.366597
57.690 14.762351
57.695 14.634607
57.700 14.195065
57.705 14.184937
57.710 14.322321
57.715 14.346498
57.720 14.196989
57.725 14.211155
57.730 14.319266
57.735 14.240664
57.740 14.18352
57.745 14.247388
57.750 14.048139
57.755 14.139897
57.760 13.549916
57.765 13.743563
57.770 13.560054
57.775 14.069123
57.780 14.073549
57.785 14.322595
57.790 14.511261
57.795 15.325351
57.800 16.005407
57.805 16.40892
57.810 16.633478
57.815 16.690393
57.820 16.891193
57.825 16.482229
57.830 16.28834
57.835 16.587271
57.840 16.24062
57.845 15.516635
57.850 15.59636
57.855 14.934396
57.860 14.878847
57.865 14.43138
57.870 14.068085
57.875 14.384642
57.880 14.507429
57.885 14.09818
57.890 14.426217
57.895 14.616633
57.900 14.35222
57.905 13.659418
57.910 13.157339
57.915 13.048611
57.920 13.597857
57.925 13.621989
57.930 13.389893
57.935 13.588911
57.940 13.857749
57.945 13.704529
57.950 13.743505
57.955 13.595863
57.960 13.44811
57.965 13.48313
57.970 12.897588
57.975 12.835164
57.980 13.233893
57.985 12.893412
57.990 12.531625
57.995 12.081689
58.000 11.716485
58.005 12.105618
58.010 12.294551
58.015 12.381393
58.020 12.654098
58.025 12.879138
58.030 13.376006
58.035 14.00099
58.040 14.128965
58.045 13.900744
58.050 13.660531
58.055 13.37084
58.060 13.736619
58.065 14.057919
58.070 14.028399
58.075 13.658813
58.080 14.134114
58.085 14.272382
58.090 14.515598
58.095 14.343523
58.100 14.03983
58.105 14.115132
58.110 13.961617
58.115 13.560719
58.120 13.308088
58.125 13.198253
58.130 12.841599
58.135 12.902871
58.140 13.090769
58.145 13.820136
58.150 13.821054
58.155 13.81768
58.160 13.917991
58.165 14.378945
58.170 14.335479
58.175 13.94269
58.180 13.502093
58.185 13.2974
58.190 13.414672
58.195 13.322227
58.200 12.620473
58.205 13.129706
58.210 13.23939
58.215 12.999527
58.220 13.197646
58.225 13.633332
58.230 14.599049
58.235 15.502562
58.240 15.578638
58.245 15.280018
58.250 15.614533
58.255 16.719967
58.260 16.492233
58.265 15.713814
58.270 15.045027
58.275 14.814693
58.280 15.674892
58.285 15.932805
58.290 15.011333
58.295 15.074145
58.300 15.218045
58.305 15.27498
58.310 15.231105
58.315 15.202128
58.320 14.809824
58.325 14.533598
58.330 14.145959
58.335 13.916319
58.340 14.047064
58.345 13.445917
58.350 13.241257
58.355 13.320181
58.360 12.984351
58.365 13.120668
58.370 13.013957
58.375 12.978451
58.380 13.440958
58.385 13.265148
58.390 13.527144
58.395 14.660921
58.400 15.433386
58.405 15.714216
58.410 15.384848
58.415 15.300021
58.420 15.5343
58.425 15.789977
58.430 15.56596
58.435 14.916926
58.440 14.494357
58.445 14.283068
58.450 14.262855
58.455 14.483189
58.460 14.308315
58.465 13.933094
58.470 14.08278
58.475 14.828788
58.480 15.188316
58.485 15.286914
58.490 14.981574
58.495 14.508711
58.500 14.72406
58.505 14.435507
