!@!!GADDS PLOTSO FILE: Chi integration type
!@!!Title/SampleName: map-b6
!@!!Comment: ?
!@!!User: Bruker Instrument Administrator
!@!!Site: University of Illinois Chicago
!@!!Frame: map-b6_01_000.gfrm
!@!!Wavelengths    1.54184   1.54056   1.54439
!@!!Frame angles: 2Theta: 63.000 Omega: 50.000 Phi: 0.000 Chi: 90.000
!@!!Integration range: 2Theta: 53.000 to 73.000  Gamma: -105.000 to -75.000
!@!!Integration method: bin normalized
!@!N
!@!SS
!@!M
!@!L 0.0 0.0 0.0 0.0
!@!XDegrees
!@!YCounts
53.000 8.508998
53.005 8.191113
53.010 7.814509
53.015 7.4312
53.020 7.521567
53.025 7.754439
53.030 7.498237
53.035 7.659924
53.040 7.552766
53.045 7.836185
53.050 7.784545
53.055 7.699468
53.060 7.693125
53.065 8.381692
53.070 8.421165
53.075 8.446626
53.080 8.260095
53.085 8.248415
53.090 8.060978
53.095 8.346725
53.100 8.096953
53.105 7.79249
53.110 8.02774
53.115 8.624258
53.120 9.06008
53.125 9.153554
53.130 8.827418
53.135 8.984735
53.140 9.137456
53.145 8.848307
53.150 8.908495
53.155 9.115395
53.160 9.421782
53.165 9.528584
53.170 9.575953
53.175 9.814784
53.180 10.047441
53.185 9.493164
53.190 9.15768
53.195 8.991227
53.200 8.733577
53.205 9.205855
53.210 9.147764
53.215 8.627609
53.220 8.779106
53.225 8.525942
53.230 8.830543
53.235 8.595997
53.240 8.017501
53.245 8.14809
53.250 8.310567
53.255 8.438377
53.260 8.443933
53.265 8.069252
53.270 8.383657
53.275 8.607028
53.280 8.718778
53.285 9.051695
53.290 9.383353
53.295 9.873916
53.300 10.041791
53.305 9.737641
53.310 9.890281
53.315 9.424903
53.320 9.310569
53.325 9.400562
53.330 9.287228
53.335 9.737097
53.340 10.012408
53.345 10.023947
53.350 10.111906
53.355 9.515823
53.360 9.221773
53.365 9.118537
53.370 8.816851
53.375 8.699738
53.380 8.451056
53.385 8.489072
53.390 8.901293
53.395 8.836433
53.400 8.483063
53.405 7.956419
53.410 7.960062
53.415 8.386612
53.420 8.889427
53.425 8.710114
53.430 8.770494
53.435 8.853881
53.440 9.505008
53.445 9.430531
53.450 9.121472
53.455 8.671812
53.460 8.685608
53.465 8.842402
53.470 8.633479
53.475 8.359807
53.480 8.646947
53.485 8.882617
53.490 9.073445
53.495 9.284742
53.500 9.448665
53.505 9.611972
53.510 9.582545
53.515 9.375655
53.520 9.443343
53.525 9.403159
53.530 8.956241
53.535 9.106207
53.540 9.006307
53.545 9.113619
53.550 9.216302
53.555 9.146186
53.560 9.543968
53.565 9.549624
53.570 9.581083
53.575 9.683159
53.580 9.404382
53.585 9.131316
53.590 8.782797
53.595 8.68356
53.600 8.361933
53.605 8.554683
53.610 8.469761
53.615 8.552892
53.620 8.933888
53.625 9.368626
53.630 9.427729
53.635 10.044024
53.640 10.104037
53.645 10.011805
53.650 10.02408
53.655 9.351425
53.660 8.866933
53.665 8.636314
53.670 8.557641
53.675 8.792951
53.680 9.063995
53.685 9.609454
53.690 10.292895
53.695 10.390651
53.700 10.17965
53.705 10.101991
53.710 9.936168
53.715 9.606072
53.720 9.131677
53.725 9.1574
53.730 9.549062
53.735 9.151178
53.740 8.692909
53.745 8.494756
53.750 8.364036
53.755 8.179584
53.760 7.731959
53.765 7.412951
53.770 7.828576
53.775 8.224257
53.780 8.780171
53.785 8.846148
53.790 8.85885
53.795 9.236578
53.800 9.553576
53.805 9.646648
53.810 9.622679
53.815 9.601935
53.820 9.63164
53.825 9.718943
53.830 9.458323
53.835 9.218861
53.840 9.201339
53.845 9.175433
53.850 9.412112
53.855 9.365539
53.860 9.29284
53.865 9.743004
53.870 9.769773
53.875 9.774352
53.880 9.616001
53.885 9.766749
53.890 10.286444
53.895 10.717816
53.900 10.769557
53.905 11.020439
53.910 11.164503
53.915 11.489902
53.920 11.581826
53.925 11.095386
53.930 11.384428
53.935 11.443562
53.940 11.358008
53.945 11.222655
53.950 11.098454
53.955 11.406042
53.960 11.221843
53.965 10.844944
53.970 10.595885
53.975 10.429993
53.980 10.248155
53.985 9.868195
53.990 9.653885
53.995 9.456841
54.000 9.361194
54.005 9.310973
54.010 9.686462
54.015 9.84889
54.020 9.748541
54.025 9.619296
54.030 9.943204
54.035 10.10571
54.040 10.094905
54.045 9.485704
54.050 9.419502
54.055 9.41421
54.060 9.626523
54.065 9.835773
54.070 9.888522
54.075 9.750832
54.080 9.904066
54.085 9.785245
54.090 10.112902
54.095 9.996868
54.100 10.040838
54.105 9.871703
54.110 10.024091
54.115 10.082328
54.120 10.149001
54.125 9.805046
54.130 9.7992
54.135 9.593911
54.140 9.754824
54.145 10.321534
54.150 10.566938
54.155 10.285957
54.160 10.313352
54.165 10.123649
54.170 10.026503
54.175 10.164138
54.180 9.881722
54.185 9.983682
54.190 10.565841
54.195 10.868163
54.200 10.826763
54.205 10.503372
54.210 10.131675
54.215 9.684423
54.220 9.608276
54.225 9.36912
54.230 9.321697
54.235 10.068771
54.240 10.657908
54.245 10.782171
54.250 10.638098
54.255 10.727383
54.260 11.229486
54.265 11.221217
54.270 10.952075
54.275 10.878109
54.280 10.988879
54.285 11.174904
54.290 10.958974
54.295 10.279303
54.300 10.52639
54.305 10.543978
54.310 10.431539
54.315 10.716843
54.320 10.382743
54.325 10.507481
54.330 10.663541
54.335 10.683441
54.340 10.91398
54.345 10.851501
54.350 10.631721
54.355 10.79962
54.360 10.606185
54.365 10.379875
54.370 9.637118
54.375 9.46245
54.380 9.107343
54.385 8.862714
54.390 8.895268
54.395 8.734557
54.400 8.958858
54.405 9.327395
54.410 9.762278
54.415 9.904007
54.420 9.93005
54.425 10.465508
54.430 10.837399
54.435 10.607018
54.440 10.56587
54.445 10.500712
54.450 10.937937
54.455 11.226367
54.460 11.164862
54.465 11.198186
54.470 11.531307
54.475 11.838056
54.480 11.778593
54.485 11.647445
54.490 11.079953
54.495 10.653383
54.500 10.740634
54.505 10.606758
54.510 10.061193
54.515 9.826158
54.520 9.526436
54.525 9.703298
54.530 9.943202
54.535 9.951752
54.540 9.97124
54.545 10.264668
54.550 10.915044
54.555 11.270582
54.560 11.1842
54.565 11.158699
54.570 10.809213
54.575 10.397742
54.580 10.235785
54.585 10.103045
54.590 9.96966
54.595 9.82552
54.600 9.446996
54.605 10.197083
54.610 10.989641
54.615 11.375054
54.620 11.739475
54.625 11.861407
54.630 12.186683
54.635 12.360538
54.640 11.749666
54.645 10.916805
54.650 10.393929
54.655 10.07188
54.660 10.68257
54.665 10.56596
54.670 10.437915
54.675 10.863905
54.680 11.101593
54.685 11.253304
54.690 10.937728
54.695 10.946805
54.700 11.232267
54.705 11.030987
54.710 10.88028
54.715 10.499655
54.720 10.193507
54.725 10.653975
54.730 10.394922
54.735 10.29031
54.740 10.916722
54.745 11.020892
54.750 11.005617
54.755 10.920472
54.760 10.409874
54.765 9.805125
54.770 9.681644
54.775 9.364767
54.780 9.288004
54.785 9.196572
54.790 9.354847
54.795 9.337179
54.800 9.314642
54.805 9.114514
54.810 9.435182
54.815 10.060105
54.820 10.255342
54.825 10.159831
54.830 10.474775
54.835 10.139931
54.840 10.491018
54.845 10.11856
54.850 10.079935
54.855 9.822453
54.860 9.647649
54.865 10.00528
54.870 10.390241
54.875 10.322739
54.880 10.20229
54.885 10.139153
54.890 10.262285
54.895 10.799067
54.900 10.728065
54.905 10.784412
54.910 11.230535
54.915 11.20259
54.920 11.36072
54.925 11.219641
54.930 10.824816
54.935 10.873938
54.940 10.733643
54.945 10.267934
54.950 10.832837
54.955 11.234728
54.960 11.575142
54.965 12.206577
54.970 12.279198
54.975 12.162344
54.980 11.936072
54.985 11.519073
54.990 10.727048
54.995 10.662971
55.000 10.14188
55.005 9.711699
55.010 9.766829
55.015 9.655823
55.020 9.748257
55.025 10.394932
55.030 10.266684
55.035 10.245406
55.040 10.747272
55.045 11.023581
55.050 11.271914
55.055 11.241354
55.060 11.24826
55.065 11.058279
55.070 10.890689
55.075 11.143883
55.080 11.16305
55.085 10.640572
55.090 10.320228
55.095 10.269654
55.100 10.775161
55.105 11.190033
55.110 10.688361
55.115 10.588708
55.120 11.239878
55.125 11.299558
55.130 11.539171
55.135 11.372411
55.140 11.481705
55.145 11.732963
55.150 11.920935
55.155 12.025171
55.160 12.12424
55.165 11.835808
55.170 11.675563
55.175 11.383388
55.180 11.157073
55.185 10.998355
55.190 10.978279
55.195 10.95904
55.200 10.542756
55.205 10.586774
55.210 10.767623
55.215 10.832518
55.220 10.805318
55.225 10.676911
55.230 10.444212
55.235 10.990916
55.240 10.663733
55.245 10.693754
55.250 10.957927
55.255 11.144029
55.260 11.079095
55.265 11.283825
55.270 11.195508
55.275 11.524193
55.280 11.685215
55.285 11.437928
55.290 11.882369
55.295 12.249944
55.300 11.885669
55.305 11.678598
55.310 11.417965
55.315 10.822403
55.320 10.864517
55.325 9.935479
55.330 9.917292
55.335 9.880141
55.340 10.03044
55.345 10.264973
55.350 10.411981
55.355 10.615412
55.360 11.035087
55.365 11.057156
55.370 11.257458
55.375 11.535792
55.380 11.663817
55.385 11.36322
55.390 11.424024
55.395 11.520973
55.400 11.219095
55.405 10.839884
55.410 10.815892
55.415 10.924283
55.420 11.580866
55.425 11.553452
55.430 11.169347
55.435 11.025326
55.440 11.068453
55.445 10.875389
55.450 10.747078
55.455 10.392053
55.460 10.091391
55.465 11.065715
55.470 11.588627
55.475 11.518781
55.480 11.589593
55.485 11.638634
55.490 11.682052
55.495 12.204444
55.500 11.827646
55.505 11.643143
55.510 12.148123
55.515 12.348901
55.520 11.997252
55.525 11.908303
55.530 11.263961
55.535 11.30099
55.540 11.505848
55.545 11.1422
55.550 11.133512
55.555 11.427937
55.560 11.867189
55.565 12.198392
55.570 12.345201
55.575 12.615656
55.580 12.411685
55.585 12.229036
55.590 12.048974
55.595 12.081119
55.600 11.367095
55.605 10.854361
55.610 10.684543
55.615 10.758103
55.620 11.072917
55.625 10.994695
55.630 10.92303
55.635 11.282579
55.640 11.705728
55.645 11.882878
55.650 11.905164
55.655 11.787531
55.660 11.951744
55.665 12.063871
55.670 12.228704
55.675 11.946054
55.680 11.749064
55.685 11.67672
55.690 11.512039
55.695 11.46887
55.700 11.639165
55.705 12.016277
55.710 12.39539
55.715 12.872636
55.720 13.148326
55.725 13.070196
55.730 12.908514
55.735 12.025275
55.740 11.630436
55.745 11.303378
55.750 11.15793
55.755 11.488714
55.760 11.885976
55.765 12.218262
55.770 12.162434
55.775 12.004478
55.780 12.017414
55.785 11.618869
55.790 11.26496
55.795 11.386638
55.800 11.306851
55.805 12.183574
55.810 12.425131
55.815 12.522249
55.820 13.148498
55.825 12.997822
55.830 12.260931
55.835 12.178968
55.840 11.905365
55.845 12.069959
55.850 12.442293
55.855 11.961365
55.860 11.970457
55.865 12.205157
55.870 12.286413
55.875 12.374477
55.880 12.462447
55.885 12.242316
55.890 12.703831
55.895 12.870668
55.900 12.764193
55.905 12.336367
55.910 12.086587
55.915 11.877225
55.920 11.802108
55.925 11.609056
55.930 11.933871
55.935 12.15768
55.940 12.107789
55.945 11.857572
55.950 11.604925
55.955 11.301151
55.960 10.959331
55.965 10.265469
55.970 10.626801
55.975 10.480845
55.980 10.580417
55.985 10.381307
55.990 10.578588
55.995 10.588556
56.000 10.725791
56.005 10.265399
56.010 10.630086
56.015 10.404115
56.020 10.790812
56.025 11.155146
56.030 11.314835
56.035 11.592842
56.040 11.972037
56.045 12.141896
56.050 13.050679
56.055 12.964314
56.060 12.387548
56.065 12.472201
56.070 12.554114
56.075 12.682758
56.080 12.831785
56.085 12.236433
56.090 12.481237
56.095 13.113877
56.100 12.816841
56.105 12.975302
56.110 13.155226
56.115 13.123103
56.120 13.109964
56.125 12.805775
56.130 12.572138
56.135 13.012251
56.140 12.614647
56.145 12.119253
56.150 11.443714
56.155 11.090378
56.160 10.854342
56.165 10.980947
56.170 10.797599
56.175 10.833455
56.180 10.898451
56.185 10.93135
56.190 11.309926
56.195 11.459886
56.200 11.629595
56.205 11.842669
56.210 11.96483
56.215 12.781152
56.220 13.719186
56.225 14.121552
56.230 14.470306
56.235 14.202313
56.240 14.713511
56.245 14.95928
56.250 13.664196
56.255 13.301409
56.260 13.086451
56.265 13.314081
56.270 13.325317
56.275 12.672172
56.280 12.463577
56.285 12.811357
56.290 12.387101
56.295 12.219065
56.300 11.885085
56.305 11.824491
56.310 11.787367
56.315 12.142685
56.320 12.461779
56.325 13.146108
56.330 13.501042
56.335 13.469493
56.340 13.662115
56.345 13.965471
56.350 13.694778
56.355 13.516607
56.360 13.618514
56.365 13.077373
56.370 13.142484
56.375 13.164284
56.380 13.265193
56.385 13.223757
56.390 13.282407
56.395 12.906986
56.400 12.883182
56.405 12.825358
56.410 12.861725
56.415 12.825525
56.420 12.819786
56.425 13.231353
56.430 13.560852
56.435 13.795912
56.440 13.6054
56.445 13.159095
56.450 13.094467
56.455 13.320428
56.460 12.956693
56.465 13.018112
56.470 12.803247
56.475 12.444963
56.480 12.323054
56.485 11.798374
56.490 11.873669
56.495 11.777229
56.500 11.720487
56.505 12.101391
56.510 12.654076
56.515 12.994628
56.520 13.509207
56.525 13.262377
56.530 13.139013
56.535 13.053414
56.540 13.064649
56.545 12.634053
56.550 12.53119
56.555 12.541387
56.560 12.575527
56.565 12.848577
56.570 12.549848
56.575 12.41021
56.580 12.53595
56.585 11.960631
56.590 11.735129
56.595 11.633127
56.600 11.683932
56.605 11.582017
56.610 11.361828
56.615 11.42175
56.620 11.665378
56.625 11.59537
56.630 11.736078
56.635 11.975706
56.640 12.520299
56.645 12.554673
56.650 12.39543
56.655 12.485196
56.660 12.359076
56.665 12.137075
56.670 11.731185
56.675 11.904862
56.680 12.147354
56.685 12.404637
56.690 12.615536
56.695 12.76052
56.700 12.804665
56.705 13.037833
56.710 13.569659
56.715 13.863435
56.720 13.840561
56.725 13.920316
56.730 14.363369
56.735 14.384865
56.740 13.80671
56.745 13.58917
56.750 14.030508
56.755 14.162124
56.760 14.225661
56.765 14.01986
56.770 14.473083
56.775 15.104489
56.780 14.833285
56.785 14.324102
56.790 14.317
56.795 14.325381
56.800 14.24896
56.805 13.911681
56.810 13.68927
56.815 13.443048
56.820 13.389783
56.825 13.32509
56.830 13.105539
56.835 13.570476
56.840 13.531013
56.845 13.260208
56.850 13.180746
56.855 13.206622
56.860 13.336014
56.865 13.369524
56.870 13.312698
56.875 13.596184
56.880 13.601106
56.885 13.817619
56.890 14.261516
56.895 14.313719
56.900 14.272727
56.905 14.073618
56.910 14.209078
56.915 14.498724
56.920 13.970973
56.925 13.454856
56.930 13.308689
56.935 13.317345
56.940 13.429191
56.945 12.840835
56.950 12.76643
56.955 12.95555
56.960 12.974761
56.965 13.281432
56.970 13.445431
56.975 13.228187
56.980 13.470477
56.985 13.088218
56.990 13.475355
56.995 13.698458
57.000 13.708488
57.005 13.379959
57.010 13.15184
57.015 13.685416
57.020 14.386126
57.025 14.612067
57.030 14.305273
57.035 14.046763
57.040 14.468362
57.045 14.620019
57.050 14.164174
57.055 13.706907
57.060 13.095262
57.065 13.016691
57.070 12.695934
57.075 12.431147
57.080 12.645902
57.085 12.726192
57.090 12.883248
57.095 12.927218
57.100 13.335684
57.105 14.097744
57.110 14.054155
57.115 14.145202
57.120 13.918748
57.125 13.946945
57.130 13.88491
57.135 13.427235
57.140 13.072526
57.145 13.127014
57.150 12.979233
57.155 13.361632
57.160 13.600884
57.165 14.044245
57.170 14.188435
57.175 14.487973
57.180 14.908058
57.185 14.42699
57.190 14.512732
57.195 14.594954
57.200 14.150304
57.205 14.175367
57.210 13.591928
57.215 13.35262
57.220 13.209877
57.225 12.632419
57.230 12.460829
57.235 12.890642
57.240 13.022017
57.245 13.496809
57.250 13.475218
57.255 13.852356
57.260 14.078608
57.265 13.592212
57.270 13.262385
57.275 13.042411
57.280 12.578958
57.285 12.165458
57.290 12.748569
57.295 13.184384
57.300 13.724102
57.305 13.563871
57.310 13.948633
57.315 14.347498
57.320 14.820155
57.325 14.477356
57.330 14.157591
57.335 13.723343
57.340 13.913173
57.345 13.744226
57.350 13.848866
57.355 13.268259
57.360 12.776358
57.365 12.605165
57.370 12.925937
57.375 13.036298
57.380 13.154375
57.385 12.931718
57.390 13.296704
57.395 13.422164
57.400 13.665339
57.405 13.658893
57.410 13.89537
57.415 13.80032
57.420 14.145082
57.425 14.609575
57.430 14.963516
57.435 14.714865
57.440 14.647399
57.445 14.813354
57.450 15.313128
57.455 15.181685
57.460 15.224953
57.465 15.30142
57.470 15.663645
57.475 16.036865
57.480 15.801234
57.485 15.400965
57.490 15.098691
57.495 14.93593
57.500 14.756731
57.505 14.020481
57.510 13.563692
57.515 13.300186
57.520 13.214943
57.525 13.170268
57.530 13.025362
57.535 12.988221
57.540 13.620336
57.545 13.838943
57.550 14.075343
57.555 14.45402
57.560 15.014668
57.565 15.144741
57.570 15.814601
57.575 15.985247
57.580 16.094006
57.585 16.281107
57.590 15.771117
57.595 15.85072
57.600 15.992249
57.605 15.53712
57.610 15.630803
57.615 16.319042
57.620 16.404022
57.625 16.704277
57.630 16.480356
57.635 16.226122
57.640 16.120329
57.645 15.416036
57.650 14.500051
57.655 14.447372
57.660 14.536696
57.665 14.928446
57.670 15.103024
57.675 15.459606
57.680 15.572651
57.685 15.701423
57.690 16.038649
57.695 16.057392
57.700 15.957962
57.705 16.145103
57.710 16.025221
57.715 16.374975
57.720 17.045092
57.725 16.822086
57.730 17.57246
57.735 17.645882
57.740 17.315306
57.745 17.119186
57.750 17.03229
57.755 16.638769
57.760 16.657349
57.765 15.695669
57.770 15.187773
57.775 15.476164
57.780 15.156898
57.785 14.736297
57.790 14.386015
57.795 14.412766
57.800 14.953028
57.805 14.820621
57.810 14.935999
57.815 15.083874
57.820 14.971798
57.825 15.142536
57.830 14.624503
57.835 13.926595
57.840 14.092951
57.845 14.352204
57.850 14.802965
57.855 14.934761
57.860 15.243189
57.865 16.23704
57.870 16.886753
57.875 16.995377
57.880 16.515362
57.885 16.491838
57.890 16.693624
57.895 16.458687
57.900 15.452356
57.905 15.159367
57.910 15.085416
57.915 15.106272
57.920 14.961866
57.925 14.70955
57.930 14.483212
57.935 14.602114
57.940 15.0945
57.945 15.401514
57.950 15.511182
57.955 15.518891
57.960 15.359968
57.965 15.509416
57.970 16.297985
57.975 16.575113
57.980 16.663757
57.985 16.88875
57.990 17.288111
57.995 18.035017
58.000 17.949789
58.005 17.523773
58.010 16.66909
58.015 16.059881
58.020 15.558956
58.025 15.396218
58.030 14.942239
58.035 15.084644
58.040 15.621044
58.045 15.97822
58.050 16.03018
58.055 16.383448
58.060 16.521786
58.065 16.653519
58.070 16.510223
58.075 16.245844
58.080 16.260387
58.085 16.838188
58.090 16.652784
58.095 16.591686
58.100 16.925879
58.105 17.150373
58.110 16.741371
58.115 16.702589
58.120 17.035366
58.125 17.050827
58.130 17.491127
58.135 17.55401
58.140 17.711113
58.145 17.986341
58.150 18.279097
58.155 17.961887
58.160 18.38225
58.165 18.418352
58.170 19.003983
58.175 19.180449
58.180 19.252117
58.185 19.188931
58.190 19.579004
58.195 19.237848
58.200 19.018797
58.205 18.400232
58.210 18.639013
58.215 18.51277
58.220 18.542709
58.225 17.797373
58.230 17.665987
58.235 17.4079
58.240 17.884689
58.245 18.000568
58.250 18.121428
58.255 18.371023
58.260 18.79434
58.265 19.067341
58.270 18.697365
58.275 18.54178
58.280 18.715048
58.285 19.262356
58.290 19.764492
58.295 20.501781
58.300 21.19462
58.305 21.801369
58.310 21.284719
58.315 21.1528
58.320 21.389225
58.325 21.184626
58.330 20.947823
58.335 21.162487
58.340 22.200182
58.345 23.144287
58.350 23.634302
58.355 23.704914
58.360 23.739752
58.365 23.767357
58.370 23.587376
58.375 23.257401
58.380 23.254946
58.385 23.534008
58.390 23.865032
58.395 24.639534
58.400 25.35688
58.405 25.807285
58.410 26.595304
58.415 27.262016
58.420 27.932943
58.425 28.340862
58.430 27.545109
58.435 27.221292
58.440 27.695648
58.445 27.745819
58.450 26.998852
58.455 26.417551
58.460 25.949921
58.465 26.709858
58.470 27.117769
58.475 26.617643
58.480 26.883369
58.485 27.769566
58.490 28.347296
58.495 29.5389
58.500 30.291626
58.505 30.291412
