!@!!GADDS PLOTSO FILE: Chi integration type
!@!!Title/SampleName: map-19
!@!!Comment: ?
!@!!User: Bruker Instrument Administrator
!@!!Site: University of Illinois Chicago
!@!!Frame: map-19_01_000.gfrm
!@!!Wavelengths    1.54184   1.54056   1.54439
!@!!Frame angles: 2Theta: 63.000 Omega: 50.000 Phi: 0.000 Chi: 90.000
!@!!Integration range: 2Theta: 53.000 to 73.000  Gamma: -105.000 to -75.000
!@!!Integration method: bin normalized
!@!N
!@!SS
!@!M
!@!L 0.0 0.0 0.0 0.0
!@!XDegrees
!@!YCounts
53.000 8.124998
53.005 8.41879
53.010 8.410299
53.015 8.430214
53.020 8.506437
53.025 8.496084
53.030 8.292568
53.035 8.29852
53.040 8.218567
53.045 8.579707
53.050 8.684549
53.055 8.420919
53.060 8.849339
53.065 8.7023
53.070 8.369147
53.075 8.108759
53.080 7.707764
53.085 7.976899
53.090 8.057878
53.095 8.152551
53.100 8.297694
53.105 8.776016
53.110 8.239432
53.115 8.052653
53.120 8.382492
53.125 8.356307
53.130 8.400713
53.135 7.811124
53.140 7.655435
53.145 8.118378
53.150 7.908111
53.155 8.101803
53.160 8.349418
53.165 8.137837
53.170 9.014724
53.175 9.669238
53.180 9.893016
53.185 10.238739
53.190 10.079848
53.195 9.866957
53.200 10.046935
53.205 9.679894
53.210 9.572635
53.215 8.890945
53.220 8.407009
53.225 8.313142
53.230 8.514261
53.235 8.652755
53.240 8.328841
53.245 8.426426
53.250 8.905827
53.255 8.805384
53.260 8.445517
53.265 8.130536
53.270 7.902476
53.275 7.889151
53.280 7.778975
53.285 7.727208
53.290 7.982038
53.295 8.099869
53.300 7.797563
53.305 8.348191
53.310 8.237408
53.315 8.64604
53.320 9.040133
53.325 9.555936
53.330 9.977756
53.335 10.826983
53.340 10.693101
53.345 10.880695
53.350 11.130054
53.355 10.579052
53.360 9.785898
53.365 9.372911
53.370 8.63862
53.375 8.342029
53.380 7.909365
53.385 7.357438
53.390 7.565126
53.395 7.815697
53.400 7.770401
53.405 7.979909
53.410 7.973007
53.415 8.034484
53.420 8.069316
53.425 8.732826
53.430 8.913659
53.435 8.864943
53.440 8.938042
53.445 9.167206
53.450 9.410602
53.455 9.224387
53.460 9.365341
53.465 9.209469
53.470 9.213911
53.475 9.345649
53.480 9.260633
53.485 9.07615
53.490 9.30074
53.495 8.962722
53.500 8.913247
53.505 9.087726
53.510 8.977026
53.515 9.182113
53.520 9.012993
53.525 8.576515
53.530 8.587199
53.535 8.519199
53.540 8.492088
53.545 8.365532
53.550 8.183021
53.555 8.322357
53.560 8.76122
53.565 8.772575
53.570 9.039029
53.575 9.509353
53.580 9.803502
53.585 10.091291
53.590 10.00426
53.595 9.546585
53.600 9.748602
53.605 9.298182
53.610 8.805696
53.615 8.836964
53.620 8.667141
53.625 8.82945
53.630 8.751213
53.635 8.41781
53.640 8.473678
53.645 8.503355
53.650 8.528777
53.655 8.851886
53.660 8.847813
53.665 9.391745
53.670 9.498037
53.675 9.566142
53.680 9.648976
53.685 9.508708
53.690 9.554829
53.695 9.370044
53.700 9.304646
53.705 9.260846
53.710 9.088312
53.715 9.407557
53.720 9.4892
53.725 9.129766
53.730 9.219805
53.735 9.395907
53.740 9.68291
53.745 9.602019
53.750 9.220159
53.755 9.089279
53.760 9.300825
53.765 9.348279
53.770 9.198775
53.775 9.174265
53.780 9.255001
53.785 9.164557
53.790 9.307051
53.795 9.079347
53.800 8.755183
53.805 8.987429
53.810 8.808943
53.815 8.858909
53.820 9.07322
53.825 8.969996
53.830 9.137106
53.835 9.29936
53.840 9.232133
53.845 9.101944
53.850 8.614021
53.855 8.925355
53.860 9.216536
53.865 8.977377
53.870 9.043673
53.875 8.823603
53.880 9.074327
53.885 9.346529
53.890 8.986084
53.895 8.775852
53.900 8.663163
53.905 8.598686
53.910 9.064781
53.915 9.121036
53.920 8.786664
53.925 9.038674
53.930 9.068636
53.935 9.263621
53.940 9.5906
53.945 9.270038
53.950 9.198813
53.955 9.430078
53.960 9.772511
53.965 10.004399
53.970 9.921337
53.975 9.655514
53.980 9.443602
53.985 9.64409
53.990 9.685087
53.995 9.176777
54.000 9.070833
54.005 9.135992
54.010 9.305052
54.015 9.523778
54.020 10.183867
54.025 9.926004
54.030 9.985535
54.035 10.106403
54.040 10.281278
54.045 10.484412
54.050 10.393035
54.055 9.768872
54.060 9.517687
54.065 8.915669
54.070 8.764901
54.075 8.615021
54.080 8.561659
54.085 8.323418
54.090 8.632341
54.095 9.505173
54.100 10.349828
54.105 10.700862
54.110 10.978314
54.115 11.074462
54.120 11.431434
54.125 11.612753
54.130 11.429291
54.135 11.534847
54.140 11.520282
54.145 11.165105
54.150 10.60437
54.155 10.358891
54.160 10.107131
54.165 10.102978
54.170 9.579452
54.175 9.402596
54.180 9.645289
54.185 9.918452
54.190 9.676999
54.195 9.293146
54.200 9.403895
54.205 9.900654
54.210 10.077306
54.215 10.250549
54.220 10.179003
54.225 10.214762
54.230 10.584943
54.235 10.236496
54.240 9.923005
54.245 9.617864
54.250 9.504073
54.255 9.538312
54.260 10.298634
54.265 10.973459
54.270 11.471248
54.275 11.25181
54.280 11.180854
54.285 11.155934
54.290 11.342275
54.295 10.708572
54.300 10.210085
54.305 9.566632
54.310 9.568808
54.315 9.699353
54.320 9.441255
54.325 9.194413
54.330 8.942163
54.335 8.678694
54.340 8.946916
54.345 9.223223
54.350 9.441284
54.355 9.485785
54.360 9.260528
54.365 9.152559
54.370 8.794461
54.375 8.824057
54.380 8.386243
54.385 8.066523
54.390 8.031075
54.395 8.165885
54.400 8.196253
54.405 8.472117
54.410 8.808786
54.415 9.253689
54.420 9.325502
54.425 9.264708
54.430 9.328517
54.435 9.391843
54.440 9.256871
54.445 9.333353
54.450 9.618602
54.455 9.722457
54.460 9.718294
54.465 9.733863
54.470 10.331918
54.475 10.692265
54.480 10.361805
54.485 10.25806
54.490 10.351126
54.495 10.436072
54.500 10.877932
54.505 10.449978
54.510 10.27076
54.515 10.004878
54.520 9.696509
54.525 9.699294
54.530 9.893785
54.535 9.284904
54.540 8.857692
54.545 8.727489
54.550 8.877179
54.555 8.975095
54.560 8.889925
54.565 8.768249
54.570 8.995778
54.575 9.194751
54.580 9.351638
54.585 9.389076
54.590 9.358648
54.595 9.165508
54.600 8.957339
54.605 9.381376
54.610 9.729889
54.615 9.806823
54.620 10.079582
54.625 10.457799
54.630 10.625545
54.635 10.499322
54.640 10.087715
54.645 9.860454
54.650 9.7989
54.655 9.669708
54.660 9.592468
54.665 10.273723
54.670 10.634194
54.675 10.737621
54.680 10.416533
54.685 10.254909
54.690 10.549413
54.695 10.67383
54.700 10.310292
54.705 9.62534
54.710 9.0768
54.715 9.365187
54.720 9.362881
54.725 9.109666
54.730 8.717072
54.735 9.020597
54.740 9.607629
54.745 10.450867
54.750 10.438863
54.755 10.169168
54.760 9.917508
54.765 9.854273
54.770 9.567399
54.775 9.232957
54.780 8.931617
54.785 9.122701
54.790 9.566536
54.795 10.235555
54.800 10.655625
54.805 10.677149
54.810 10.50042
54.815 10.265526
54.820 10.424402
54.825 10.100726
54.830 9.780745
54.835 9.283766
54.840 9.544455
54.845 9.890523
54.850 10.232268
54.855 10.56784
54.860 10.602879
54.865 10.702532
54.870 11.201647
54.875 11.362636
54.880 11.325029
54.885 11.068748
54.890 11.173341
54.895 11.200629
54.900 11.188723
54.905 10.634541
54.910 10.744549
54.915 10.606262
54.920 9.95067
54.925 9.456764
54.930 9.460426
54.935 9.585316
54.940 9.81525
54.945 9.89793
54.950 10.672191
54.955 11.442662
54.960 11.516047
54.965 11.41215
54.970 10.775803
54.975 10.571171
54.980 10.277613
54.985 9.76927
54.990 9.326602
54.995 9.180715
55.000 9.507453
55.005 10.142168
55.010 10.228482
55.015 10.537889
55.020 10.44485
55.025 11.113079
55.030 11.561982
55.035 11.769674
55.040 11.988756
55.045 11.885421
55.050 11.909857
55.055 12.028937
55.060 12.097032
55.065 11.75716
55.070 11.218825
55.075 10.84404
55.080 10.857863
55.085 10.733334
55.090 10.371955
55.095 10.404713
55.100 10.528974
55.105 10.632061
55.110 10.760524
55.115 10.691728
55.120 10.987097
55.125 11.079572
55.130 11.063663
55.135 10.816991
55.140 10.544183
55.145 10.843803
55.150 10.865477
55.155 10.933306
55.160 11.12278
55.165 10.715247
55.170 10.8712
55.175 11.050243
55.180 10.758833
55.185 10.288321
55.190 9.691792
55.195 9.578568
55.200 10.145933
55.205 10.161105
55.210 10.132188
55.215 10.033148
55.220 10.524677
55.225 10.678417
55.230 10.969437
55.235 10.770232
55.240 10.796285
55.245 10.32729
55.250 10.468331
55.255 10.11372
55.260 9.611658
55.265 9.695209
55.270 9.939028
55.275 10.453064
55.280 10.848907
55.285 10.875699
55.290 11.236551
55.295 11.641469
55.300 11.14878
55.305 10.653827
55.310 10.100792
55.315 10.060103
55.320 9.961897
55.325 9.725965
55.330 9.743504
55.335 9.680687
55.340 9.991076
55.345 10.171944
55.350 10.138627
55.355 10.381388
55.360 10.640411
55.365 10.217271
55.370 10.306598
55.375 10.511345
55.380 10.4891
55.385 10.687584
55.390 10.882858
55.395 11.201521
55.400 11.174067
55.405 10.85116
55.410 11.149496
55.415 11.217445
55.420 11.234871
55.425 11.182425
55.430 11.218728
55.435 11.559903
55.440 11.584957
55.445 10.96394
55.450 10.630877
55.455 10.086832
55.460 9.727549
55.465 9.680574
55.470 9.639185
55.475 10.001789
55.480 10.553676
55.485 10.751484
55.490 10.919227
55.495 11.236522
55.500 11.1177
55.505 11.454362
55.510 11.476871
55.515 11.382802
55.520 11.498116
55.525 11.267187
55.530 10.932161
55.535 10.787153
55.540 10.38849
55.545 10.178782
55.550 10.151418
55.555 10.32711
55.560 10.712809
55.565 10.927784
55.570 11.349057
55.575 11.171234
55.580 11.152141
55.585 11.433121
55.590 11.428523
55.595 11.569072
55.600 11.69667
55.605 11.51005
55.610 11.371409
55.615 11.453932
55.620 11.327292
55.625 10.749613
55.630 10.248947
55.635 10.567129
55.640 11.007918
55.645 11.433805
55.650 11.292497
55.655 11.45244
55.660 11.815774
55.665 11.884222
55.670 11.046184
55.675 11.030919
55.680 11.087873
55.685 11.106389
55.690 10.945993
55.695 10.776605
55.700 11.345188
55.705 11.718026
55.710 11.52469
55.715 11.85426
55.720 11.837601
55.725 12.054013
55.730 11.881219
55.735 10.92853
55.740 10.553486
55.745 10.350612
55.750 9.636299
55.755 9.454638
55.760 9.466574
55.765 9.609187
55.770 9.928951
55.775 9.651281
55.780 9.746646
55.785 10.600517
55.790 10.743514
55.795 11.104255
55.800 11.144925
55.805 11.329459
55.810 11.823756
55.815 11.953031
55.820 11.539126
55.825 11.678551
55.830 11.891809
55.835 12.478355
55.840 12.808916
55.845 12.764469
55.850 12.541481
55.855 12.887387
55.860 13.065492
55.865 12.736331
55.870 11.816594
55.875 11.402507
55.880 11.517365
55.885 11.813749
55.890 11.320099
55.895 10.774416
55.900 10.853941
55.905 11.243098
55.910 11.603524
55.915 11.347833
55.920 11.090229
55.925 11.514607
55.930 11.621552
55.935 11.75217
55.940 12.170473
55.945 12.177287
55.950 12.36746
55.955 12.159604
55.960 11.627349
55.965 11.650237
55.970 11.784857
55.975 11.826327
55.980 11.829636
55.985 12.28831
55.990 12.935309
55.995 13.354221
56.000 13.463332
56.005 13.435441
56.010 13.268917
56.015 13.143509
56.020 12.535807
56.025 12.0535
56.030 11.551343
56.035 11.332294
56.040 11.261091
56.045 11.022655
56.050 11.048279
56.055 11.308062
56.060 11.546144
56.065 11.521382
56.070 11.068581
56.075 11.080762
56.080 11.544768
56.085 11.23442
56.090 10.941957
56.095 11.089692
56.100 11.58125
56.105 11.89168
56.110 11.841762
56.115 11.742996
56.120 12.335917
56.125 12.572903
56.130 12.752959
56.135 12.937208
56.140 13.009502
56.145 12.757922
56.150 12.239349
56.155 11.971738
56.160 11.587666
56.165 11.099863
56.170 10.895582
56.175 10.774924
56.180 10.230557
56.185 10.296291
56.190 10.269811
56.195 10.841085
56.200 11.630882
56.205 11.588453
56.210 12.043433
56.215 13.407955
56.220 13.244944
56.225 13.479006
56.230 13.725354
56.235 13.710621
56.240 13.940581
56.245 13.991992
56.250 13.377129
56.255 13.651196
56.260 13.841951
56.265 13.138481
56.270 12.433982
56.275 12.183358
56.280 12.135016
56.285 12.405658
56.290 12.646732
56.295 11.891964
56.300 11.830215
56.305 12.017437
56.310 11.729841
56.315 11.247617
56.320 10.583953
56.325 10.909678
56.330 11.272337
56.335 11.454569
56.340 11.647264
56.345 12.067375
56.350 12.341463
56.355 12.44375
56.360 12.10745
56.365 12.22629
56.370 12.048077
56.375 11.553345
56.380 10.95653
56.385 11.347687
56.390 11.531116
56.395 11.59723
56.400 11.901062
56.405 12.284925
56.410 12.174876
56.415 12.332653
56.420 12.709486
56.425 13.037739
56.430 13.005877
56.435 12.78394
56.440 12.672585
56.445 12.96329
56.450 12.699103
56.455 12.534982
56.460 12.380078
56.465 12.286531
56.470 12.259418
56.475 12.600264
56.480 12.514674
56.485 12.607443
56.490 12.254925
56.495 12.030302
56.500 11.911528
56.505 11.393477
56.510 11.362209
56.515 11.748818
56.520 11.718095
56.525 11.828712
56.530 11.965271
56.535 12.472738
56.540 12.941674
56.545 12.98825
56.550 12.979567
56.555 13.134395
56.560 13.364154
56.565 13.243452
56.570 12.770268
56.575 12.475035
56.580 12.301589
56.585 12.285164
56.590 12.553892
56.595 12.849305
56.600 12.577615
56.605 12.705856
56.610 12.493519
56.615 12.267536
56.620 12.438597
56.625 11.724151
56.630 11.393183
56.635 11.864835
56.640 11.726448
56.645 12.135239
56.650 12.170074
56.655 12.252565
56.660 12.578735
56.665 12.618549
56.670 12.573014
56.675 12.765011
56.680 12.711299
56.685 12.61313
56.690 12.305281
56.695 12.116795
56.700 11.63563
56.705 11.944315
56.710 11.851219
56.715 12.327219
56.720 12.680606
56.725 12.695104
56.730 13.198463
56.735 13.52307
56.740 13.447541
56.745 13.647843
56.750 13.017048
56.755 12.985744
56.760 12.868017
56.765 12.48751
56.770 12.10356
56.775 11.858401
56.780 12.204735
56.785 12.597652
56.790 12.660934
56.795 13.101879
56.800 13.495711
56.805 13.790464
56.810 13.818577
56.815 13.763176
56.820 13.838399
56.825 13.876935
56.830 13.925759
56.835 13.866579
56.840 14.007197
56.845 13.770612
56.850 13.649281
56.855 13.402035
56.860 13.102194
56.865 12.955858
56.870 13.232048
56.875 13.671935
56.880 13.944382
56.885 13.338588
56.890 13.419674
56.895 13.494375
56.900 12.821711
56.905 12.610593
56.910 12.3494
56.915 12.567384
56.920 12.574015
56.925 12.331078
56.930 12.492177
56.935 13.029154
56.940 12.465273
56.945 12.241485
56.950 11.905779
56.955 12.058545
56.960 12.111728
56.965 11.853467
56.970 11.563955
56.975 12.508249
56.980 12.64983
56.985 12.894464
56.990 12.697124
56.995 12.284033
57.000 12.248766
57.005 12.533263
57.010 12.192639
57.015 12.430722
57.020 12.647673
57.025 13.347864
57.030 13.825345
57.035 13.877923
57.040 14.116578
57.045 14.221217
57.050 13.999309
57.055 13.899507
57.060 13.673155
57.065 13.787094
57.070 13.9305
57.075 13.967929
57.080 13.647483
57.085 13.389217
57.090 13.485463
57.095 13.558125
57.100 13.948078
57.105 13.561977
57.110 13.522801
57.115 13.990198
57.120 14.299166
57.125 14.535851
57.130 14.268153
57.135 14.002126
57.140 14.119347
57.145 13.777631
57.150 13.23548
57.155 12.997085
57.160 13.33087
57.165 13.281486
57.170 13.329474
57.175 13.584893
57.180 13.618474
57.185 13.674732
57.190 13.40452
57.195 13.376559
57.200 13.783878
57.205 13.940997
57.210 13.85863
57.215 13.784663
57.220 13.85784
57.225 13.952118
57.230 14.03584
57.235 13.338358
57.240 12.790642
57.245 12.669179
57.250 12.833783
57.255 13.147374
57.260 13.071047
57.265 12.900055
57.270 13.401352
57.275 13.304524
57.280 13.535842
57.285 13.660728
57.290 13.534454
57.295 13.659846
57.300 13.720989
57.305 13.59997
57.310 13.621468
57.315 13.467001
57.320 13.678164
57.325 13.739344
57.330 13.578061
57.335 13.340507
57.340 13.893252
57.345 14.583427
57.350 15.026522
57.355 15.490974
57.360 15.414113
57.365 14.877913
57.370 15.123129
57.375 14.828823
57.380 14.134966
57.385 13.604397
57.390 13.115899
57.395 13.729795
57.400 14.582945
57.405 14.914763
57.410 15.149367
57.415 15.321622
57.420 15.407309
57.425 15.370938
57.430 15.612687
57.435 15.394144
57.440 15.012918
57.445 15.131739
57.450 15.470884
57.455 15.685437
57.460 15.766007
57.465 15.425209
57.470 15.184909
57.475 14.91415
57.480 14.535438
57.485 14.555521
57.490 14.762936
57.495 14.855873
57.500 15.173876
57.505 15.627798
57.510 15.805891
57.515 16.096947
57.520 15.981544
57.525 15.48391
57.530 15.274504
57.535 14.991884
57.540 14.865636
57.545 14.904893
57.550 15.0571
57.555 14.963604
57.560 14.820301
57.565 14.570043
57.570 14.227832
57.575 14.383904
57.580 14.26422
57.585 14.096714
57.590 14.133544
57.595 14.300777
57.600 14.337218
57.605 14.552327
57.610 14.271894
57.615 14.234871
57.620 14.335875
57.625 14.796541
57.630 15.054531
57.635 15.228647
57.640 14.691076
57.645 14.309817
57.650 14.039145
57.655 13.957305
57.660 13.446857
57.665 12.864771
57.670 12.376905
57.675 12.451505
57.680 12.547335
57.685 12.604279
57.690 12.37928
57.695 12.874976
57.700 13.26634
57.705 13.65534
57.710 13.616797
57.715 13.898423
57.720 14.008904
57.725 14.135118
57.730 14.06794
57.735 14.132414
57.740 14.485353
57.745 14.686265
57.750 14.624103
57.755 14.860468
57.760 14.626527
57.765 14.293143
57.770 14.173665
57.775 14.213264
57.780 14.189448
57.785 14.265221
57.790 14.518069
57.795 15.015124
57.800 15.577871
57.805 15.740688
57.810 15.899889
57.815 15.805224
57.820 15.47451
57.825 15.426147
57.830 14.84243
57.835 14.716411
57.840 14.988823
57.845 14.637285
57.850 14.842517
57.855 14.527138
57.860 13.76777
57.865 13.294507
57.870 13.281693
57.875 13.290645
57.880 13.329441
57.885 13.399158
57.890 13.57245
57.895 13.842302
57.900 14.651184
57.905 14.02337
57.910 13.897092
57.915 14.328596
57.920 14.566094
57.925 14.983282
57.930 14.973638
57.935 14.743569
57.940 15.049397
57.945 14.865303
57.950 14.636461
57.955 14.579692
57.960 14.861855
57.965 15.783961
57.970 16.497633
57.975 16.605103
57.980 16.928282
57.985 17.077513
57.990 16.948557
57.995 16.31736
58.000 15.347625
58.005 15.12256
58.010 14.643036
58.015 14.204722
58.020 13.9803
58.025 14.471349
58.030 14.875939
58.035 14.861692
58.040 14.99536
58.045 15.652202
58.050 16.7355
58.055 17.042664
58.060 16.680933
58.065 16.803741
58.070 17.075026
58.075 17.173807
58.080 16.989197
58.085 16.822346
58.090 16.931227
58.095 17.308554
58.100 17.50699
58.105 17.716663
58.110 18.358282
58.115 18.308817
58.120 17.665739
58.125 17.054298
58.130 16.352566
58.135 16.317537
58.140 15.88527
58.145 15.167598
58.150 15.760276
58.155 15.789033
58.160 16.192919
58.165 16.883604
58.170 17.099466
58.175 17.698101
58.180 18.034744
58.185 17.479021
58.190 17.593479
58.195 17.419935
58.200 16.536856
58.205 16.107647
58.210 16.238501
58.215 15.910166
58.220 16.004349
58.225 16.243534
58.230 16.79097
58.235 17.344866
58.240 17.432358
58.245 17.069103
58.250 16.486732
58.255 16.295057
58.260 16.256517
58.265 16.297611
58.270 16.123798
58.275 15.934661
58.280 16.051363
58.285 16.809959
58.290 17.145401
58.295 17.225756
58.300 17.751022
58.305 18.642834
58.310 18.737484
58.315 18.91242
58.320 19.696335
58.325 20.05381
58.330 20.214125
58.335 20.181028
58.340 20.678017
58.345 20.860006
58.350 21.141319
58.355 20.556597
58.360 20.537539
58.365 20.631407
58.370 20.556589
58.375 19.71627
58.380 19.612408
58.385 19.695868
58.390 19.961258
58.395 20.737013
58.400 20.807636
58.405 20.535751
58.410 20.365236
58.415 20.107283
58.420 20.406805
58.425 20.340765
58.430 19.763935
58.435 19.150053
58.440 19.387857
58.445 20.013105
58.450 20.527525
58.455 20.038004
58.460 20.261147
58.465 20.664465
58.470 21.099348
58.475 20.713303
58.480 20.522669
58.485 19.853949
58.490 19.879627
58.495 19.636923
58.500 19.505159
58.505 20.097008
58.510 20.247726
58.515 20.424578
58.520 21.004898
58.525 21.098894
58.530 21.388552
