!@!!GADDS PLOTSO FILE: Chi integration type
!@!!Title/SampleName: map-0
!@!!Comment: ?
!@!!User: Bruker Instrument Administrator
!@!!Site: University of Illinois Chicago
!@!!Frame: map-0_01_000.gfrm
!@!!Wavelengths    1.54184   1.54056   1.54439
!@!!Frame angles: 2Theta: 63.000 Omega: 50.000 Phi: 0.000 Chi: 90.000
!@!!Integration range: 2Theta: 53.000 to 73.000  Gamma: -105.000 to -75.000
!@!!Integration method: bin normalized
!@!N
!@!SS
!@!M
!@!L 0.0 0.0 0.0 0.0
!@!XDegrees
!@!YCounts
53.000 7.131316
53.005 7.253932
53.010 7.374337
53.015 7.47195
53.020 7.624957
53.025 7.625907
53.030 7.407105
53.035 7.831052
53.040 8.007783
53.045 7.75734
53.050 7.380421
53.055 7.446577
53.060 7.504303
53.065 7.744545
53.070 7.395578
53.075 7.802836
53.080 8.1938
53.085 8.38452
53.090 8.582026
53.095 8.723835
53.100 8.801864
53.105 8.947852
53.110 8.646242
53.115 8.246469
53.120 8.222682
53.125 8.48487
53.130 8.651381
53.135 8.366974
53.140 8.424999
53.145 8.406678
53.150 8.755233
53.155 9.093901
53.160 9.371356
53.165 9.585374
53.170 9.506738
53.175 8.90567
53.180 8.859664
53.185 8.304003
53.190 8.049472
53.195 7.265243
53.200 7.203899
53.205 7.630281
53.210 7.839215
53.215 7.814378
53.220 7.526181
53.225 7.462862
53.230 7.635834
53.235 7.66123
53.240 7.475981
53.245 7.640934
53.250 7.653017
53.255 7.976208
53.260 8.006575
53.265 7.970806
53.270 7.94046
53.275 8.181713
53.280 8.256318
53.285 8.600337
53.290 8.610663
53.295 8.813766
53.300 9.323463
53.305 9.764911
53.310 9.831978
53.315 9.162754
53.320 8.555087
53.325 8.705758
53.330 8.527359
53.335 8.312618
53.340 7.809245
53.345 8.111349
53.350 8.508276
53.355 8.702813
53.360 8.724566
53.365 8.485849
53.370 8.580789
53.375 8.606337
53.380 8.757246
53.385 9.225165
53.390 9.475287
53.395 9.856628
53.400 10.027484
53.405 9.892647
53.410 9.793138
53.415 9.876897
53.420 9.354657
53.425 8.574788
53.430 8.151223
53.435 7.958575
53.440 8.348502
53.445 8.689659
53.450 8.511709
53.455 8.875096
53.460 9.15821
53.465 9.183628
53.470 9.309304
53.475 9.347683
53.480 9.000613
53.485 8.961869
53.490 8.696611
53.495 8.265913
53.500 8.168017
53.505 7.728018
53.510 7.63234
53.515 7.895752
53.520 7.934221
53.525 8.780297
53.530 9.356915
53.535 9.691833
53.540 9.487285
53.545 9.44588
53.550 9.276402
53.555 9.403111
53.560 8.74602
53.565 8.106937
53.570 8.057135
53.575 8.611381
53.580 8.485522
53.585 8.296677
53.590 8.148244
53.595 8.351681
53.600 8.812196
53.605 9.021087
53.610 9.033431
53.615 8.816529
53.620 9.125092
53.625 9.220173
53.630 9.429005
53.635 9.568015
53.640 9.056516
53.645 9.065372
53.650 9.442234
53.655 8.999636
53.660 9.29655
53.665 9.274262
53.670 9.033125
53.675 9.074807
53.680 8.916359
53.685 8.753107
53.690 8.671388
53.695 8.036315
53.700 8.141823
53.705 8.563915
53.710 8.872975
53.715 8.824229
53.720 8.763547
53.725 9.270678
53.730 9.563323
53.735 8.931208
53.740 8.437592
53.745 8.997618
53.750 9.147617
53.755 9.043981
53.760 8.650687
53.765 9.27421
53.770 9.650872
53.775 9.267718
53.780 8.906744
53.785 9.345203
53.790 9.469307
53.795 9.447229
53.800 8.949841
53.805 9.228026
53.810 9.19282
53.815 8.775215
53.820 8.657526
53.825 8.938102
53.830 8.942162
53.835 9.357553
53.840 9.328067
53.845 9.647263
53.850 10.046248
53.855 10.227206
53.860 9.760593
53.865 9.85929
53.870 9.512618
53.875 9.263697
53.880 8.770471
53.885 8.184232
53.890 7.763726
53.895 7.748829
53.900 7.265168
53.905 7.165782
53.910 7.430815
53.915 7.604383
53.920 8.047053
53.925 8.37159
53.930 8.552062
53.935 8.85342
53.940 8.989516
53.945 9.19813
53.950 9.229886
53.955 9.452654
53.960 9.300175
53.965 9.307556
53.970 9.316021
53.975 9.158277
53.980 9.40741
53.985 9.254857
53.990 8.871708
53.995 9.013677
54.000 8.708973
54.005 8.414565
54.010 8.479124
54.015 7.99537
54.020 8.25861
54.025 8.49264
54.030 8.945662
54.035 9.449074
54.040 9.765258
54.045 9.612255
54.050 9.785732
54.055 9.612343
54.060 9.907064
54.065 9.663087
54.070 9.226283
54.075 8.852791
54.080 9.008555
54.085 8.761285
54.090 8.442449
54.095 8.0897
54.100 8.068875
54.105 8.820684
54.110 9.056668
54.115 8.880497
54.120 8.84309
54.125 8.855562
54.130 8.945778
54.135 8.937426
54.140 8.171487
54.145 8.173995
54.150 8.441401
54.155 8.984832
54.160 9.195578
54.165 9.272351
54.170 9.361099
54.175 9.156165
54.180 8.686424
54.185 8.363014
54.190 8.023662
54.195 7.630412
54.200 7.614318
54.205 7.688697
54.210 8.260856
54.215 8.184186
54.220 8.201464
54.225 8.361624
54.230 8.37183
54.235 8.294465
54.240 8.270019
54.245 8.458548
54.250 8.868587
54.255 9.107595
54.260 9.337971
54.265 9.21215
54.270 9.533412
54.275 9.979178
54.280 10.221294
54.285 10.414365
54.290 10.350689
54.295 10.081725
54.300 10.076287
54.305 9.385471
54.310 8.564384
54.315 8.268511
54.320 8.005571
54.325 8.331141
54.330 8.898962
54.335 8.992191
54.340 9.263039
54.345 9.58206
54.350 10.111282
54.355 10.001591
54.360 9.666403
54.365 9.152691
54.370 9.121322
54.375 9.495589
54.380 9.594458
54.385 9.292622
54.390 9.391695
54.395 9.998322
54.400 10.12883
54.405 9.763213
54.410 9.477122
54.415 9.476353
54.420 9.603498
54.425 9.1605
54.430 8.673549
54.435 8.82313
54.440 9.564532
54.445 9.075192
54.450 8.84611
54.455 9.071513
54.460 9.45781
54.465 9.676033
54.470 9.889102
54.475 10.097053
54.480 10.835445
54.485 11.030951
54.490 10.908278
54.495 11.146983
54.500 11.223745
54.505 10.282214
54.510 9.905767
54.515 9.724456
54.520 10.04065
54.525 9.977361
54.530 10.177348
54.535 10.22766
54.540 10.576375
54.545 10.233351
54.550 10.340113
54.555 10.239856
54.560 9.937563
54.565 9.389965
54.570 9.157266
54.575 9.537218
54.580 9.651857
54.585 9.28472
54.590 9.142807
54.595 9.153301
54.600 9.578881
54.605 9.808331
54.610 9.472175
54.615 9.679484
54.620 9.393606
54.625 9.28214
54.630 9.179304
54.635 9.08488
54.640 9.005184
54.645 9.450652
54.650 9.633362
54.655 9.687048
54.660 9.759479
54.665 9.598041
54.670 9.422114
54.675 10.009912
54.680 9.917708
54.685 9.483998
54.690 9.316458
54.695 9.806729
54.700 9.945143
54.705 9.664813
54.710 8.647754
54.715 8.915676
54.720 9.489441
54.725 9.573868
54.730 9.575198
54.735 9.398148
54.740 9.587132
54.745 9.848239
54.750 9.36904
54.755 9.453961
54.760 9.566618
54.765 9.344112
54.770 9.394034
54.775 9.781442
54.780 9.835909
54.785 10.177622
54.790 10.30746
54.795 10.097065
54.800 10.84174
54.805 10.815589
54.810 10.276829
54.815 10.123116
54.820 9.723836
54.825 9.632964
54.830 9.788608
54.835 9.459555
54.840 10.131518
54.845 10.19925
54.850 10.271127
54.855 10.140971
54.860 9.816299
54.865 9.045485
54.870 8.536366
54.875 8.390334
54.880 9.043416
54.885 9.63982
54.890 9.862208
54.895 10.454038
54.900 10.74378
54.905 11.220528
54.910 10.8922
54.915 10.271472
54.920 9.900117
54.925 9.963923
54.930 9.919908
54.935 9.811446
54.940 9.265629
54.945 8.96169
54.950 9.165848
54.955 8.98773
54.960 9.047813
54.965 9.413901
54.970 10.068031
54.975 10.342544
54.980 10.36692
54.985 10.279564
54.990 10.300599
54.995 9.98404
55.000 9.902908
55.005 9.844957
55.010 9.622534
55.015 9.775165
55.020 9.970155
55.025 9.903688
55.030 10.047674
55.035 9.865964
55.040 9.816256
55.045 10.362333
55.050 10.035082
55.055 9.85811
55.060 9.771601
55.065 10.129593
55.070 10.155409
55.075 10.178219
55.080 10.434798
55.085 10.524274
55.090 10.4283
55.095 10.664067
55.100 10.08834
55.105 9.973165
55.110 10.131114
55.115 10.270141
55.120 10.671435
55.125 10.872637
55.130 10.708431
55.135 10.883224
55.140 10.729155
55.145 10.046311
55.150 9.284301
55.155 8.850951
55.160 9.098903
55.165 9.27288
55.170 9.463185
55.175 9.901009
55.180 10.463125
55.185 10.805766
55.190 10.868131
55.195 10.615319
55.200 10.835225
55.205 10.874021
55.210 10.965844
55.215 10.947283
55.220 11.282191
55.225 11.767248
55.230 11.661432
55.235 11.418978
55.240 11.001402
55.245 11.264281
55.250 11.260071
55.255 11.036998
55.260 11.218559
55.265 11.74205
55.270 12.420799
55.275 13.071466
55.280 12.934695
55.285 12.783543
55.290 12.958354
55.295 12.690297
55.300 12.403315
55.305 11.886971
55.310 11.643992
55.315 11.460923
55.320 11.085382
55.325 11.17213
55.330 11.089426
55.335 10.952533
55.340 10.845387
55.345 10.499686
55.350 10.986251
55.355 10.916713
55.360 10.618388
55.365 10.874437
55.370 11.014027
55.375 11.155379
55.380 11.037745
55.385 10.950886
55.390 11.439941
55.395 12.127539
55.400 12.280419
55.405 12.032095
55.410 12.132263
55.415 12.257524
55.420 12.05582
55.425 11.865709
55.430 11.125956
55.435 10.583028
55.440 10.342319
55.445 10.301936
55.450 10.678019
55.455 10.591463
55.460 10.285591
55.465 10.486588
55.470 11.216538
55.475 12.014883
55.480 12.071191
55.485 11.93787
55.490 12.221513
55.495 12.732243
55.500 11.967196
55.505 11.442252
55.510 10.930688
55.515 10.701071
55.520 10.808467
55.525 10.712736
55.530 10.498084
55.535 10.957028
55.540 11.042403
55.545 11.016888
55.550 11.197759
55.555 11.182579
55.560 11.169085
55.565 11.386189
55.570 11.08656
55.575 11.44686
55.580 11.422429
55.585 10.958476
55.590 10.978697
55.595 11.231855
55.600 11.256634
55.605 11.38137
55.610 11.194579
55.615 10.927808
55.620 10.823623
55.625 10.596067
55.630 10.618251
55.635 10.57871
55.640 10.018235
55.645 10.135015
55.650 10.772741
55.655 10.644905
55.660 10.054998
55.665 9.839948
55.670 10.522496
55.675 10.847461
55.680 10.594072
55.685 10.597187
55.690 11.098939
55.695 11.268003
55.700 11.799382
55.705 11.305429
55.710 10.777637
55.715 10.702059
55.720 10.834678
55.725 11.013225
55.730 11.240179
55.735 10.535481
55.740 10.465228
55.745 10.93586
55.750 11.263082
55.755 11.139735
55.760 11.049739
55.765 11.530927
55.770 11.95324
55.775 12.045371
55.780 12.064157
55.785 11.605764
55.790 11.192779
55.795 11.08566
55.800 10.605607
55.805 10.381276
55.810 10.530661
55.815 10.492117
55.820 10.643891
55.825 11.128207
55.830 11.082713
55.835 11.482022
55.840 11.82776
55.845 12.086024
55.850 12.42882
55.855 12.832106
55.860 13.166699
55.865 13.496958
55.870 13.164814
55.875 12.684829
55.880 12.391463
55.885 12.423941
55.890 11.907472
55.895 11.628773
55.900 11.305762
55.905 11.403081
55.910 12.056654
55.915 12.104376
55.920 12.030871
55.925 12.436715
55.930 12.428735
55.935 12.80341
55.940 12.765711
55.945 12.702967
55.950 12.945913
55.955 12.480355
55.960 11.835967
55.965 11.441324
55.970 11.013719
55.975 10.528211
55.980 9.96051
55.985 9.85728
55.990 9.895214
55.995 10.268519
56.000 10.655043
56.005 10.701934
56.010 11.006522
56.015 10.797465
56.020 10.374316
56.025 10.896757
56.030 11.046468
56.035 11.150747
56.040 11.651531
56.045 11.734074
56.050 12.143918
56.055 12.200669
56.060 11.670913
56.065 11.616683
56.070 11.333621
56.075 10.694696
56.080 10.88635
56.085 10.871208
56.090 10.957732
56.095 10.772092
56.100 10.797883
56.105 11.296807
56.110 12.108622
56.115 12.135224
56.120 12.654366
56.125 12.952059
56.130 12.935405
56.135 12.426145
56.140 12.488937
56.145 12.193399
56.150 12.639469
56.155 12.805631
56.160 12.756573
56.165 12.979074
56.170 12.623697
56.175 11.708447
56.180 10.957264
56.185 10.46431
56.190 9.994911
56.195 9.71321
56.200 10.034941
56.205 10.555369
56.210 11.179772
56.215 11.579103
56.220 11.413082
56.225 11.450774
56.230 11.742899
56.235 11.70289
56.240 11.892218
56.245 12.120643
56.250 12.288392
56.255 12.4849
56.260 12.623342
56.265 12.690665
56.270 12.075344
56.275 11.519157
56.280 11.014956
56.285 11.222412
56.290 11.100216
56.295 11.188646
56.300 11.037719
56.305 11.237859
56.310 11.357168
56.315 11.656057
56.320 11.402764
56.325 11.252582
56.330 11.12373
56.335 11.150345
56.340 11.118602
56.345 11.199671
56.350 10.770171
56.355 10.810597
56.360 10.885269
56.365 10.98664
56.370 11.671
56.375 12.421576
56.380 12.520086
56.385 12.822379
56.390 12.652108
56.395 12.78965
56.400 12.952806
56.405 12.995197
56.410 12.640106
56.415 12.764593
56.420 13.360871
56.425 13.755698
56.430 13.99385
56.435 13.23293
56.440 12.314336
56.445 12.481473
56.450 12.296043
56.455 11.866672
56.460 11.829021
56.465 11.652393
56.470 11.976029
56.475 12.28738
56.480 11.723557
56.485 11.498726
56.490 11.082053
56.495 10.977343
56.500 11.13358
56.505 10.634462
56.510 10.554915
56.515 10.928329
56.520 11.30946
56.525 11.434949
56.530 11.140022
56.535 11.705123
56.540 11.764039
56.545 11.492653
56.550 11.544118
56.555 11.298996
56.560 11.268962
56.565 11.524478
56.570 11.332912
56.575 11.82692
56.580 12.189676
56.585 12.445994
56.590 12.840299
56.595 13.085877
56.600 12.639231
56.605 12.478467
56.610 12.585099
56.615 12.723463
56.620 12.364061
56.625 12.016133
56.630 12.469309
56.635 12.775748
56.640 13.315112
56.645 13.260535
56.650 13.165493
56.655 13.476959
56.660 13.019643
56.665 12.641612
56.670 12.31731
56.675 11.816868
56.680 11.711669
56.685 11.710957
56.690 11.629345
56.695 11.965129
56.700 11.98957
56.705 12.133307
56.710 12.290652
56.715 12.226995
56.720 12.382048
56.725 12.711163
56.730 13.139088
56.735 13.041533
56.740 12.879295
56.745 12.834711
56.750 12.834208
56.755 12.643768
56.760 12.478045
56.765 12.291752
56.770 12.517867
56.775 12.841915
56.780 13.326154
56.785 13.426022
56.790 13.398783
56.795 12.831316
56.800 12.832221
56.805 13.228579
56.810 13.357168
56.815 12.928281
56.820 13.077296
56.825 13.422859
56.830 13.94344
56.835 14.206966
56.840 14.493187
56.845 14.24113
56.850 14.55325
56.855 14.474783
56.860 13.987279
56.865 13.783982
56.870 13.446135
56.875 13.093542
56.880 13.036926
56.885 12.518676
56.890 12.384295
56.895 12.790719
56.900 13.168529
56.905 13.051735
56.910 12.596724
56.915 12.742098
56.920 13.15197
56.925 13.450564
56.930 13.150135
56.935 12.949544
56.940 13.348446
56.945 13.482786
56.950 12.974011
56.955 12.44083
56.960 12.461546
56.965 12.58532
56.970 12.742671
56.975 12.78211
56.980 13.022093
56.985 13.123527
56.990 13.562014
56.995 13.522463
57.000 13.232175
57.005 12.632087
57.010 12.482051
57.015 12.652755
57.020 13.018805
57.025 13.013202
57.030 13.01823
57.035 13.330627
57.040 13.743726
57.045 13.687016
57.050 13.76594
57.055 14.092307
57.060 13.584318
57.065 13.639829
57.070 13.410233
57.075 14.043183
57.080 14.255363
57.085 13.460008
57.090 12.913367
57.095 13.274268
57.100 13.402304
57.105 13.385793
57.110 12.56121
57.115 12.540841
57.120 13.159454
57.125 13.447239
57.130 12.939945
57.135 12.674393
57.140 12.988926
57.145 13.266329
57.150 13.29184
57.155 13.389809
57.160 13.498488
57.165 13.549294
57.170 13.923423
57.175 13.781465
57.180 13.300317
57.185 12.546808
57.190 12.222408
57.195 12.316306
57.200 12.485427
57.205 12.195963
57.210 12.008892
57.215 12.348793
57.220 12.735413
57.225 12.686475
57.230 12.251678
57.235 11.794916
57.240 11.695044
57.245 12.179162
57.250 12.187161
57.255 12.514409
57.260 12.495089
57.265 12.693102
57.270 13.104826
57.275 13.103248
57.280 12.643173
57.285 12.357232
57.290 12.025579
57.295 12.114429
57.300 12.250535
57.305 12.087048
57.310 11.769139
57.315 11.275534
57.320 11.217255
57.325 10.859743
57.330 11.12433
57.335 11.686411
57.340 11.840811
57.345 12.450749
57.350 13.554912
57.355 14.066009
57.360 14.343023
57.365 14.381626
57.370 14.306491
57.375 14.914186
57.380 15.024461
57.385 14.479411
57.390 14.430771
57.395 14.599493
57.400 14.028713
57.405 13.502572
57.410 13.301966
57.415 12.848428
57.420 12.829566
57.425 12.735786
57.430 12.640475
57.435 13.08443
57.440 13.335442
57.445 13.071895
57.450 13.609471
57.455 13.613061
57.460 13.912992
57.465 13.879247
57.470 13.756288
57.475 13.753527
57.480 14.239574
57.485 14.451464
57.490 14.736349
57.495 14.196162
57.500 14.334897
57.505 14.188683
57.510 13.564563
57.515 12.98937
57.520 12.231782
57.525 11.98096
57.530 12.257633
57.535 12.112304
57.540 12.47604
57.545 12.777895
57.550 12.992322
57.555 13.349923
57.560 13.789823
57.565 13.682266
57.570 14.025876
57.575 14.130108
57.580 14.203238
57.585 14.502855
57.590 14.478641
57.595 14.235953
57.600 14.211742
57.605 13.855258
57.610 13.705438
57.615 13.4189
57.620 13.267365
57.625 13.883069
57.630 14.105173
57.635 14.462638
57.640 14.645917
57.645 14.608196
57.650 14.803808
57.655 14.781979
57.660 14.620453
57.665 14.695529
57.670 14.06479
57.675 14.006932
57.680 13.898542
57.685 13.696564
57.690 13.428398
57.695 13.143383
57.700 12.541228
57.705 12.698326
57.710 12.418295
57.715 12.452885
57.720 12.837706
57.725 12.872584
57.730 13.09236
57.735 13.725451
57.740 13.715693
57.745 13.662854
57.750 13.732203
57.755 13.722213
57.760 13.877908
57.765 13.947618
57.770 13.664968
57.775 13.859198
57.780 14.492801
57.785 14.718789
57.790 14.256688
57.795 13.841011
57.800 13.378413
57.805 13.664495
57.810 13.926132
57.815 13.495911
57.820 12.987017
57.825 13.260412
57.830 14.101122
57.835 14.971471
57.840 15.141192
57.845 14.803349
57.850 15.141193
57.855 15.526399
57.860 15.031738
57.865 13.59112
57.870 12.629296
57.875 12.392348
57.880 12.208132
57.885 12.392908
57.890 12.768537
57.895 13.171207
57.900 14.111393
57.905 14.677685
57.910 14.895095
57.915 15.445788
57.920 15.076631
57.925 15.081403
57.930 14.965381
57.935 14.238864
57.940 13.55122
57.945 13.03004
57.950 12.890347
57.955 12.700166
57.960 12.474344
57.965 12.50748
57.970 13.21009
57.975 14.352939
57.980 14.827591
57.985 15.048319
57.990 15.70644
57.995 15.821337
58.000 15.977776
58.005 15.774397
58.010 15.19171
58.015 15.052161
58.020 14.962048
58.025 14.308612
58.030 14.336585
58.035 14.600558
58.040 14.208451
58.045 14.36007
58.050 13.806422
58.055 13.808471
58.060 14.193559
58.065 13.790422
58.070 13.648242
58.075 13.689969
58.080 13.624979
58.085 13.494299
58.090 13.280141
58.095 13.032745
58.100 13.150425
58.105 13.49387
58.110 13.417241
58.115 13.789416
58.120 14.258584
58.125 14.309121
58.130 14.099209
58.135 14.065941
58.140 14.093747
58.145 14.312073
58.150 14.579699
58.155 14.146188
58.160 14.171392
58.165 14.260317
58.170 14.156475
58.175 13.842885
58.180 13.824148
58.185 13.780518
58.190 14.359526
58.195 14.006579
58.200 14.143854
58.205 13.788689
58.210 13.60729
58.215 13.796304
58.220 13.453634
58.225 13.38465
58.230 13.603253
58.235 13.954398
58.240 14.646482
58.245 14.869394
58.250 15.14257
58.255 15.472054
58.260 15.40081
58.265 15.299497
58.270 15.396603
58.275 14.994722
58.280 15.355944
58.285 15.244934
58.290 15.234385
58.295 15.349339
58.300 15.738415
58.305 15.52579
58.310 15.475778
58.315 14.805193
58.320 15.090412
58.325 15.115219
58.330 15.008175
58.335 14.6674
58.340 14.61635
58.345 14.503326
58.350 14.566603
58.355 14.496332
58.360 14.267457
58.365 14.275652
58.370 13.949902
58.375 14.119046
58.380 14.304374
58.385 13.655739
58.390 13.308818
58.395 13.570115
58.400 13.933546
58.405 14.721974
58.410 14.61676
58.415 14.885352
58.420 15.115077
58.425 14.731536
58.430 14.797418
58.435 14.356864
58.440 13.729561
58.445 13.916073
58.450 13.739948
58.455 14.035143
58.460 14.528515
58.465 14.720685
58.470 15.07398
58.475 15.057844
58.480 15.062114
58.485 14.99475
58.490 14.525888
58.495 14.396167
58.500 14.394135
58.505 14.112466
58.510 14.898352
58.515 15.031065
58.520 15.253152
58.525 15.733648
58.530 15.424054
58.535 14.731434
58.540 14.858929
58.545 14.164477
58.550 14.024606
