!@!!GADDS PLOTSO FILE: Chi integration type
!@!!Title/SampleName: map-11a
!@!!Comment: ?
!@!!User: Bruker Instrument Administrator
!@!!Site: University of Illinois Chicago
!@!!Frame: map-11a_01_000.gfrm
!@!!Wavelengths    1.54184   1.54056   1.54439
!@!!Frame angles: 2Theta: 63.000 Omega: 50.000 Phi: 0.000 Chi: 90.000
!@!!Integration range: 2Theta: 53.000 to 73.000  Gamma: -105.000 to -75.000
!@!!Integration method: bin normalized
!@!N
!@!SS
!@!M
!@!L 0.0 0.0 0.0 0.0
!@!XDegrees
!@!YCounts
53.000 7.816605
53.005 7.57527
53.010 7.208539
53.015 6.902105
53.020 7.015191
53.025 6.806422
53.030 6.759843
53.035 6.739686
53.040 6.859146
53.045 6.801109
53.050 6.704705
53.055 6.917377
53.060 7.351008
53.065 7.790682
53.070 8.362155
53.075 8.136046
53.080 8.252443
53.085 8.734725
53.090 8.659309
53.095 8.493532
53.100 8.194447
53.105 7.626281
53.110 7.95822
53.115 8.269662
53.120 7.962895
53.125 7.974965
53.130 7.589236
53.135 7.077991
53.140 6.943614
53.145 6.617829
53.150 6.121758
53.155 6.583342
53.160 6.529881
53.165 6.952623
53.170 7.380723
53.175 7.747163
53.180 7.843668
53.185 7.716564
53.190 7.732519
53.195 7.967593
53.200 7.445867
53.205 7.182635
53.210 6.951557
53.215 6.948578
53.220 6.688002
53.225 6.367695
53.230 6.32763
53.235 6.833132
53.240 7.229548
53.245 7.325066
53.250 7.419611
53.255 7.374753
53.260 7.012351
53.265 6.829785
53.270 6.488662
53.275 6.307784
53.280 6.540333
53.285 6.722703
53.290 7.021209
53.295 7.241271
53.300 7.080092
53.305 7.344335
53.310 7.368539
53.315 6.937539
53.320 7.107591
53.325 7.042409
53.330 7.235832
53.335 7.482497
53.340 7.114126
53.345 7.233286
53.350 7.457838
53.355 7.526739
53.360 7.567923
53.365 7.494492
53.370 7.461486
53.375 7.512982
53.380 7.641519
53.385 7.751553
53.390 7.551655
53.395 7.362049
53.400 7.570467
53.405 7.507835
53.410 7.190994
53.415 6.674101
53.420 6.37518
53.425 6.654473
53.430 6.618345
53.435 6.620392
53.440 6.90439
53.445 7.417314
53.450 7.806125
53.455 7.849364
53.460 7.928914
53.465 8.045472
53.470 8.101664
53.475 7.913626
53.480 7.766819
53.485 7.525177
53.490 7.474532
53.495 7.205029
53.500 6.825988
53.505 6.729665
53.510 7.026669
53.515 7.409119
53.520 7.768382
53.525 7.719031
53.530 8.239662
53.535 8.233477
53.540 8.292444
53.545 8.006763
53.550 7.920152
53.555 7.631791
53.560 7.197204
53.565 7.237719
53.570 7.486945
53.575 7.378444
53.580 7.343185
53.585 7.375882
53.590 7.943253
53.595 8.282164
53.600 8.244689
53.605 8.092143
53.610 8.144176
53.615 8.281965
53.620 8.255206
53.625 8.070471
53.630 7.915875
53.635 7.812794
53.640 8.093344
53.645 7.559031
53.650 7.451437
53.655 7.131206
53.660 6.961169
53.665 7.449967
53.670 7.403764
53.675 7.570873
53.680 8.040761
53.685 7.947431
53.690 7.98507
53.695 8.209682
53.700 8.049231
53.705 8.001033
53.710 7.838149
53.715 7.701575
53.720 7.781546
53.725 7.81616
53.730 7.219241
53.735 6.878636
53.740 7.18688
53.745 7.217402
53.750 7.320651
53.755 7.232487
53.760 7.281412
53.765 7.814588
53.770 8.195004
53.775 8.242436
53.780 8.359788
53.785 8.025065
53.790 8.505595
53.795 8.657823
53.800 8.767627
53.805 8.715392
53.810 8.341879
53.815 8.382896
53.820 8.456783
53.825 8.168812
53.830 7.731462
53.835 7.719971
53.840 7.302362
53.845 7.279462
53.850 7.102768
53.855 7.193282
53.860 7.473626
53.865 7.907457
53.870 7.868661
53.875 8.200415
53.880 8.376824
53.885 8.085072
53.890 7.739971
53.895 7.144785
53.900 6.496086
53.905 6.448439
53.910 6.469573
53.915 6.536609
53.920 7.002584
53.925 6.847545
53.930 7.1997
53.935 8.072617
53.940 7.961541
53.945 7.955914
53.950 8.028787
53.955 8.235294
53.960 8.315792
53.965 8.036797
53.970 7.63221
53.975 7.982747
53.980 8.042205
53.985 8.051933
53.990 8.254491
53.995 8.690866
54.000 9.024037
54.005 8.692164
54.010 8.54938
54.015 8.732465
54.020 8.97081
54.025 8.798972
54.030 8.753016
54.035 9.257124
54.040 9.264869
54.045 9.056073
54.050 8.40355
54.055 7.867208
54.060 7.675545
54.065 7.346786
54.070 7.207656
54.075 7.348663
54.080 7.573349
54.085 7.834723
54.090 8.015071
54.095 7.986835
54.100 8.072479
54.105 8.200182
54.110 8.420868
54.115 8.864244
54.120 9.186772
54.125 9.503314
54.130 9.607024
54.135 9.401184
54.140 8.727411
54.145 8.726165
54.150 8.253552
54.155 7.937601
54.160 7.6708
54.165 7.865114
54.170 8.057775
54.175 8.021117
54.180 7.954738
54.185 8.318324
54.190 8.5995
54.195 8.5451
54.200 8.5144
54.205 8.651974
54.210 8.67431
54.215 8.204065
54.220 7.902408
54.225 7.746768
54.230 7.697373
54.235 7.216265
54.240 7.384723
54.245 7.512814
54.250 7.589224
54.255 7.728292
54.260 8.090702
54.265 8.270691
54.270 8.880444
54.275 8.78205
54.280 9.055842
54.285 8.959094
54.290 8.707123
54.295 8.749842
54.300 8.942361
54.305 8.857229
54.310 8.564029
54.315 8.492401
54.320 8.385461
54.325 8.167326
54.330 8.042988
54.335 7.750048
54.340 7.47312
54.345 8.026259
54.350 8.038434
54.355 8.57111
54.360 8.809372
54.365 8.921185
54.370 8.822879
54.375 8.736078
54.380 8.582593
54.385 8.648579
54.390 8.102077
54.395 7.88096
54.400 7.757571
54.405 8.104984
54.410 8.306507
54.415 8.066352
54.420 8.232754
54.425 8.412452
54.430 8.547559
54.435 8.385822
54.440 8.548165
54.445 8.632634
54.450 8.883068
54.455 8.882998
54.460 8.801341
54.465 8.99576
54.470 9.423496
54.475 9.237017
54.480 9.202088
54.485 9.064091
54.490 8.826163
54.495 8.877502
54.500 8.353498
54.505 8.048038
54.510 7.989987
54.515 7.810297
54.520 8.336429
54.525 8.896322
54.530 9.138115
54.535 9.191123
54.540 9.332465
54.545 9.570578
54.550 9.672071
54.555 9.141251
54.560 9.073374
54.565 8.944901
54.570 9.249974
54.575 9.077963
54.580 8.998308
54.585 8.753048
54.590 8.6566
54.595 8.445704
54.600 8.423243
54.605 7.720206
54.610 7.433223
54.615 7.428399
54.620 7.783168
54.625 7.743812
54.630 7.626011
54.635 7.725586
54.640 7.750318
54.645 7.789699
54.650 7.395161
54.655 7.038992
54.660 7.158904
54.665 7.146369
54.670 7.367712
54.675 7.721411
54.680 7.416391
54.685 7.938054
54.690 8.015065
54.695 7.904613
54.700 7.985024
54.705 7.810805
54.710 7.795365
54.715 7.857052
54.720 7.528366
54.725 7.601137
54.730 7.63199
54.735 7.888276
54.740 7.942979
54.745 8.359859
54.750 8.449959
54.755 8.833237
54.760 8.956042
54.765 8.938043
54.770 8.758767
54.775 8.286653
54.780 7.816823
54.785 7.563734
54.790 6.78844
54.795 6.533982
54.800 6.470596
54.805 6.840972
54.810 7.659997
54.815 8.362257
54.820 8.724404
54.825 9.183996
54.830 9.524093
54.835 9.595442
54.840 9.388463
54.845 9.402452
54.850 9.101509
54.855 9.331573
54.860 9.639829
54.865 9.510278
54.870 9.169291
54.875 8.845353
54.880 8.338934
54.885 8.50003
54.890 8.263043
54.895 8.236231
54.900 8.242867
54.905 8.668047
54.910 9.157717
54.915 9.347434
54.920 9.505952
54.925 9.565254
54.930 9.676067
54.935 9.717484
54.940 9.38519
54.945 9.510235
54.950 9.351509
54.955 9.032693
54.960 9.214376
54.965 8.796854
54.970 8.826189
54.975 8.891994
54.980 8.739914
54.985 8.840597
54.990 8.65484
54.995 8.294013
55.000 8.318485
55.005 8.283137
55.010 8.308514
55.015 8.060925
55.020 8.320897
55.025 8.452263
55.030 8.682407
55.035 8.829477
55.040 8.526515
55.045 8.404825
55.050 8.474382
55.055 8.605161
55.060 8.916132
55.065 8.369531
55.070 8.452138
55.075 8.899713
55.080 9.185509
55.085 9.265148
55.090 9.14158
55.095 9.270029
55.100 9.567102
55.105 9.359702
55.110 9.08359
55.115 8.94753
55.120 8.687465
55.125 8.159379
55.130 8.178082
55.135 8.625677
55.140 8.95914
55.145 9.435036
55.150 9.590487
55.155 9.765139
55.160 9.90916
55.165 9.459875
55.170 8.987639
55.175 8.718344
55.180 8.589081
55.185 8.309549
55.190 8.562664
55.195 8.944558
55.200 9.442342
55.205 9.704832
55.210 9.666479
55.215 9.678186
55.220 9.730998
55.225 9.518577
55.230 9.25603
55.235 8.800352
55.240 9.090882
55.245 9.251803
55.250 8.989224
55.255 8.917921
55.260 8.781304
55.265 9.043434
55.270 9.089034
55.275 8.552486
55.280 8.866369
55.285 9.012422
55.290 8.867941
55.295 9.000063
55.300 8.75767
55.305 8.649751
55.310 8.383162
55.315 8.099561
55.320 8.177503
55.325 8.406628
55.330 8.209445
55.335 8.054348
55.340 8.11024
55.345 8.417784
55.350 8.333616
55.355 8.308976
55.360 8.045208
55.365 7.838095
55.370 8.383442
55.375 8.354586
55.380 7.92451
55.385 7.872462
55.390 7.995656
55.395 8.256575
55.400 8.202071
55.405 8.103141
55.410 8.23448
55.415 8.312972
55.420 8.275982
55.425 7.931778
55.430 7.773883
55.435 7.666929
55.440 7.573496
55.445 7.861954
55.450 8.289622
55.455 8.657656
55.460 8.636784
55.465 9.045212
55.470 9.284678
55.475 8.975578
55.480 8.634244
55.485 8.254629
55.490 7.957181
55.495 7.9267
55.500 7.73522
55.505 7.829679
55.510 8.384199
55.515 8.718458
55.520 8.782111
55.525 9.032024
55.530 9.000233
55.535 8.873378
55.540 8.674324
55.545 8.262243
55.550 8.263354
55.555 8.317585
55.560 8.299241
55.565 8.492856
55.570 8.070692
55.575 7.895751
55.580 8.013319
55.585 8.046843
55.590 8.424603
55.595 8.448017
55.600 8.58509
55.605 8.90095
55.610 9.050209
55.615 8.553347
55.620 8.417933
55.625 8.684769
55.630 8.781885
55.635 8.72187
55.640 8.693353
55.645 9.06126
55.650 9.416355
55.655 9.156316
55.660 8.20118
55.665 8.137745
55.670 8.332996
55.675 8.112355
55.680 7.793926
55.685 8.014796
55.690 8.447173
55.695 8.488556
55.700 8.120635
55.705 7.99708
55.710 8.300536
55.715 8.507872
55.720 8.297607
55.725 8.129694
55.730 8.333989
55.735 8.570497
55.740 8.272937
55.745 7.94726
55.750 7.872104
55.755 8.213082
55.760 8.748098
55.765 9.194039
55.770 9.747172
55.775 10.255773
55.780 10.474347
55.785 9.963311
55.790 9.414976
55.795 8.771656
55.800 8.543119
55.805 8.214843
55.810 8.48129
55.815 8.464094
55.820 8.737253
55.825 8.9926
55.830 9.358498
55.835 9.81685
55.840 9.668848
55.845 9.391936
55.850 9.549592
55.855 9.676266
55.860 9.664345
55.865 9.537441
55.870 9.41942
55.875 9.648439
55.880 9.761848
55.885 9.657186
55.890 9.591749
55.895 9.699379
55.900 9.79924
55.905 9.385362
55.910 9.287049
55.915 9.271897
55.920 9.458538
55.925 9.501986
55.930 9.261854
55.935 9.146988
55.940 9.217446
55.945 9.182954
55.950 9.170699
55.955 8.970983
55.960 8.571607
55.965 8.456304
55.970 8.45868
55.975 7.84118
55.980 7.735712
55.985 7.632261
55.990 7.463892
55.995 7.456409
56.000 7.434428
56.005 7.81247
56.010 8.16471
56.015 7.77983
56.020 7.595812
56.025 7.828383
56.030 8.193061
56.035 7.877018
56.040 7.578503
56.045 7.949482
56.050 8.449795
56.055 8.95772
56.060 8.696613
56.065 8.692086
56.070 8.907448
56.075 9.127159
56.080 9.357012
56.085 9.255552
56.090 8.974277
56.095 9.118086
56.100 9.050273
56.105 8.961746
56.110 8.583153
56.115 8.117233
56.120 7.967198
56.125 8.268879
56.130 8.499603
56.135 8.741015
56.140 9.235391
56.145 9.607063
56.150 9.969682
56.155 10.255775
56.160 9.998352
56.165 9.88043
56.170 9.327331
56.175 8.866894
56.180 8.53273
56.185 8.155621
56.190 7.974984
56.195 7.480645
56.200 7.93311
56.205 8.567657
56.210 8.697063
56.215 9.129428
56.220 9.621121
56.225 10.067531
56.230 10.42933
56.235 9.855326
56.240 9.905872
56.245 10.05703
56.250 9.649733
56.255 9.093642
56.260 9.025726
56.265 9.481113
56.270 9.564736
56.275 9.369134
56.280 9.18748
56.285 9.077991
56.290 9.327028
56.295 9.129948
56.300 8.718525
56.305 8.90906
56.310 8.737511
56.315 8.933738
56.320 9.506586
56.325 9.351089
56.330 9.525551
56.335 10.12357
56.340 10.450979
56.345 10.922066
56.350 11.162326
56.355 11.412928
56.360 11.32398
56.365 11.526654
56.370 11.199517
56.375 10.760995
56.380 10.322058
56.385 10.019794
56.390 9.82735
56.395 10.278358
56.400 10.052602
56.405 10.397139
56.410 10.696131
56.415 10.529524
56.420 10.419532
56.425 10.501657
56.430 10.087167
56.435 9.63494
56.440 9.100677
56.445 9.002482
56.450 9.300179
56.455 9.572774
56.460 10.032927
56.465 10.641605
56.470 10.965182
56.475 11.31349
56.480 11.496315
56.485 12.063766
56.490 12.119301
56.495 11.961967
56.500 11.620858
56.505 11.618352
56.510 11.474745
56.515 11.613539
56.520 10.992633
56.525 11.195463
56.530 11.285554
56.535 11.400143
56.540 11.248263
56.545 11.002989
56.550 10.549713
56.555 10.269567
56.560 10.016566
56.565 9.616921
56.570 9.987596
56.575 10.341521
56.580 10.602229
56.585 10.810893
56.590 10.726773
56.595 10.532043
56.600 10.586601
56.605 10.366076
56.610 10.079846
56.615 9.848518
56.620 10.016884
56.625 10.241262
56.630 10.576091
56.635 10.743587
56.640 10.45472
56.645 10.202967
56.650 10.069547
56.655 9.839613
56.660 9.442464
56.665 8.90401
56.670 8.028867
56.675 8.134029
56.680 8.187524
56.685 8.44679
56.690 8.8364
56.695 9.221025
56.700 9.124804
56.705 9.905228
56.710 10.659715
56.715 11.307403
56.720 11.007919
56.725 11.017622
56.730 11.037226
56.735 11.461269
56.740 11.31731
56.745 10.796515
56.750 10.748671
56.755 10.767775
56.760 10.743676
56.765 10.914852
56.770 11.136473
56.775 11.400101
56.780 11.385922
56.785 11.409592
56.790 11.223006
56.795 11.025615
56.800 10.820403
56.805 10.363083
56.810 10.385528
56.815 10.512458
56.820 11.018481
56.825 11.098685
56.830 10.831605
56.835 11.052687
56.840 11.37374
56.845 11.381811
56.850 10.818539
56.855 10.319963
56.860 10.522024
56.865 10.964538
56.870 10.676191
56.875 9.841279
56.880 9.777853
56.885 9.975312
56.890 9.680321
56.895 9.35024
56.900 8.6519
56.905 9.128119
56.910 9.525567
56.915 9.217658
56.920 8.767909
56.925 8.644914
56.930 9.124355
56.935 9.543801
56.940 9.138086
56.945 9.101719
56.950 9.201643
56.955 9.609146
56.960 9.899734
56.965 9.887872
56.970 9.540846
56.975 9.236423
56.980 9.375011
56.985 9.700897
56.990 9.758746
56.995 9.571809
57.000 9.502921
57.005 9.792129
57.010 10.232536
57.015 10.493708
57.020 10.227794
57.025 10.078629
57.030 9.931879
57.035 9.507454
57.040 9.296353
57.045 8.950249
57.050 8.588273
57.055 8.572347
57.060 8.450612
57.065 8.751135
57.070 9.148043
57.075 9.427753
57.080 9.975152
57.085 10.250608
57.090 10.096572
57.095 10.33055
57.100 9.898449
57.105 9.749524
57.110 9.239567
57.115 8.951024
57.120 9.182927
57.125 9.371912
57.130 9.607182
57.135 9.604176
57.140 9.528291
57.145 9.778418
57.150 9.415009
57.155 8.985736
57.160 8.966537
57.165 8.925343
57.170 9.106879
57.175 9.389579
57.180 9.504949
57.185 9.965944
57.190 10.10962
57.195 10.24423
57.200 10.199377
57.205 10.288175
57.210 10.086536
57.215 10.101425
57.220 10.190154
57.225 10.201838
57.230 9.88065
57.235 9.758889
57.240 9.684727
57.245 9.320695
57.250 9.116308
57.255 8.908582
57.260 8.976221
57.265 8.974996
57.270 9.019876
57.275 9.083852
57.280 9.292003
57.285 8.814913
57.290 8.476094
57.295 8.443755
57.300 8.650983
57.305 8.778841
57.310 8.958203
57.315 9.540855
57.320 10.170378
57.325 10.054423
57.330 9.946458
57.335 10.127333
57.340 10.029923
57.345 9.932999
57.350 9.810926
57.355 9.580552
57.360 10.118721
57.365 10.290663
57.370 10.017317
57.375 9.849334
57.380 9.792746
57.385 9.833338
57.390 10.191006
57.395 10.070519
57.400 10.051306
57.405 10.17998
57.410 10.799261
57.415 10.89305
57.420 11.024376
57.425 11.016632
57.430 11.125868
57.435 11.291908
57.440 11.550777
57.445 11.147418
57.450 10.992105
57.455 10.856748
57.460 10.615973
57.465 10.877363
57.470 11.01335
57.475 10.766285
57.480 11.338201
57.485 11.416346
57.490 11.517025
57.495 11.632874
57.500 11.344699
57.505 11.143327
57.510 11.128929
57.515 10.738209
57.520 10.849179
57.525 10.774077
57.530 10.280918
57.535 10.120377
57.540 9.866347
57.545 9.235306
57.550 9.131997
57.555 8.898141
57.560 9.214792
57.565 9.441422
57.570 9.33539
57.575 9.581182
57.580 9.971915
57.585 9.864155
57.590 9.999892
57.595 9.883533
57.600 10.180822
57.605 10.800551
57.610 10.786948
57.615 10.549709
57.620 10.48676
57.625 10.695653
57.630 10.726148
57.635 10.587613
57.640 10.353055
57.645 10.205139
57.650 10.249667
57.655 10.405521
57.660 9.863967
57.665 9.76419
57.670 9.621281
57.675 9.146212
57.680 9.51715
57.685 9.746785
57.690 9.458445
57.695 9.802693
57.700 9.881323
57.705 9.898653
57.710 10.204968
57.715 10.015387
57.720 10.134047
57.725 10.272602
57.730 10.132037
57.735 10.158017
57.740 9.739106
57.745 9.860849
57.750 10.153845
57.755 10.003935
57.760 9.563185
57.765 9.910674
57.770 10.214856
57.775 11.13883
57.780 11.20229
57.785 11.162415
57.790 11.770609
57.795 12.061436
57.800 11.525826
57.805 11.288937
57.810 11.333309
57.815 11.50222
57.820 11.207403
57.825 10.693008
57.830 10.386315
57.835 10.385695
57.840 9.930673
57.845 8.882187
57.850 8.610158
57.855 8.458676
57.860 8.539389
57.865 8.900648
57.870 9.173492
57.875 9.574095
57.880 10.188394
57.885 10.507647
57.890 10.896091
57.895 10.604672
57.900 10.405402
57.905 10.406668
57.910 10.390832
57.915 10.266339
57.920 10.250036
57.925 10.449887
57.930 10.530746
57.935 10.974931
57.940 10.864216
57.945 10.681049
57.950 10.311433
57.955 10.281487
57.960 10.047121
57.965 10.027436
57.970 9.289534
57.975 9.508638
57.980 9.598441
57.985 9.484324
57.990 9.465545
57.995 9.598965
58.000 9.886004
58.005 9.717763
58.010 10.100253
58.015 10.485968
58.020 10.489848
58.025 10.203032
58.030 10.316366
58.035 10.266501
58.040 10.72723
58.045 10.84106
58.050 10.918352
58.055 11.192731
58.060 11.178232
58.065 11.028944
58.070 10.889729
58.075 11.509713
58.080 11.048192
58.085 11.216664
58.090 11.168386
58.095 11.159579
58.100 11.044496
58.105 11.225715
58.110 10.663303
58.115 11.013113
58.120 11.103752
58.125 11.477846
58.130 11.791095
58.135 12.115563
58.140 12.053499
58.145 11.794024
58.150 11.878485
58.155 11.757426
58.160 11.474689
58.165 11.376209
58.170 11.347182
58.175 11.228743
58.180 10.973363
58.185 10.373158
58.190 9.840077
58.195 9.868083
58.200 9.805317
58.205 9.772703
58.210 10.07274
58.215 10.603408
58.220 11.218987
58.225 11.807326
58.230 12.320151
58.235 12.657609
58.240 12.632414
58.245 12.256324
58.250 12.160506
58.255 12.457219
58.260 12.321512
58.265 12.03089
58.270 12.119746
58.275 12.345012
58.280 12.081596
58.285 11.635355
58.290 11.171657
58.295 11.166408
58.300 10.834764
58.305 10.663947
58.310 10.709085
58.315 11.720922
58.320 12.080745
58.325 12.25756
58.330 12.511053
58.335 13.042645
58.340 13.536817
58.345 13.836914
58.350 12.953515
58.355 12.501789
58.360 12.39087
58.365 12.191104
58.370 11.90898
58.375 12.000715
58.380 12.156185
58.385 13.189466
58.390 13.995708
58.395 14.202096
58.400 14.686337
58.405 15.036583
58.410 14.300682
58.415 14.247703
58.420 14.155956
58.425 13.647147
58.430 13.485085
58.435 13.430106
58.440 13.934848
58.445 14.270507
58.450 13.664031
58.455 13.094472
58.460 13.324698
58.465 13.102651
58.470 13.144771
58.475 12.59205
58.480 12.752337
58.485 13.120243
58.490 13.3391
58.495 13.307447
58.500 13.93932
58.505 13.869651
58.510 13.992221
58.515 13.664361
58.520 13.614242
58.525 14.390811
58.530 14.54852
58.535 14.455289
58.540 14.014322
58.545 13.84204
58.550 13.846584
58.555 13.463974
58.560 13.030842
58.565 13.438353
58.570 13.243266
58.575 13.205408
58.580 13.695905
58.585 14.07505
58.590 14.331932
58.595 14.363307
58.600 14.02085
58.605 14.303199
58.610 14.002361
58.615 14.02369
58.620 13.953325
58.625 14.429704
58.630 14.41418
58.635 14.380506
58.640 14.16701
58.645 14.488591
58.650 14.148661
58.655 13.741101
58.660 13.878714
58.665 13.99063
