!@!!GADDS PLOTSO FILE: Chi integration type
!@!!Title/SampleName: map-12f
!@!!Comment: ?
!@!!User: Bruker Instrument Administrator
!@!!Site: University of Illinois Chicago
!@!!Frame: map-12f_01_000.gfrm
!@!!Wavelengths    1.54184   1.54056   1.54439
!@!!Frame angles: 2Theta: 63.000 Omega: 50.000 Phi: 0.000 Chi: 90.000
!@!!Integration range: 2Theta: 53.000 to 73.000  Gamma: -105.000 to -75.000
!@!!Integration method: bin normalized
!@!N
!@!SS
!@!M
!@!L 0.0 0.0 0.0 0.0
!@!XDegrees
!@!YCounts
53.000 4.597772
53.005 4.512458
53.010 4.262365
53.015 4.082246
53.020 3.682866
53.025 3.943277
53.030 3.797649
53.035 3.962073
53.040 4.368736
53.045 4.439809
53.050 4.475899
53.055 4.433425
53.060 4.087533
53.065 3.981388
53.070 3.742459
53.075 3.648456
53.080 3.579398
53.085 3.75598
53.090 3.669055
53.095 3.925663
53.100 4.047195
53.105 4.038833
53.110 4.176953
53.115 4.152086
53.120 4.044906
53.125 3.986923
53.130 4.019373
53.135 4.256374
53.140 4.126136
53.145 4.188577
53.150 4.211591
53.155 4.257114
53.160 4.335884
53.165 4.139867
53.170 3.935991
53.175 3.938316
53.180 3.653898
53.185 3.543015
53.190 3.629489
53.195 3.258838
53.200 3.307143
53.205 3.201517
53.210 3.129208
53.215 3.213813
53.220 3.1645
53.225 3.198931
53.230 3.444198
53.235 3.484907
53.240 3.820161
53.245 4.210349
53.250 4.436843
53.255 4.690924
53.260 4.636381
53.265 4.434772
53.270 4.204291
53.275 4.110085
53.280 4.040995
53.285 3.720158
53.290 3.636312
53.295 4.004023
53.300 4.154889
53.305 4.004599
53.310 3.646528
53.315 3.497778
53.320 3.837074
53.325 3.728444
53.330 3.500173
53.335 3.606818
53.340 3.750998
53.345 3.931956
53.350 3.949329
53.355 3.898902
53.360 3.756329
53.365 3.787347
53.370 3.79399
53.375 3.911048
53.380 3.976609
53.385 3.839495
53.390 3.806992
53.395 3.839234
53.400 3.519686
53.405 3.392799
53.410 3.151577
53.415 2.954875
53.420 2.976443
53.425 2.937895
53.430 3.142816
53.435 3.436865
53.440 3.678783
53.445 3.655339
53.450 3.679759
53.455 3.821654
53.460 3.898581
53.465 3.859412
53.470 3.787129
53.475 3.790877
53.480 3.865632
53.485 3.985139
53.490 3.801606
53.495 4.168522
53.500 4.547287
53.505 4.915581
53.510 4.801645
53.515 4.657088
53.520 4.557767
53.525 4.382525
53.530 4.119884
53.535 3.614933
53.540 3.484352
53.545 4.028661
53.550 4.3997
53.555 4.870857
53.560 4.923555
53.565 4.95101
53.570 5.097065
53.575 5.168067
53.580 5.02032
53.585 5.017549
53.590 5.004742
53.595 5.087839
53.600 5.108131
53.605 5.124667
53.610 5.039996
53.615 4.875085
53.620 4.794402
53.625 4.536417
53.630 4.320901
53.635 4.186775
53.640 3.892994
53.645 3.771709
53.650 3.664373
53.655 3.687783
53.660 3.872171
53.665 3.709733
53.670 3.764421
53.675 3.938532
53.680 4.064101
53.685 4.166876
53.690 4.193186
53.695 4.162326
53.700 4.23753
53.705 4.014019
53.710 3.991563
53.715 4.118011
53.720 4.098093
53.725 4.217193
53.730 4.324852
53.735 4.690493
53.740 4.649589
53.745 4.749475
53.750 4.420643
53.755 4.176191
53.760 3.801988
53.765 3.622959
53.770 3.56168
53.775 3.573689
53.780 3.577054
53.785 3.640688
53.790 3.858296
53.795 3.913059
53.800 3.795279
53.805 3.577736
53.810 3.578053
53.815 3.399795
53.820 3.342811
53.825 3.202119
53.830 3.154804
53.835 3.280437
53.840 3.570116
53.845 3.638708
53.850 3.760509
53.855 3.855963
53.860 4.007915
53.865 4.394856
53.870 4.84818
53.875 4.935051
53.880 4.759046
53.885 4.724115
53.890 4.598671
53.895 4.540435
53.900 4.048103
53.905 3.709187
53.910 3.625699
53.915 3.871475
53.920 4.205976
53.925 4.416971
53.930 4.666427
53.935 4.719778
53.940 4.591746
53.945 4.453947
53.950 4.234448
53.955 3.954996
53.960 3.667091
53.965 3.46605
53.970 3.771026
53.975 4.367333
53.980 4.615905
53.985 4.788293
53.990 4.955776
53.995 4.850356
54.000 4.952591
54.005 4.68484
54.010 4.114266
54.015 4.185721
54.020 4.15029
54.025 4.001972
54.030 4.034513
54.035 3.885256
54.040 3.86603
54.045 4.004986
54.050 3.718367
54.055 3.716208
54.060 3.888485
54.065 3.950421
54.070 4.029253
54.075 3.910648
54.080 4.034547
54.085 4.002964
54.090 3.919689
54.095 3.791405
54.100 3.943539
54.105 4.04598
54.110 3.867071
54.115 3.649042
54.120 3.757597
54.125 3.785301
54.130 3.980844
54.135 3.700642
54.140 3.943334
54.145 4.224714
54.150 4.389303
54.155 4.63902
54.160 4.888576
54.165 5.074247
54.170 5.1306
54.175 5.017792
54.180 5.028342
54.185 4.806183
54.190 4.462027
54.195 4.17946
54.200 3.945316
54.205 3.833498
54.210 4.163835
54.215 4.387384
54.220 4.388575
54.225 4.361102
54.230 4.419413
54.235 4.595557
54.240 4.820627
54.245 4.734661
54.250 4.695709
54.255 4.909273
54.260 5.177469
54.265 5.515647
54.270 5.9513
54.275 5.72018
54.280 5.768853
54.285 5.946257
54.290 5.820903
54.295 5.675424
54.300 5.122256
54.305 4.655009
54.310 4.517735
54.315 4.029084
54.320 3.886253
54.325 4.16561
54.330 3.934199
54.335 4.042929
54.340 4.459711
54.345 4.594459
54.350 4.65626
54.355 4.446081
54.360 4.588241
54.365 4.740063
54.370 5.088231
54.375 4.977084
54.380 4.860943
54.385 5.025623
54.390 4.865103
54.395 4.846102
54.400 4.753435
54.405 4.450023
54.410 4.459337
54.415 4.178466
54.420 4.182004
54.425 4.375381
54.430 4.336078
54.435 4.499101
54.440 4.345539
54.445 4.637037
54.450 4.785227
54.455 4.580761
54.460 4.472232
54.465 4.644791
54.470 4.778298
54.475 4.500579
54.480 4.625046
54.485 4.76539
54.490 4.848347
54.495 4.973512
54.500 4.642546
54.505 4.380067
54.510 4.445823
54.515 4.325837
54.520 4.455905
54.525 4.3099
54.530 4.083738
54.535 4.020247
54.540 3.799118
54.545 4.019064
54.550 3.904355
54.555 3.81785
54.560 4.027228
54.565 3.969025
54.570 4.103198
54.575 4.242865
54.580 3.994768
54.585 4.08045
54.590 4.192636
54.595 4.290299
54.600 4.760518
54.605 4.775484
54.610 4.969787
54.615 5.094438
54.620 4.871269
54.625 4.798239
54.630 4.610062
54.635 4.586792
54.640 4.775498
54.645 4.683092
54.650 4.57577
54.655 4.520779
54.660 4.399022
54.665 3.946755
54.670 3.588702
54.675 3.127633
54.680 3.378629
54.685 3.489576
54.690 3.626572
54.695 3.806196
54.700 4.116374
54.705 4.491335
54.710 4.975314
54.715 5.045363
54.720 5.083606
54.725 4.879766
54.730 4.743874
54.735 4.884467
54.740 4.692509
54.745 4.394653
54.750 4.329855
54.755 4.502762
54.760 4.816169
54.765 4.734735
54.770 4.412242
54.775 4.496782
54.780 4.426196
54.785 4.230889
54.790 3.933953
54.795 3.971309
54.800 3.901927
54.805 3.945766
54.810 3.615449
54.815 3.471644
54.820 3.757626
54.825 3.986029
54.830 4.176115
54.835 4.253462
54.840 4.360523
54.845 4.583246
54.850 4.67609
54.855 4.375098
54.860 4.482514
54.865 4.279177
54.870 4.527166
54.875 5.033487
54.880 4.838373
54.885 5.096408
54.890 5.015856
54.895 4.688869
54.900 4.663626
54.905 4.282871
54.910 4.135034
54.915 3.928978
54.920 3.754545
54.925 3.851379
54.930 3.905416
54.935 4.038232
54.940 3.965796
54.945 3.906947
54.950 4.278211
54.955 4.264369
54.960 4.08503
54.965 4.190593
54.970 4.25936
54.975 4.332114
54.980 4.332899
54.985 4.527
54.990 4.673788
54.995 4.86625
55.000 4.822316
55.005 4.898332
55.010 4.99512
55.015 5.026089
55.020 4.689279
55.025 4.752239
55.030 4.769684
55.035 4.570699
55.040 4.541007
55.045 4.602043
55.050 4.719768
55.055 4.852409
55.060 4.685123
55.065 4.656625
55.070 4.450756
55.075 4.190378
55.080 3.686143
55.085 3.329935
55.090 3.349938
55.095 3.307427
55.100 3.327538
55.105 3.715606
55.110 4.254855
55.115 4.581923
55.120 4.737505
55.125 4.768493
55.130 5.070729
55.135 5.429033
55.140 5.14116
55.145 4.766612
55.150 4.822531
55.155 4.933887
55.160 4.718841
55.165 4.334966
55.170 4.483441
55.175 4.875921
55.180 4.935941
55.185 4.974091
55.190 5.085464
55.195 4.937315
55.200 4.756557
55.205 4.241938
55.210 3.985519
55.215 3.952126
55.220 3.968626
55.225 4.099928
55.230 4.391932
55.235 4.566194
55.240 4.85652
55.245 5.028011
55.250 5.01202
55.255 4.734478
55.260 4.792432
55.265 4.924215
55.270 4.775103
55.275 4.701889
55.280 4.506826
55.285 4.476056
55.290 4.453055
55.295 3.985677
55.300 3.706422
55.305 3.629802
55.310 3.366712
55.315 3.401048
55.320 3.63451
55.325 4.217276
55.330 4.607234
55.335 4.937272
55.340 5.079021
55.345 5.564335
55.350 5.425841
55.355 5.427519
55.360 5.263187
55.365 5.351567
55.370 4.966891
55.375 4.641456
55.380 4.524526
55.385 4.558395
55.390 4.478873
55.395 4.781123
55.400 4.494836
55.405 4.617302
55.410 4.545676
55.415 4.382752
55.420 4.398288
55.425 4.180803
55.430 3.91162
55.435 4.02625
55.440 4.083847
55.445 4.123412
55.450 4.175752
55.455 4.029293
55.460 4.221615
55.465 4.063088
55.470 4.029598
55.475 4.177503
55.480 4.67299
55.485 5.01227
55.490 5.260821
55.495 5.146783
55.500 4.993293
55.505 4.925644
55.510 4.620812
55.515 4.187016
55.520 3.914758
55.525 3.564675
55.530 3.388112
55.535 3.655741
55.540 3.85183
55.545 4.206207
55.550 4.276998
55.555 4.313544
55.560 4.633658
55.565 4.661099
55.570 4.635737
55.575 4.808457
55.580 4.820509
55.585 4.982355
55.590 5.111952
55.595 4.700018
55.600 4.530079
55.605 4.47632
55.610 4.407586
55.615 4.542859
55.620 4.522423
55.625 4.404744
55.630 4.483201
55.635 4.663958
55.640 4.663113
55.645 4.453217
55.650 4.454718
55.655 4.740887
55.660 4.950667
55.665 5.071555
55.670 5.06691
55.675 4.983953
55.680 4.91242
55.685 4.523193
55.690 4.361127
55.695 4.430707
55.700 4.598248
55.705 4.615695
55.710 4.268292
55.715 4.098726
55.720 4.233052
55.725 4.227145
55.730 3.928815
55.735 3.959087
55.740 3.787992
55.745 4.187973
55.750 4.412372
55.755 4.301119
55.760 4.406369
55.765 4.609808
55.770 4.452996
55.775 4.929379
55.780 4.96166
55.785 5.186773
55.790 5.313601
55.795 5.303301
55.800 5.293881
55.805 5.327792
55.810 5.203102
55.815 5.157894
55.820 4.93934
55.825 4.855118
55.830 4.59504
55.835 4.791985
55.840 4.972794
55.845 5.034499
55.850 5.090261
55.855 4.847079
55.860 4.867911
55.865 5.077099
55.870 4.703981
55.875 4.762311
55.880 4.623334
55.885 4.748076
55.890 4.884961
55.895 4.860576
55.900 4.927973
55.905 4.983305
55.910 4.972344
55.915 5.328529
55.920 5.311063
55.925 5.534707
55.930 5.708511
55.935 5.620527
55.940 5.566845
55.945 6.032808
55.950 6.055728
55.955 6.133801
55.960 6.045569
55.965 6.035111
55.970 6.231172
55.975 6.449223
55.980 5.868235
55.985 5.803782
55.990 5.807793
55.995 5.633917
56.000 5.612516
56.005 5.467334
56.010 5.322092
56.015 5.279091
56.020 5.507068
56.025 5.699016
56.030 6.115533
56.035 6.162548
56.040 6.105782
56.045 5.967774
56.050 5.870945
56.055 5.609237
56.060 5.317984
56.065 4.889148
56.070 4.606434
56.075 4.832499
56.080 5.268173
56.085 5.274234
56.090 5.060893
56.095 5.280198
56.100 5.288032
56.105 5.341564
56.110 4.965446
56.115 4.867106
56.120 5.218144
56.125 5.576164
56.130 5.406223
56.135 5.529899
56.140 5.695903
56.145 5.607387
56.150 5.431384
56.155 5.066357
56.160 4.763801
56.165 4.682256
56.170 4.635325
56.175 4.758035
56.180 5.058002
56.185 5.177123
56.190 5.128717
56.195 5.282585
56.200 5.398836
56.205 5.370195
56.210 5.217947
56.215 4.757946
56.220 4.803569
56.225 5.119656
56.230 5.084368
56.235 5.196657
56.240 5.254366
56.245 5.444625
56.250 5.489882
56.255 5.328874
56.260 5.27253
56.265 5.266433
56.270 5.223713
56.275 5.171862
56.280 5.072067
56.285 5.472975
56.290 5.362024
56.295 5.340487
56.300 5.302846
56.305 5.388126
56.310 5.625653
56.315 5.630019
56.320 5.750812
56.325 5.911181
56.330 5.760454
56.335 5.696499
56.340 5.529186
56.345 5.465183
56.350 5.242188
56.355 4.657
56.360 4.642643
56.365 4.93805
56.370 5.401852
56.375 5.639179
56.380 5.496792
56.385 5.810192
56.390 6.029415
56.395 5.91906
56.400 5.835552
56.405 5.352257
56.410 5.117013
56.415 4.944023
56.420 4.794538
56.425 4.723206
56.430 4.887845
56.435 4.770184
56.440 5.105543
56.445 5.273424
56.450 5.300378
56.455 5.244632
56.460 5.280175
56.465 4.890171
56.470 4.7227
56.475 4.552352
56.480 4.286265
56.485 4.379201
56.490 4.454248
56.495 4.807849
56.500 5.142307
56.505 5.318263
56.510 5.403532
56.515 5.62559
56.520 5.534934
56.525 5.373684
56.530 4.816482
56.535 4.557922
56.540 4.225453
56.545 4.206348
56.550 4.573981
56.555 4.767719
56.560 5.038852
56.565 5.242651
56.570 5.506487
56.575 5.63661
56.580 5.525218
56.585 5.434276
56.590 5.425455
56.595 5.306162
56.600 5.417716
56.605 5.636709
56.610 6.023604
56.615 6.223925
56.620 6.089126
56.625 6.031456
56.630 5.740788
56.635 5.709013
56.640 5.601802
56.645 5.32642
56.650 5.022433
56.655 5.050875
56.660 5.279237
56.665 5.516231
56.670 5.521989
56.675 5.495302
56.680 5.925007
56.685 5.92031
56.690 5.849216
56.695 6.174723
56.700 6.287928
56.705 6.033087
56.710 5.977046
56.715 5.593195
56.720 5.887063
56.725 5.844253
56.730 5.498005
56.735 5.399339
56.740 5.499666
56.745 5.864217
56.750 6.038735
56.755 5.788441
56.760 5.874544
56.765 5.947861
56.770 5.930832
56.775 5.95414
56.780 5.645528
56.785 5.768532
56.790 5.825013
56.795 5.607672
56.800 5.225887
56.805 5.366654
56.810 5.411675
56.815 5.67118
56.820 5.469469
56.825 5.431749
56.830 5.66413
56.835 5.876073
56.840 5.82454
56.845 5.938736
56.850 5.86448
56.855 5.775272
56.860 5.715646
56.865 5.779098
56.870 5.975102
56.875 6.074166
56.880 5.830274
56.885 5.684293
56.890 5.551467
56.895 5.704325
56.900 6.024202
56.905 5.904974
56.910 5.685819
56.915 5.713457
56.920 5.945927
56.925 6.511796
56.930 6.462062
56.935 6.141335
56.940 6.344303
56.945 6.369748
56.950 6.052011
56.955 5.830158
56.960 5.732358
56.965 5.622726
56.970 5.877681
56.975 6.120276
56.980 6.165452
56.985 6.495209
56.990 6.241468
56.995 6.301301
57.000 6.662214
57.005 6.511596
57.010 6.177372
57.015 5.864344
57.020 5.674558
57.025 6.09295
57.030 5.851186
57.035 5.476912
57.040 5.591397
57.045 5.776534
57.050 6.245814
57.055 6.356546
57.060 6.08432
57.065 6.006884
57.070 5.903724
57.075 5.604008
57.080 5.362368
57.085 5.178333
57.090 5.274735
57.095 5.678513
57.100 5.677893
57.105 5.822133
57.110 6.377258
57.115 6.444033
57.120 6.23819
57.125 6.29932
57.130 6.219231
57.135 6.70306
57.140 6.531707
57.145 6.264696
57.150 6.44629
57.155 6.660778
57.160 6.436214
57.165 6.536179
57.170 6.357167
57.175 6.323802
57.180 6.369994
57.185 6.20399
57.190 6.042006
57.195 6.185426
57.200 5.976794
57.205 5.977304
57.210 6.094195
57.215 6.20216
57.220 6.410499
57.225 6.597509
57.230 6.250878
57.235 6.143709
57.240 6.409049
57.245 6.328857
57.250 5.937919
57.255 5.854874
57.260 5.804184
57.265 6.12547
57.270 5.860322
57.275 5.533394
57.280 5.806841
57.285 5.912106
57.290 5.537843
57.295 5.612419
57.300 5.539124
57.305 5.72023
57.310 5.931853
57.315 5.697777
57.320 5.900944
57.325 6.72181
57.330 7.107791
57.335 7.384891
57.340 7.590309
57.345 7.346828
57.350 7.769547
57.355 7.490705
57.360 6.815381
57.365 6.362286
57.370 6.184792
57.375 6.10746
57.380 5.93158
57.385 5.557642
57.390 5.788707
57.395 6.018378
57.400 6.200255
57.405 6.365744
57.410 6.218333
57.415 6.358627
57.420 6.374051
57.425 6.477506
57.430 6.394915
57.435 6.325816
57.440 6.338913
57.445 6.44332
57.450 6.530163
57.455 6.316388
57.460 6.359874
57.465 6.209546
57.470 6.007178
57.475 6.160004
57.480 6.256392
57.485 6.560659
57.490 7.139898
57.495 6.844532
57.500 6.622888
57.505 6.246939
57.510 5.948111
57.515 6.056126
57.520 5.703318
57.525 5.573867
57.530 5.728158
57.535 5.865767
57.540 6.262217
57.545 5.99762
57.550 6.231987
57.555 6.267519
57.560 6.271071
57.565 6.761494
57.570 7.216126
57.575 7.249814
57.580 7.587218
57.585 7.297043
57.590 7.341553
57.595 7.066774
57.600 6.25926
57.605 5.837295
57.610 5.557859
57.615 5.232826
57.620 5.007886
57.625 5.201231
57.630 5.470883
57.635 5.414199
57.640 5.519292
57.645 5.689129
57.650 5.878112
57.655 6.225967
57.660 6.06272
57.665 5.987391
57.670 6.185141
57.675 6.423026
57.680 6.622837
57.685 6.650544
57.690 6.416759
57.695 6.530895
57.700 6.68833
57.705 6.644253
57.710 6.585921
57.715 6.467572
57.720 6.534067
57.725 6.614683
57.730 6.526978
57.735 6.173828
57.740 6.283785
57.745 6.323094
57.750 6.282492
57.755 6.056665
57.760 5.978488
57.765 6.144346
57.770 6.40084
57.775 6.331345
57.780 6.261153
57.785 6.546546
57.790 6.809088
57.795 6.923429
57.800 6.786072
57.805 6.903771
57.810 7.262343
57.815 7.325202
57.820 7.261858
57.825 7.33646
57.830 7.312519
57.835 7.648169
57.840 7.716343
57.845 7.435738
57.850 7.423258
57.855 7.676839
57.860 7.658761
57.865 7.701164
57.870 7.320002
57.875 6.950007
57.880 6.787151
57.885 6.434889
57.890 5.893937
57.895 5.59593
57.900 5.476523
57.905 5.597994
57.910 5.714399
57.915 5.66815
57.920 5.94752
57.925 5.972688
57.930 6.565361
57.935 6.766602
57.940 6.535871
57.945 6.411057
57.950 6.660057
57.955 7.191126
57.960 7.345412
57.965 6.990007
57.970 6.490711
57.975 6.606379
57.980 6.778175
57.985 6.697501
57.990 6.451133
57.995 6.535737
58.000 6.34663
58.005 6.842298
58.010 7.166304
58.015 6.998886
58.020 6.715809
58.025 6.40923
58.030 6.391892
58.035 6.534739
58.040 6.514112
58.045 6.770665
58.050 6.714639
58.055 6.799496
58.060 6.908099
58.065 6.775976
58.070 6.891066
58.075 6.947568
58.080 6.855567
58.085 6.952188
58.090 7.078232
58.095 7.048115
58.100 6.651591
58.105 6.206712
58.110 5.837398
58.115 5.857386
58.120 5.889134
58.125 5.727631
58.130 6.027415
58.135 6.388368
58.140 6.730279
58.145 6.757988
58.150 6.69046
58.155 6.72118
58.160 6.831987
58.165 7.04264
58.170 7.093454
58.175 6.974128
58.180 6.716583
58.185 6.696537
58.190 6.401673
58.195 6.128888
58.200 6.193242
58.205 6.308901
58.210 6.334221
58.215 6.343693
58.220 6.335338
58.225 6.536727
58.230 6.671062
58.235 6.345496
58.240 5.960019
58.245 6.138231
58.250 5.999319
58.255 6.144511
58.260 6.242918
58.265 6.076225
58.270 6.435599
58.275 6.752911
58.280 6.885201
58.285 7.103649
58.290 7.132096
58.295 6.95666
58.300 7.194952
58.305 7.056525
58.310 6.913081
58.315 7.160023
58.320 7.176615
58.325 7.058267
58.330 7.155494
58.335 7.099989
58.340 7.077199
58.345 6.82449
58.350 6.195191
58.355 6.216361
58.360 6.198968
58.365 6.201111
58.370 6.372187
58.375 6.693275
58.380 7.264786
58.385 7.586271
58.390 7.675423
58.395 7.841102
58.400 7.498167
58.405 7.347526
58.410 7.042042
58.415 7.116092
58.420 7.663887
58.425 8.076552
58.430 8.458509
58.435 8.93797
58.440 8.971358
58.445 9.328517
58.450 9.344365
58.455 8.888931
58.460 8.430027
58.465 8.510384
58.470 8.273232
58.475 8.273008
58.480 8.146638
58.485 7.91057
58.490 8.268412
58.495 8.508869
58.500 8.674707
58.505 8.657791
58.510 8.798409
58.515 8.81409
58.520 9.216038
58.525 9.320326
58.530 9.241178
58.535 8.915476
58.540 9.550756
58.545 10.129967
58.550 10.172334
58.555 9.947009
58.560 10.107605
58.565 11.154722
58.570 11.279987
58.575 11.289055
58.580 11.121946
58.585 11.675786
58.590 12.496721
58.595 12.962723
58.600 12.150928
58.605 12.527921
58.610 12.537253
58.615 11.770422
58.620 11.350916
58.625 11.002762
58.630 11.004317
58.635 11.321873
58.640 11.372828
58.645 11.59152
58.650 12.458563
58.655 13.295098
58.660 13.849042
58.665 13.673591
58.670 13.54617
58.675 13.486258
58.680 13.143348
58.685 13.452476
58.690 13.097571
58.695 12.925526
58.700 13.245619
58.705 13.388187
58.710 13.603786
58.715 13.704623
58.720 13.233792
58.725 12.833767
58.730 12.811607
58.735 12.791322
58.740 12.74857
58.745 12.760738
