!@!!GADDS PLOTSO FILE: Chi integration type
!@!!Title/SampleName: map-cf
!@!!Comment: ?
!@!!User: Bruker Instrument Administrator
!@!!Site: University of Illinois Chicago
!@!!Frame: map-cf_01_000.gfrm
!@!!Wavelengths    1.54184   1.54056   1.54439
!@!!Frame angles: 2Theta: 63.000 Omega: 50.000 Phi: 0.000 Chi: 90.000
!@!!Integration range: 2Theta: 53.000 to 73.000  Gamma: -105.000 to -75.000
!@!!Integration method: bin normalized
!@!N
!@!SS
!@!M
!@!L 0.0 0.0 0.0 0.0
!@!XDegrees
!@!YCounts
53.000 8.258501
53.005 8.242243
53.010 8.753451
53.015 9.25372
53.020 8.961359
53.025 8.322353
53.030 8.165148
53.035 7.997456
53.040 7.875288
53.045 7.09175
53.050 6.717558
53.055 7.097776
53.060 7.057243
53.065 7.054465
53.070 7.387529
53.075 7.635799
53.080 8.364014
53.085 8.097383
53.090 7.933828
53.095 8.278452
53.100 8.767442
53.105 9.23197
53.110 9.141008
53.115 9.082355
53.120 9.136722
53.125 8.820353
53.130 8.455077
53.135 8.167889
53.140 7.650555
53.145 7.68061
53.150 7.610746
53.155 8.07302
53.160 8.668243
53.165 8.612089
53.170 8.565527
53.175 8.636387
53.180 8.579814
53.185 8.926384
53.190 8.420849
53.195 7.757586
53.200 7.618313
53.205 7.788746
53.210 7.64961
53.215 7.607091
53.220 7.477137
53.225 7.827077
53.230 8.703349
53.235 9.303965
53.240 9.697818
53.245 10.45501
53.250 10.25468
53.255 10.402509
53.260 10.525308
53.265 10.293002
53.270 9.760444
53.275 9.296149
53.280 9.26625
53.285 9.220336
53.290 8.926435
53.295 8.503506
53.300 8.537673
53.305 8.569445
53.310 8.012895
53.315 7.696405
53.320 7.833097
53.325 8.121368
53.330 8.351166
53.335 7.874095
53.340 7.270184
53.345 7.311774
53.350 7.406703
53.355 7.445382
53.360 7.534092
53.365 7.844461
53.370 8.418911
53.375 8.964722
53.380 8.58438
53.385 8.637254
53.390 8.508541
53.395 8.190623
53.400 8.407601
53.405 8.425702
53.410 8.742288
53.415 9.164354
53.420 9.611989
53.425 9.831
53.430 9.699905
53.435 9.619729
53.440 9.756117
53.445 9.618534
53.450 9.259333
53.455 9.100114
53.460 9.069495
53.465 9.403507
53.470 9.294735
53.475 9.171695
53.480 9.115628
53.485 8.906091
53.490 9.013563
53.495 8.98641
53.500 8.795465
53.505 8.895367
53.510 9.062001
53.515 9.461084
53.520 9.658007
53.525 9.346268
53.530 9.420921
53.535 9.644032
53.540 9.74215
53.545 9.227076
53.550 8.957053
53.555 9.140542
53.560 9.132996
53.565 8.675625
53.570 8.808661
53.575 9.176136
53.580 9.476173
53.585 9.863124
53.590 9.855334
53.595 10.220523
53.600 10.327413
53.605 10.111089
53.610 10.041137
53.615 10.070941
53.620 9.763548
53.625 9.885256
53.630 9.862317
53.635 9.914462
53.640 9.677807
53.645 9.8419
53.650 9.946845
53.655 9.69159
53.660 9.380482
53.665 9.712296
53.670 9.612822
53.675 9.439305
53.680 9.141777
53.685 9.232446
53.690 9.578033
53.695 9.506607
53.700 9.602362
53.705 10.042617
53.710 10.1806
53.715 10.427321
53.720 10.440737
53.725 10.646159
53.730 10.503802
53.735 10.065792
53.740 9.751227
53.745 9.787307
53.750 9.652082
53.755 9.302546
53.760 9.400392
53.765 9.725278
53.770 9.531052
53.775 9.287233
53.780 8.854107
53.785 8.684393
53.790 8.601437
53.795 8.491805
53.800 8.925936
53.805 9.108496
53.810 9.377023
53.815 10.204401
53.820 10.542235
53.825 10.700353
53.830 10.270163
53.835 10.103586
53.840 10.00391
53.845 9.990746
53.850 9.410438
53.855 9.430581
53.860 9.290282
53.865 9.071934
53.870 9.079786
53.875 8.84237
53.880 8.559741
53.885 8.968014
53.890 9.162115
53.895 9.362382
53.900 9.703879
53.905 9.518505
53.910 10.029357
53.915 10.115865
53.920 9.672479
53.925 9.46461
53.930 9.749349
53.935 9.597309
53.940 9.925967
53.945 9.746828
53.950 9.662768
53.955 9.189699
53.960 8.489885
53.965 8.096512
53.970 8.047982
53.975 8.146726
53.980 8.126588
53.985 7.881018
53.990 8.117005
53.995 9.348946
54.000 9.300804
54.005 8.930567
54.010 8.629826
54.015 8.791915
54.020 9.187469
54.025 9.11161
54.030 9.036585
54.035 9.704712
54.040 10.683797
54.045 11.418564
54.050 11.877028
54.055 12.313034
54.060 12.50896
54.065 12.231082
54.070 11.878988
54.075 11.363503
54.080 11.231364
54.085 11.342514
54.090 10.833632
54.095 10.493743
54.100 10.543492
54.105 10.313223
54.110 10.069817
54.115 9.67689
54.120 9.256146
54.125 9.806864
54.130 9.507829
54.135 9.157516
54.140 9.201376
54.145 8.71395
54.150 8.86206
54.155 9.172139
54.160 8.920428
54.165 9.873434
54.170 10.430249
54.175 10.718384
54.180 11.249384
54.185 11.119276
54.190 11.04051
54.195 11.366122
54.200 11.316857
54.205 10.898553
54.210 10.937206
54.215 10.908051
54.220 11.19845
54.225 11.110175
54.230 11.059525
54.235 11.050037
54.240 11.222003
54.245 11.162389
54.250 10.972589
54.255 10.593532
54.260 10.548676
54.265 10.126871
54.270 10.434063
54.275 10.716119
54.280 10.663857
54.285 10.802542
54.290 10.831861
54.295 10.969236
54.300 10.964586
54.305 10.593114
54.310 10.582705
54.315 10.988612
54.320 11.234105
54.325 10.961452
54.330 10.787746
54.335 10.645269
54.340 10.728597
54.345 10.45409
54.350 10.336362
54.355 10.38221
54.360 10.549745
54.365 10.782227
54.370 10.577422
54.375 10.453253
54.380 10.371572
54.385 10.157832
54.390 9.959653
54.395 9.80959
54.400 9.587363
54.405 9.879385
54.410 10.117892
54.415 10.28808
54.420 10.659225
54.425 10.693587
54.430 11.030752
54.435 11.003844
54.440 10.88482
54.445 11.059041
54.450 10.719954
54.455 10.826337
54.460 11.051766
54.465 11.190017
54.470 11.894482
54.475 11.411657
54.480 10.668472
54.485 10.411307
54.490 9.717717
54.495 9.563839
54.500 9.397795
54.505 8.709618
54.510 9.125117
54.515 9.322093
54.520 9.660686
54.525 9.828568
54.530 9.830709
54.535 9.693939
54.540 9.258843
54.545 8.750638
54.550 9.085864
54.555 9.171535
54.560 9.355121
54.565 9.404497
54.570 9.672886
54.575 9.891847
54.580 10.307419
54.585 10.039097
54.590 10.006299
54.595 9.610305
54.600 9.204706
54.605 9.214426
54.610 9.114346
54.615 8.955673
54.620 9.047503
54.625 8.723885
54.630 9.142763
54.635 9.198267
54.640 9.113802
54.645 9.400966
54.650 9.564155
54.655 9.72397
54.660 10.090587
54.665 10.290661
54.670 10.198872
54.675 10.769438
54.680 10.852509
54.685 11.171548
54.690 10.862577
54.695 10.801491
54.700 10.722925
54.705 10.824193
54.710 10.477942
54.715 10.031316
54.720 9.732496
54.725 9.737793
54.730 9.262344
54.735 9.160809
54.740 9.295745
54.745 9.104193
54.750 9.260703
54.755 9.65575
54.760 10.334269
54.765 10.529268
54.770 10.703048
54.775 10.904328
54.780 10.870385
54.785 10.551459
54.790 10.480178
54.795 10.242284
54.800 10.614521
54.805 10.54111
54.810 10.276791
54.815 10.644959
54.820 10.524031
54.825 10.311901
54.830 10.134124
54.835 9.670216
54.840 9.483662
54.845 9.035359
54.850 9.258389
54.855 9.506775
54.860 9.525605
54.865 9.560698
54.870 9.961161
54.875 10.959058
54.880 11.601957
54.885 11.295517
54.890 11.12911
54.895 11.115102
54.900 10.85073
54.905 10.593106
54.910 9.853282
54.915 9.356812
54.920 9.564814
54.925 9.449173
54.930 9.98969
54.935 10.847603
54.940 10.642384
54.945 11.268261
54.950 11.637847
54.955 11.796935
54.960 11.854864
54.965 11.61647
54.970 11.119249
54.975 11.31365
54.980 11.062865
54.985 11.430264
54.990 11.073378
54.995 10.835536
55.000 10.723229
55.005 10.954956
55.010 11.062553
55.015 10.749942
55.020 10.696028
55.025 11.243583
55.030 11.255225
55.035 11.222897
55.040 11.270227
55.045 11.576847
55.050 11.837277
55.055 11.317546
55.060 11.176797
55.065 11.270947
55.070 11.669501
55.075 11.733205
55.080 11.553749
55.085 12.55004
55.090 13.083315
55.095 13.107744
55.100 13.225583
55.105 13.249251
55.110 13.057347
55.115 12.819957
55.120 11.531289
55.125 11.450853
55.130 11.491654
55.135 11.066599
55.140 10.668998
55.145 10.527143
55.150 10.345503
55.155 10.582996
55.160 10.591934
55.165 10.294804
55.170 10.236975
55.175 10.136168
55.180 10.24595
55.185 10.687111
55.190 10.578169
55.195 10.546323
55.200 10.794992
55.205 11.219027
55.210 11.539451
55.215 11.253118
55.220 10.70234
55.225 10.138165
55.230 9.760247
55.235 9.168142
55.240 9.132751
55.245 8.811677
55.250 9.016856
55.255 10.074678
55.260 10.512754
55.265 10.716094
55.270 10.822748
55.275 10.5734
55.280 10.753552
55.285 10.40298
55.290 10.031151
55.295 10.11617
55.300 10.449996
55.305 10.746893
55.310 10.824433
55.315 10.747282
55.320 11.317913
55.325 10.895863
55.330 10.671345
55.335 10.50215
55.340 10.720705
55.345 11.018619
55.350 11.128905
55.355 10.972667
55.360 11.103345
55.365 11.405716
55.370 11.041973
55.375 10.59888
55.380 10.209679
55.385 10.024528
55.390 10.565402
55.395 10.970679
55.400 10.681011
55.405 11.166006
55.410 11.279818
55.415 11.315494
55.420 10.85108
55.425 10.787418
55.430 10.938739
55.435 10.981704
55.440 10.943931
55.445 11.004414
55.450 11.25355
55.455 11.450575
55.460 11.024593
55.465 11.005912
55.470 11.203622
55.475 11.097101
55.480 11.014653
55.485 10.827988
55.490 10.832806
55.495 11.033497
55.500 11.163583
55.505 11.380362
55.510 11.809461
55.515 12.076635
55.520 12.480872
55.525 12.732497
55.530 12.309107
55.535 12.192925
55.540 12.201117
55.545 12.33337
55.550 12.589486
55.555 12.302889
55.560 12.304806
55.565 12.886351
55.570 12.879502
55.575 12.429852
55.580 11.648786
55.585 11.51759
55.590 11.64189
55.595 11.196715
55.600 10.852454
55.605 10.912427
55.610 11.581082
55.615 11.989909
55.620 12.351208
55.625 12.484724
55.630 12.735887
55.635 13.034637
55.640 13.301496
55.645 12.965968
55.650 12.873899
55.655 12.413445
55.660 12.459705
55.665 12.661656
55.670 12.445935
55.675 12.485705
55.680 12.651714
55.685 12.251959
55.690 12.106993
55.695 12.446155
55.700 12.416821
55.705 12.405685
55.710 11.934298
55.715 12.074416
55.720 12.378785
55.725 12.946399
55.730 12.840396
55.735 12.304862
55.740 12.213961
55.745 12.119806
55.750 12.023415
55.755 11.91665
55.760 11.66825
55.765 11.633331
55.770 11.645301
55.775 11.330777
55.780 10.949218
55.785 10.557372
55.790 10.40056
55.795 9.998682
55.800 9.566627
55.805 9.449001
55.810 10.093422
55.815 10.503433
55.820 10.851492
55.825 10.697004
55.830 11.242311
55.835 12.068524
55.840 12.613973
55.845 12.426724
55.850 13.15828
55.855 13.469237
55.860 13.492638
55.865 12.839154
55.870 12.172439
55.875 11.656197
55.880 11.167655
55.885 10.755944
55.890 10.586197
55.895 11.141492
55.900 11.430908
55.905 11.132251
55.910 11.494531
55.915 11.667315
55.920 11.415154
55.925 11.050984
55.930 11.092347
55.935 11.561184
55.940 11.994544
55.945 12.234159
55.950 12.10859
55.955 12.37326
55.960 12.509697
55.965 12.187756
55.970 12.409772
55.975 12.287472
55.980 12.190592
55.985 12.425568
55.990 12.419948
55.995 12.345791
56.000 12.18096
56.005 12.021931
56.010 12.26945
56.015 12.215052
56.020 12.219683
56.025 12.064301
56.030 12.106629
56.035 11.72525
56.040 11.755391
56.045 11.808867
56.050 11.598774
56.055 11.46399
56.060 11.420758
56.065 11.524616
56.070 11.598535
56.075 11.185912
56.080 10.937853
56.085 10.935957
56.090 10.884433
56.095 11.277962
56.100 11.047009
56.105 11.073966
56.110 11.295632
56.115 11.33462
56.120 11.307899
56.125 11.130188
56.130 10.680865
56.135 11.011642
56.140 11.067427
56.145 10.888532
56.150 10.89797
56.155 11.451018
56.160 12.006869
56.165 12.368378
56.170 12.219137
56.175 12.192685
56.180 12.059409
56.185 12.480144
56.190 12.547931
56.195 12.391505
56.200 12.550554
56.205 12.380867
56.210 12.49032
56.215 12.321774
56.220 12.236096
56.225 12.135971
56.230 12.221155
56.235 12.272465
56.240 12.725286
56.245 12.672575
56.250 12.771476
56.255 12.773779
56.260 12.812288
56.265 12.661561
56.270 12.2765
56.275 11.999817
56.280 12.053112
56.285 12.428405
56.290 12.300797
56.295 12.452318
56.300 12.493739
56.305 13.014112
56.310 13.45527
56.315 14.054346
56.320 13.828927
56.325 14.256321
56.330 13.680194
56.335 13.676644
56.340 13.322576
56.345 12.959435
56.350 12.707072
56.355 12.796326
56.360 12.54935
56.365 12.66019
56.370 12.572897
56.375 12.663747
56.380 12.334217
56.385 12.179843
56.390 11.966783
56.395 11.659657
56.400 11.615977
56.405 11.908595
56.410 11.798196
56.415 11.769295
56.420 11.669455
56.425 11.510032
56.430 12.04493
56.435 12.147232
56.440 12.318082
56.445 12.476198
56.450 12.57746
56.455 12.423693
56.460 12.441259
56.465 12.004436
56.470 11.962751
56.475 11.396735
56.480 11.404553
56.485 11.622959
56.490 11.796711
56.495 11.832606
56.500 11.99857
56.505 11.677796
56.510 11.728101
56.515 12.05105
56.520 12.336542
56.525 12.43935
56.530 12.56192
56.535 12.706197
56.540 13.007229
56.545 12.827597
56.550 12.661535
56.555 12.472477
56.560 11.904067
56.565 11.745246
56.570 12.005285
56.575 12.378465
56.580 12.901412
56.585 12.387856
56.590 12.487553
56.595 12.809793
56.600 12.680507
56.605 12.683025
56.610 12.141877
56.615 12.010405
56.620 12.468678
56.625 12.539145
56.630 12.860214
56.635 12.824328
56.640 12.415972
56.645 12.161852
56.650 12.058821
56.655 11.889932
56.660 11.856138
56.665 11.96106
56.670 12.739831
56.675 13.458528
56.680 13.776137
56.685 13.812256
56.690 13.606531
56.695 13.308375
56.700 12.922249
56.705 12.758721
56.710 12.757082
56.715 12.594435
56.720 12.859653
56.725 13.363754
56.730 13.293708
56.735 13.541583
56.740 13.227752
56.745 12.903179
56.750 12.766118
56.755 12.646668
56.760 12.297391
56.765 12.4583
56.770 11.803369
56.775 11.315194
56.780 11.406999
56.785 11.539998
56.790 11.712568
56.795 12.070486
56.800 12.352345
56.805 12.568848
56.810 12.779954
56.815 13.077531
56.820 13.145322
56.825 13.250496
56.830 13.04334
56.835 13.085631
56.840 13.211081
56.845 13.087864
56.850 13.255962
56.855 13.488459
56.860 13.443659
56.865 13.613087
56.870 13.629348
56.875 13.779949
56.880 13.850178
56.885 13.423961
56.890 12.803349
56.895 12.989791
56.900 12.871096
56.905 13.078449
56.910 13.109286
56.915 13.161728
56.920 13.082664
56.925 13.011458
56.930 12.540846
56.935 12.838781
56.940 12.548673
56.945 12.275834
56.950 12.406445
56.955 12.586278
56.960 12.992163
56.965 12.881089
56.970 12.500755
56.975 12.549701
56.980 12.67607
56.985 13.229545
56.990 12.970731
56.995 12.508437
57.000 12.689418
57.005 13.436608
57.010 13.794652
57.015 13.33448
57.020 12.313046
57.025 12.990932
57.030 13.717495
57.035 14.474954
57.040 14.389879
57.045 14.554855
57.050 15.598204
57.055 16.111704
57.060 16.019934
57.065 15.505362
57.070 15.087692
57.075 14.771187
57.080 14.787826
57.085 13.968652
57.090 13.665462
57.095 13.086104
57.100 13.196019
57.105 13.075171
57.110 13.355268
57.115 13.401484
57.120 13.471734
57.125 13.462415
57.130 13.635711
57.135 13.652815
57.140 13.471203
57.145 13.244427
57.150 13.603144
57.155 13.437654
57.160 13.310042
57.165 13.25571
57.170 13.283807
57.175 13.215681
57.180 13.091939
57.185 12.85866
57.190 13.619764
57.195 14.070234
57.200 13.933374
57.205 13.85889
57.210 14.062326
57.215 14.318992
57.220 14.112902
57.225 13.329615
57.230 13.24908
57.235 13.039735
57.240 12.799058
57.245 12.417822
57.250 11.949129
57.255 12.094153
57.260 12.54304
57.265 13.042295
57.270 13.371782
57.275 12.990282
57.280 13.043889
57.285 13.494241
57.290 13.370261
57.295 13.525053
57.300 13.531128
57.305 13.975604
57.310 14.57915
57.315 14.957638
57.320 15.157021
57.325 15.28096
57.330 15.311032
57.335 15.14125
57.340 14.989663
57.345 14.966028
57.350 15.421691
57.355 15.037895
57.360 14.776326
57.365 14.474022
57.370 14.286132
57.375 14.059373
57.380 14.049165
57.385 13.366077
57.390 13.071116
57.395 13.017276
57.400 13.401455
57.405 13.298512
57.410 13.366611
57.415 13.107777
57.420 13.038766
57.425 13.627674
57.430 13.664196
57.435 13.116225
57.440 13.441746
57.445 13.535477
57.450 13.382605
57.455 13.358743
57.460 13.358149
57.465 13.280851
57.470 13.392115
57.475 13.648188
57.480 13.465122
57.485 13.336926
57.490 13.304267
57.495 13.44259
57.500 13.704235
57.505 13.77746
57.510 13.572073
57.515 13.637936
57.520 13.8507
57.525 13.853519
57.530 13.692908
57.535 13.511415
57.540 13.374303
57.545 13.715987
57.550 14.089266
57.555 14.473168
57.560 14.629045
57.565 14.117032
57.570 14.184086
57.575 14.075407
57.580 13.539939
57.585 13.038655
57.590 12.638382
57.595 12.451035
57.600 12.985968
57.605 13.064085
57.610 13.169346
57.615 13.779166
57.620 14.011524
57.625 14.20232
57.630 14.548407
57.635 14.934408
57.640 14.992859
57.645 14.655792
57.650 14.087099
57.655 14.137891
57.660 13.746531
57.665 13.367645
57.670 13.123612
57.675 13.271955
57.680 13.003773
57.685 13.137238
57.690 12.994429
57.695 13.19423
57.700 13.163358
57.705 13.091122
57.710 13.346752
57.715 13.817563
57.720 14.349599
57.725 14.700748
57.730 14.91154
57.735 14.618393
57.740 14.696987
57.745 15.528464
57.750 15.5759
57.755 14.889223
57.760 14.516977
57.765 14.535717
57.770 14.255257
57.775 13.694969
57.780 13.360607
57.785 13.767279
57.790 14.143008
57.795 14.723945
57.800 15.010531
57.805 15.089781
57.810 14.969643
57.815 14.856604
57.820 14.644011
57.825 14.745045
57.830 15.384007
57.835 15.705494
57.840 16.330128
57.845 16.354641
57.850 16.496244
57.855 16.551336
57.860 16.241823
57.865 15.019543
57.870 14.854937
57.875 14.255076
57.880 14.23933
57.885 13.652765
57.890 13.597197
57.895 13.803334
57.900 14.161922
57.905 14.746581
57.910 15.281982
57.915 15.513686
57.920 15.344338
57.925 15.081543
57.930 15.278741
57.935 14.796885
57.940 13.910206
57.945 13.454808
57.950 13.487873
57.955 13.442364
57.960 13.187242
57.965 12.838109
57.970 12.739444
57.975 13.082648
57.980 13.518722
57.985 13.636357
57.990 14.047107
57.995 13.916944
58.000 13.354712
58.005 13.247964
58.010 13.547899
58.015 13.666388
58.020 13.606645
58.025 13.588942
58.030 14.156246
58.035 14.641046
58.040 14.735422
58.045 14.300342
58.050 14.01684
58.055 14.276197
58.060 14.084802
58.065 13.520378
58.070 13.760385
58.075 13.932487
58.080 14.200038
58.085 14.163484
58.090 13.434913
58.095 13.610302
58.100 14.179249
58.105 13.969706
58.110 13.970254
58.115 13.684306
58.120 13.686863
58.125 14.01446
58.130 14.032497
58.135 14.025033
58.140 13.67935
58.145 13.759773
58.150 13.930533
58.155 14.21701
58.160 14.582164
58.165 14.545795
58.170 14.294887
58.175 14.013477
58.180 13.611206
58.185 13.180946
58.190 12.552155
58.195 12.62824
58.200 12.325526
58.205 12.457232
58.210 12.92665
58.215 13.4351
58.220 13.754096
58.225 13.950148
58.230 13.96394
58.235 14.407075
58.240 14.645377
58.245 14.838663
58.250 14.948057
58.255 14.838792
58.260 14.997538
58.265 15.005436
58.270 14.882668
58.275 14.577156
58.280 14.163092
58.285 13.7691
58.290 14.082409
58.295 14.196901
58.300 14.010933
58.305 14.100685
58.310 14.211276
58.315 14.068957
58.320 14.140464
58.325 14.103114
58.330 13.699227
58.335 13.644716
58.340 13.579
58.345 13.532535
58.350 13.602668
58.355 14.014128
58.360 13.949718
58.365 14.178796
58.370 14.208019
58.375 14.597234
58.380 14.793522
58.385 15.840583
58.390 15.556396
58.395 15.550405
58.400 15.666239
58.405 15.31335
58.410 15.137177
58.415 14.693778
58.420 13.992043
58.425 13.947964
58.430 13.408787
58.435 13.470745
58.440 14.207645
58.445 14.921418
58.450 15.143856
58.455 14.620963
58.460 14.530364
58.465 15.187378
58.470 15.232354
58.475 14.513389
58.480 13.824016
58.485 14.101336
58.490 14.314502
58.495 14.479988
58.500 14.839025
58.505 14.63528
58.510 14.672763
