!@!!GADDS PLOTSO FILE: Chi integration type
!@!!Title/SampleName: map-6f
!@!!Comment: ?
!@!!User: Bruker Instrument Administrator
!@!!Site: University of Illinois Chicago
!@!!Frame: map-6f_01_000.gfrm
!@!!Wavelengths    1.54184   1.54056   1.54439
!@!!Frame angles: 2Theta: 63.000 Omega: 50.000 Phi: 0.000 Chi: 90.000
!@!!Integration range: 2Theta: 53.000 to 73.000  Gamma: -105.000 to -75.000
!@!!Integration method: bin normalized
!@!N
!@!SS
!@!M
!@!L 0.0 0.0 0.0 0.0
!@!XDegrees
!@!YCounts
53.000 10.524456
53.005 10.694596
53.010 10.713803
53.015 10.832838
53.020 10.690395
53.025 11.158028
53.030 10.915702
53.035 10.616364
53.040 10.68526
53.045 10.777165
53.050 10.764589
53.055 10.080856
53.060 9.62411
53.065 9.65124
53.070 9.766432
53.075 9.635445
53.080 9.878008
53.085 9.569592
53.090 9.831831
53.095 10.015899
53.100 10.267101
53.105 10.362317
53.110 10.451966
53.115 10.803218
53.120 11.24047
53.125 11.021568
53.130 10.830454
53.135 10.814453
53.140 10.909531
53.145 10.639844
53.150 10.338758
53.155 10.3264
53.160 10.5616
53.165 10.652143
53.170 10.293391
53.175 9.896956
53.180 9.74628
53.185 9.614763
53.190 9.47047
53.195 9.49061
53.200 9.728321
53.205 10.483232
53.210 10.50681
53.215 10.748813
53.220 11.800197
53.225 12.183407
53.230 11.780818
53.235 11.207763
53.240 10.658858
53.245 10.660851
53.250 10.364448
53.255 9.760338
53.260 9.646865
53.265 9.814854
53.270 9.782071
53.275 10.187122
53.280 10.216079
53.285 9.81581
53.290 10.389525
53.295 10.478365
53.300 10.323748
53.305 10.089657
53.310 9.875767
53.315 9.706956
53.320 9.66631
53.325 9.242077
53.330 9.300138
53.335 9.765726
53.340 10.17582
53.345 10.502683
53.350 11.265041
53.355 11.377414
53.360 11.456636
53.365 12.10856
53.370 12.103732
53.375 11.940754
53.380 11.459727
53.385 10.723045
53.390 10.816891
53.395 10.776958
53.400 10.477883
53.405 10.526474
53.410 10.438663
53.415 10.795971
53.420 10.695382
53.425 10.378437
53.430 10.102536
53.435 9.954801
53.440 10.188573
53.445 10.22078
53.450 9.989784
53.455 10.160786
53.460 9.803171
53.465 9.854377
53.470 9.898662
53.475 9.782262
53.480 10.153725
53.485 10.562163
53.490 11.596088
53.495 12.579606
53.500 12.794877
53.505 12.899283
53.510 13.034224
53.515 13.153896
53.520 13.186939
53.525 12.42728
53.530 12.283978
53.535 11.757448
53.540 11.472977
53.545 11.388545
53.550 11.381109
53.555 11.516865
53.560 11.274
53.565 11.063391
53.570 11.445979
53.575 11.547333
53.580 11.342228
53.585 11.18512
53.590 10.947672
53.595 10.823097
53.600 10.562551
53.605 10.429064
53.610 10.6779
53.615 10.310843
53.620 9.929298
53.625 10.035175
53.630 10.541442
53.635 10.853933
53.640 10.900279
53.645 10.868955
53.650 11.372633
53.655 11.589612
53.660 11.547062
53.665 11.869197
53.670 12.311604
53.675 12.131622
53.680 11.903402
53.685 11.326617
53.690 11.413352
53.695 11.185041
53.700 10.838417
53.705 10.234815
53.710 10.634903
53.715 10.910611
53.720 11.252577
53.725 11.544327
53.730 11.354715
53.735 11.317755
53.740 11.422161
53.745 11.191391
53.750 11.166911
53.755 10.565454
53.760 10.116003
53.765 10.19922
53.770 10.089245
53.775 10.101536
53.780 10.068001
53.785 10.291628
53.790 10.559621
53.795 10.312552
53.800 10.364751
53.805 10.725949
53.810 10.556676
53.815 11.104741
53.820 10.931338
53.825 11.467015
53.830 11.807179
53.835 11.482159
53.840 11.436721
53.845 11.177332
53.850 10.741944
53.855 10.909055
53.860 11.109948
53.865 11.417717
53.870 11.586212
53.875 11.254428
53.880 11.37008
53.885 11.066194
53.890 10.401522
53.895 9.848691
53.900 9.487196
53.905 9.572118
53.910 9.917472
53.915 10.178032
53.920 10.796599
53.925 11.365374
53.930 11.808479
53.935 11.817095
53.940 11.909149
53.945 11.357496
53.950 10.954091
53.955 10.911517
53.960 10.929128
53.965 10.650248
53.970 10.738433
53.975 11.313389
53.980 11.681108
53.985 11.70001
53.990 11.947298
53.995 11.885827
54.000 11.943892
54.005 11.638059
54.010 11.36635
54.015 11.815513
54.020 11.964199
54.025 12.026609
54.030 12.13811
54.035 12.225246
54.040 12.269836
54.045 11.946034
54.050 11.40856
54.055 10.825664
54.060 10.430677
54.065 10.285498
54.070 10.212518
54.075 10.162077
54.080 10.682124
54.085 10.857198
54.090 11.07338
54.095 11.018043
54.100 10.717693
54.105 10.536046
54.110 10.80988
54.115 11.064311
54.120 11.200263
54.125 11.242846
54.130 11.514742
54.135 11.699384
54.140 11.953152
54.145 11.256453
54.150 10.741549
54.155 10.951033
54.160 10.688294
54.165 10.377899
54.170 10.822451
54.175 11.290538
54.180 11.847299
54.185 12.128381
54.190 12.212204
54.195 12.221107
54.200 12.681002
54.205 12.084922
54.210 11.801032
54.215 11.541799
54.220 11.055295
54.225 11.041285
54.230 11.38435
54.235 11.437077
54.240 11.699425
54.245 11.958375
54.250 11.759558
54.255 11.74739
54.260 11.857507
54.265 11.772016
54.270 11.391895
54.275 11.077121
54.280 11.095786
54.285 11.224115
54.290 11.302009
54.295 11.280319
54.300 10.700387
54.305 10.750039
54.310 10.544311
54.315 10.36077
54.320 10.876185
54.325 10.679589
54.330 10.389033
54.335 10.717691
54.340 10.865715
54.345 10.859773
54.350 10.705599
54.355 10.416412
54.360 10.8398
54.365 11.082603
54.370 10.947906
54.375 11.622786
54.380 11.825167
54.385 12.37264
54.390 12.502717
54.395 12.184838
54.400 12.152993
54.405 12.232243
54.410 11.755533
54.415 11.726339
54.420 11.709522
54.425 11.973114
54.430 11.581599
54.435 11.897022
54.440 11.844036
54.445 11.94937
54.450 11.61414
54.455 11.063333
54.460 10.859894
54.465 11.241823
54.470 11.032048
54.475 10.45181
54.480 10.647611
54.485 10.996799
54.490 11.618694
54.495 12.219842
54.500 12.286639
54.505 12.741753
54.510 13.373549
54.515 13.088042
54.520 12.840385
54.525 12.305561
54.530 12.243899
54.535 12.362674
54.540 11.876382
54.545 12.05851
54.550 12.611174
54.555 12.558884
54.560 12.474852
54.565 12.318584
54.570 12.323145
54.575 12.112261
54.580 11.698295
54.585 11.407977
54.590 11.763371
54.595 12.197034
54.600 12.58742
54.605 12.18656
54.610 12.293118
54.615 12.123663
54.620 12.179657
54.625 11.897971
54.630 11.419261
54.635 10.996354
54.640 10.900353
54.645 10.896885
54.650 11.012363
54.655 11.195884
54.660 11.582336
54.665 11.64032
54.670 11.741592
54.675 12.355982
54.680 12.081157
54.685 11.750401
54.690 11.432707
54.695 11.27953
54.700 11.287897
54.705 11.314344
54.710 10.922773
54.715 11.240051
54.720 11.181296
54.725 11.361398
54.730 11.27936
54.735 11.431549
54.740 11.570951
54.745 11.64091
54.750 11.827317
54.755 11.346717
54.760 10.979099
54.765 10.741383
54.770 10.913832
54.775 10.945319
54.780 11.579041
54.785 11.7015
54.790 11.820029
54.795 12.022129
54.800 12.221825
54.805 12.135607
54.810 12.265299
54.815 12.011809
54.820 12.077724
54.825 12.343858
54.830 12.305918
54.835 12.419686
54.840 12.492377
54.845 12.503146
54.850 12.735959
54.855 12.871592
54.860 12.992124
54.865 13.250883
54.870 13.082273
54.875 12.91633
54.880 12.10904
54.885 12.012811
54.890 11.882832
54.895 11.557203
54.900 11.155273
54.905 11.077194
54.910 11.382202
54.915 12.39616
54.920 11.986423
54.925 12.042216
54.930 12.153927
54.935 12.381125
54.940 12.277878
54.945 11.882867
54.950 11.796657
54.955 12.229966
54.960 12.338913
54.965 12.406889
54.970 12.098391
54.975 12.413295
54.980 12.729781
54.985 12.936883
54.990 12.960048
54.995 12.778243
55.000 13.003119
55.005 13.03997
55.010 12.95695
55.015 12.67287
55.020 12.518524
55.025 12.574173
55.030 12.955269
55.035 12.656213
55.040 12.531021
55.045 12.695582
55.050 13.048226
55.055 13.032521
55.060 12.792241
55.065 12.280434
55.070 12.649865
55.075 13.121893
55.080 12.945718
55.085 12.026378
55.090 11.5519
55.095 11.516818
55.100 11.600137
55.105 11.367497
55.110 10.879365
55.115 11.056661
55.120 11.60888
55.125 11.791684
55.130 12.106969
55.135 12.46447
55.140 12.593477
55.145 12.441231
55.150 12.197433
55.155 11.957362
55.160 12.194515
55.165 11.699022
55.170 11.803067
55.175 11.955092
55.180 12.3113
55.185 12.41808
55.190 12.46172
55.195 12.408626
55.200 12.622169
55.205 12.265406
55.210 12.177818
55.215 12.576365
55.220 12.405891
55.225 11.689945
55.230 11.285755
55.235 11.212767
55.240 11.396247
55.245 11.723082
55.250 11.28751
55.255 11.504167
55.260 12.232653
55.265 12.645779
55.270 12.746796
55.275 12.294703
55.280 12.29003
55.285 12.567753
55.290 12.321928
55.295 12.252264
55.300 11.94942
55.305 12.624265
55.310 13.260438
55.315 12.863043
55.320 13.163294
55.325 13.346136
55.330 13.286602
55.335 13.281946
55.340 12.812629
55.345 12.262424
55.350 12.023286
55.355 11.318391
55.360 11.583385
55.365 11.669774
55.370 11.436919
55.375 11.504617
55.380 11.615133
55.385 12.050674
55.390 12.520394
55.395 12.535698
55.400 12.540329
55.405 12.374815
55.410 12.590018
55.415 12.784585
55.420 12.78485
55.425 12.94074
55.430 13.378377
55.435 13.760665
55.440 13.62007
55.445 13.176516
55.450 13.139223
55.455 13.132908
55.460 12.926894
55.465 12.675738
55.470 12.56842
55.475 13.156012
55.480 13.287167
55.485 12.749525
55.490 12.786729
55.495 12.912491
55.500 12.407784
55.505 12.275562
55.510 12.389495
55.515 12.476713
55.520 12.672083
55.525 12.620875
55.530 11.544362
55.535 12.040433
55.540 11.525646
55.545 10.994595
55.550 11.169993
55.555 11.57048
55.560 11.848028
55.565 12.432219
55.570 12.284034
55.575 12.76925
55.580 13.232427
55.585 13.166022
55.590 12.556764
55.595 12.174918
55.600 11.542476
55.605 11.895036
55.610 11.665006
55.615 11.147427
55.620 10.864811
55.625 11.079283
55.630 11.692127
55.635 12.141561
55.640 12.053833
55.645 12.225314
55.650 12.316581
55.655 12.280107
55.660 11.813137
55.665 11.941473
55.670 11.659011
55.675 11.505572
55.680 11.272993
55.685 11.090216
55.690 10.853085
55.695 11.025268
55.700 11.203723
55.705 11.39925
55.710 11.593508
55.715 11.744748
55.720 11.97313
55.725 12.667884
55.730 12.662923
55.735 12.227143
55.740 12.160141
55.745 12.035902
55.750 11.87671
55.755 12.1935
55.760 11.876929
55.765 12.531041
55.770 12.806211
55.775 13.256413
55.780 13.598276
55.785 13.900104
55.790 13.608863
55.795 13.282362
55.800 12.448888
55.805 12.402528
55.810 12.151887
55.815 11.830719
55.820 12.077357
55.825 12.221838
55.830 12.496043
55.835 13.579414
55.840 13.76587
55.845 13.439887
55.850 13.416318
55.855 13.142241
55.860 13.267296
55.865 13.340538
55.870 11.889595
55.875 11.968052
55.880 12.336295
55.885 12.246928
55.890 12.360916
55.895 12.327519
55.900 12.474331
55.905 12.788666
55.910 12.283197
55.915 12.046888
55.920 12.330979
55.925 11.945113
55.930 11.747396
55.935 12.41263
55.940 12.994514
55.945 13.735952
55.950 14.028637
55.955 14.234499
55.960 14.487654
55.965 14.582463
55.970 13.940609
55.975 13.952771
55.980 13.753019
55.985 13.601213
55.990 13.152276
55.995 13.316545
56.000 12.738217
56.005 12.525573
56.010 12.402841
56.015 12.385187
56.020 12.431363
56.025 12.540329
56.030 12.368938
56.035 12.792093
56.040 12.823764
56.045 12.746168
56.050 12.579627
56.055 12.544234
56.060 12.224233
56.065 12.569304
56.070 12.580455
56.075 12.65954
56.080 12.929182
56.085 13.31707
56.090 13.294801
56.095 13.587308
56.100 13.151214
56.105 13.104033
56.110 12.685603
56.115 12.113738
56.120 12.071038
56.125 12.063888
56.130 12.083992
56.135 12.271268
56.140 12.286294
56.145 12.77559
56.150 13.735347
56.155 13.947486
56.160 13.970217
56.165 13.920422
56.170 13.80223
56.175 13.81135
56.180 13.843214
56.185 13.195425
56.190 13.233345
56.195 13.276076
56.200 13.416257
56.205 13.645003
56.210 13.335191
56.215 13.315631
56.220 13.112632
56.225 13.230848
56.230 13.647669
56.235 13.761503
56.240 13.505225
56.245 13.749841
56.250 13.617668
56.255 13.18102
56.260 12.705832
56.265 12.412952
56.270 12.448359
56.275 12.267689
56.280 12.501341
56.285 13.141768
56.290 13.463703
56.295 13.8453
56.300 14.075824
56.305 14.462381
56.310 14.492367
56.315 14.022643
56.320 14.164689
56.325 14.364355
56.330 14.297526
56.335 13.403525
56.340 13.204644
56.345 13.712408
56.350 13.928554
56.355 13.625872
56.360 13.579762
56.365 13.71616
56.370 13.939503
56.375 13.352781
56.380 12.819282
56.385 12.516747
56.390 12.206584
56.395 12.101458
56.400 12.3256
56.405 12.925789
56.410 13.348048
56.415 13.531647
56.420 13.58548
56.425 13.506266
56.430 13.22471
56.435 12.662553
56.440 12.227069
56.445 11.910021
56.450 12.087214
56.455 12.177316
56.460 12.629487
56.465 12.56871
56.470 13.05594
56.475 13.701836
56.480 14.485919
56.485 14.340252
56.490 14.37848
56.495 13.641383
56.500 13.763182
56.505 13.063491
56.510 12.410382
56.515 11.513412
56.520 11.602759
56.525 11.614533
56.530 11.752107
56.535 11.598593
56.540 11.68469
56.545 11.887915
56.550 12.578403
56.555 12.81824
56.560 12.703625
56.565 12.834424
56.570 12.926749
56.575 13.358517
56.580 13.248418
56.585 13.303096
56.590 13.325067
56.595 13.394941
56.600 13.728861
56.605 13.983396
56.610 13.855724
56.615 13.838674
56.620 13.302698
56.625 13.240661
56.630 13.027083
56.635 12.656325
56.640 12.089498
56.645 12.141728
56.650 12.342162
56.655 12.452458
56.660 12.686579
56.665 13.484321
56.670 13.970882
56.675 14.607232
56.680 14.330546
56.685 14.479941
56.690 14.797195
56.695 15.012282
56.700 14.948982
56.705 15.230963
56.710 15.669408
56.715 16.196276
56.720 16.561956
56.725 16.614031
56.730 16.322367
56.735 16.138494
56.740 15.988776
56.745 15.565322
56.750 15.296862
56.755 15.156466
56.760 15.225345
56.765 15.222419
56.770 15.425802
56.775 15.504299
56.780 15.333768
56.785 15.382031
56.790 15.234498
56.795 14.900111
56.800 14.779506
56.805 14.626388
56.810 14.23243
56.815 14.221307
56.820 13.865313
56.825 13.762667
56.830 14.051499
56.835 14.560909
56.840 15.259991
56.845 15.169372
56.850 14.79512
56.855 14.923648
56.860 14.411242
56.865 13.913976
56.870 13.740681
56.875 13.594398
56.880 14.052557
56.885 14.112991
56.890 14.049098
56.895 14.558983
56.900 14.5784
56.905 13.951608
56.910 13.111383
56.915 12.862088
56.920 12.867469
56.925 12.804001
56.930 12.987924
56.935 13.099647
56.940 13.534225
56.945 13.897195
56.950 14.246899
56.955 14.872741
56.960 14.701251
56.965 14.465005
56.970 14.377936
56.975 14.224533
56.980 13.924943
56.985 13.692081
56.990 13.793592
56.995 13.774662
57.000 13.907754
57.005 13.775211
57.010 13.751721
57.015 13.82717
57.020 13.852584
57.025 13.934084
57.030 13.712419
57.035 14.103527
57.040 13.852959
57.045 13.649298
57.050 14.063121
57.055 14.098974
57.060 13.951548
57.065 14.010366
57.070 13.2792
57.075 13.80073
57.080 14.0498
57.085 13.590923
57.090 13.716285
57.095 13.618979
57.100 13.847733
57.105 13.930885
57.110 14.007229
57.115 14.163327
57.120 14.476412
57.125 14.14775
57.130 14.013022
57.135 13.980341
57.140 14.367103
57.145 14.7484
57.150 13.95018
57.155 13.848996
57.160 13.778777
57.165 14.142095
57.170 13.995729
57.175 13.643594
57.180 13.425442
57.185 13.526399
57.190 13.219572
57.195 13.33007
57.200 13.912056
57.205 13.968957
57.210 13.805228
57.215 13.496887
57.220 14.057292
57.225 14.31461
57.230 14.183185
57.235 13.649509
57.240 13.311211
57.245 13.818855
57.250 14.246596
57.255 14.121146
57.260 14.2689
57.265 14.436873
57.270 14.798698
57.275 15.253191
57.280 15.299684
57.285 15.411038
57.290 15.201064
57.295 15.233157
57.300 15.095415
57.305 14.940706
57.310 14.516912
57.315 14.652989
57.320 15.182619
57.325 15.822871
57.330 15.452933
57.335 15.435455
57.340 15.662455
57.345 16.214497
57.350 16.28561
57.355 15.639878
57.360 15.11728
57.365 15.645063
57.370 15.874544
57.375 15.552477
57.380 15.243417
57.385 14.803628
57.390 15.117895
57.395 15.509274
57.400 15.541826
57.405 15.4544
57.410 15.409292
57.415 15.537896
57.420 15.545319
57.425 15.093148
57.430 14.738815
57.435 14.330334
57.440 13.829346
57.445 13.590176
57.450 13.451347
57.455 13.461392
57.460 14.388891
57.465 14.76535
57.470 14.943027
57.475 15.460077
57.480 15.940947
57.485 15.852521
57.490 15.723955
57.495 14.974671
57.500 14.901971
57.505 15.057151
57.510 15.125471
57.515 15.530758
57.520 15.48837
57.525 14.772677
57.530 14.923617
57.535 14.468806
57.540 14.381021
57.545 14.178542
57.550 13.752146
57.555 13.921231
57.560 14.603978
57.565 14.550041
57.570 14.901709
57.575 14.795447
57.580 14.428555
57.585 14.358626
57.590 14.829926
57.595 14.990952
57.600 15.863379
57.605 16.240803
57.610 16.834797
57.615 17.047552
57.620 16.965689
57.625 16.599302
57.630 16.054182
57.635 15.421643
57.640 14.649194
57.645 13.93832
57.650 13.618671
57.655 14.285344
57.660 14.556583
57.665 14.614179
57.670 14.161209
57.675 14.59001
57.680 15.189575
57.685 15.378145
57.690 15.379238
57.695 15.774007
57.700 15.82214
57.705 16.297297
57.710 15.911153
57.715 15.844493
57.720 15.714917
57.725 15.151102
57.730 15.430284
57.735 15.142213
57.740 15.285583
57.745 16.082827
57.750 16.45624
57.755 16.229385
57.760 16.263973
57.765 16.165064
57.770 16.32571
57.775 15.910541
57.780 15.655917
57.785 15.291904
57.790 15.566923
57.795 15.309016
57.800 14.615889
57.805 14.543348
57.810 14.757371
57.815 14.463676
57.820 14.988295
57.825 15.096716
57.830 14.884164
57.835 15.25695
57.840 15.800261
57.845 16.204788
57.850 16.431076
57.855 16.204323
57.860 16.568821
57.865 17.13792
57.870 17.348919
57.875 17.293612
57.880 16.716988
57.885 16.739847
57.890 16.636724
57.895 16.167698
57.900 15.39306
57.905 14.655605
57.910 14.517838
57.915 14.627001
57.920 14.740635
57.925 14.642539
57.930 15.225303
57.935 15.847616
57.940 15.892402
57.945 15.79226
57.950 16.092731
57.955 15.983938
57.960 16.087835
57.965 15.782598
57.970 16.082684
57.975 16.167765
57.980 16.291386
57.985 16.17065
57.990 15.957768
57.995 15.435669
58.000 15.627813
58.005 15.964697
58.010 15.962391
58.015 15.67804
58.020 15.659373
58.025 16.053455
58.030 16.714968
58.035 16.933842
58.040 16.521799
58.045 16.598131
58.050 16.836706
58.055 17.049938
58.060 16.956293
58.065 16.761723
58.070 16.67214
58.075 16.774971
58.080 16.667122
58.085 16.19627
58.090 15.742565
58.095 15.674283
58.100 15.511797
58.105 15.359762
58.110 15.604227
58.115 16.23185
58.120 16.89467
58.125 17.032179
58.130 17.592892
58.135 18.036472
58.140 17.909885
58.145 17.364513
58.150 16.979042
58.155 16.978735
58.160 17.079609
58.165 16.778965
58.170 16.301191
58.175 16.280453
58.180 16.678495
58.185 17.105545
58.190 16.960346
58.195 17.028299
58.200 16.972126
58.205 17.030275
58.210 17.073446
58.215 17.372591
58.220 17.336964
58.225 17.369814
58.230 17.474817
58.235 18.082829
58.240 18.457644
58.245 18.630703
58.250 18.570507
58.255 18.270618
58.260 18.093809
58.265 17.964218
58.270 18.069902
58.275 18.460207
58.280 18.452311
58.285 18.62661
58.290 19.076002
58.295 19.157425
58.300 19.16424
58.305 18.936581
58.310 18.899792
58.315 18.892212
58.320 18.361275
58.325 18.592108
58.330 19.255253
58.335 19.500326
58.340 19.627205
58.345 20.203787
58.350 20.500246
58.355 21.174841
58.360 21.653917
58.365 21.8424
58.370 21.914791
58.375 22.331482
58.380 22.426464
58.385 22.112631
58.390 21.747259
58.395 21.272873
58.400 21.262383
58.405 21.763395
58.410 22.076696
58.415 22.38883
58.420 23.395859
58.425 24.671038
58.430 25.17655
58.435 24.882191
58.440 24.479895
58.445 24.400761
58.450 24.479536
58.455 24.940151
