!@!!GADDS PLOTSO FILE: Chi integration type
!@!!Title/SampleName: map-ba
!@!!Comment: ?
!@!!User: Bruker Instrument Administrator
!@!!Site: University of Illinois Chicago
!@!!Frame: map-ba_01_000.gfrm
!@!!Wavelengths    1.54184   1.54056   1.54439
!@!!Frame angles: 2Theta: 63.000 Omega: 50.000 Phi: 0.000 Chi: 90.000
!@!!Integration range: 2Theta: 53.000 to 73.000  Gamma: -105.000 to -75.000
!@!!Integration method: bin normalized
!@!N
!@!SS
!@!M
!@!L 0.0 0.0 0.0 0.0
!@!XDegrees
!@!YCounts
53.000 7.795301
53.005 7.704607
53.010 7.381577
53.015 7.173173
53.020 7.265066
53.025 7.563391
53.030 7.994373
53.035 7.710736
53.040 7.940459
53.045 8.135859
53.050 8.622468
53.055 8.347466
53.060 8.115967
53.065 7.803371
53.070 7.988075
53.075 7.686305
53.080 7.703861
53.085 7.629347
53.090 7.547188
53.095 7.263138
53.100 7.088425
53.105 6.999227
53.110 7.388063
53.115 7.213853
53.120 7.353213
53.125 7.309964
53.130 7.328314
53.135 7.473388
53.140 7.235411
53.145 7.361537
53.150 7.654925
53.155 7.503815
53.160 7.81952
53.165 8.327147
53.170 8.521998
53.175 8.666114
53.180 8.264518
53.185 8.218902
53.190 8.432131
53.195 8.466174
53.200 8.171944
53.205 7.819086
53.210 7.750606
53.215 7.524304
53.220 7.194173
53.225 7.315572
53.230 6.905438
53.235 6.846377
53.240 7.095193
53.245 7.100282
53.250 7.533493
53.255 7.605917
53.260 7.37343
53.265 8.018653
53.270 8.21677
53.275 8.193686
53.280 8.101171
53.285 7.796485
53.290 7.544104
53.295 7.388534
53.300 7.397656
53.305 7.245275
53.310 7.132825
53.315 7.196724
53.320 7.414788
53.325 7.620883
53.330 7.516502
53.335 7.11866
53.340 7.578903
53.345 7.442047
53.350 7.584475
53.355 7.586482
53.360 7.666831
53.365 7.888068
53.370 7.809655
53.375 7.704357
53.380 8.099025
53.385 8.206281
53.390 8.212082
53.395 7.943749
53.400 8.041844
53.405 8.179017
53.410 7.898314
53.415 7.763854
53.420 7.613213
53.425 7.650691
53.430 7.642574
53.435 7.60814
53.440 7.960005
53.445 8.126824
53.450 8.096807
53.455 8.231321
53.460 8.140809
53.465 8.345561
53.470 8.308299
53.475 8.17008
53.480 8.408017
53.485 8.18942
53.490 8.336568
53.495 8.38
53.500 8.293599
53.505 8.470636
53.510 8.366666
53.515 7.97164
53.520 8.435578
53.525 8.083422
53.530 7.802158
53.535 7.416444
53.540 7.374626
53.545 7.818931
53.550 8.027933
53.555 7.700227
53.560 7.798337
53.565 8.068607
53.570 7.972644
53.575 7.40894
53.580 6.993001
53.585 6.802752
53.590 7.097859
53.595 7.3212
53.600 7.643214
53.605 7.756078
53.610 8.494773
53.615 8.970484
53.620 9.122152
53.625 9.002551
53.630 8.435891
53.635 8.386054
53.640 8.65534
53.645 8.29261
53.650 8.073568
53.655 7.95846
53.660 8.254269
53.665 8.940642
53.670 8.861548
53.675 8.78596
53.680 8.365132
53.685 8.338787
53.690 8.686856
53.695 8.74827
53.700 8.640033
53.705 8.716687
53.710 8.766175
53.715 8.710375
53.720 8.618164
53.725 7.860932
53.730 7.533042
53.735 7.520689
53.740 7.153966
53.745 7.118603
53.750 7.230853
53.755 7.158509
53.760 7.286763
53.765 6.942158
53.770 6.988353
53.775 7.925852
53.780 8.222161
53.785 8.272562
53.790 8.704251
53.795 9.049001
53.800 9.257584
53.805 9.044322
53.810 8.649879
53.815 8.94342
53.820 8.998929
53.825 9.002217
53.830 8.995115
53.835 8.800091
53.840 8.606848
53.845 8.136608
53.850 8.019337
53.855 7.723038
53.860 7.37128
53.865 7.133762
53.870 7.077914
53.875 7.487941
53.880 7.948328
53.885 8.253282
53.890 8.55263
53.895 9.179063
53.900 9.677495
53.905 9.718415
53.910 9.022189
53.915 8.779114
53.920 8.485257
53.925 7.833692
53.930 7.454322
53.935 7.244622
53.940 7.544699
53.945 7.488036
53.950 7.266091
53.955 7.181787
53.960 7.433843
53.965 7.595469
53.970 7.436772
53.975 6.991203
53.980 7.021191
53.985 7.157045
53.990 7.238129
53.995 7.444136
54.000 7.326991
54.005 7.777002
54.010 8.297955
54.015 8.546906
54.020 8.838028
54.025 8.861814
54.030 8.678426
54.035 8.564686
54.040 8.002553
54.045 7.954212
54.050 7.670853
54.055 7.518481
54.060 7.802016
54.065 7.989318
54.070 8.250691
54.075 8.498588
54.080 8.71977
54.085 8.802606
54.090 8.656306
54.095 8.304873
54.100 8.702992
54.105 9.078132
54.110 9.030107
54.115 8.806819
54.120 8.908888
54.125 8.910254
54.130 9.110454
54.135 8.882715
54.140 8.948153
54.145 8.911808
54.150 9.045022
54.155 8.819267
54.160 8.668127
54.165 8.197563
54.170 8.06066
54.175 7.650436
54.180 7.752562
54.185 7.917522
54.190 8.160108
54.195 8.194944
54.200 8.458917
54.205 8.397953
54.210 8.781503
54.215 8.500686
54.220 8.321684
54.225 8.455534
54.230 8.735251
54.235 8.957677
54.240 9.042191
54.245 8.973705
54.250 9.331134
54.255 9.928021
54.260 10.157194
54.265 10.17447
54.270 9.962474
54.275 9.906381
54.280 9.478823
54.285 8.852596
54.290 8.407479
54.295 8.183276
54.300 8.109377
54.305 8.22174
54.310 8.268383
54.315 8.576258
54.320 8.257054
54.325 8.454083
54.330 8.908952
54.335 9.342143
54.340 9.071551
54.345 8.76606
54.350 9.021637
54.355 9.641907
54.360 9.443914
54.365 8.837502
54.370 8.630605
54.375 8.620739
54.380 8.730474
54.385 8.629617
54.390 9.063848
54.395 9.331368
54.400 9.53018
54.405 9.839798
54.410 10.22356
54.415 10.599307
54.420 10.338539
54.425 9.814459
54.430 9.46882
54.435 9.577009
54.440 9.508434
54.445 9.58699
54.450 9.521085
54.455 9.540733
54.460 9.486506
54.465 9.496298
54.470 8.674941
54.475 8.522014
54.480 8.379836
54.485 8.22784
54.490 8.476986
54.495 8.471734
54.500 8.428963
54.505 9.373693
54.510 9.161056
54.515 9.479417
54.520 9.776453
54.525 9.570876
54.530 9.882415
54.535 9.872211
54.540 9.409649
54.545 9.281831
54.550 9.187798
54.555 9.303406
54.560 9.736619
54.565 9.767157
54.570 9.706653
54.575 9.716738
54.580 9.75198
54.585 10.118842
54.590 9.631722
54.595 9.066802
54.600 8.757871
54.605 8.314761
54.610 8.27191
54.615 8.062775
54.620 8.141027
54.625 8.380479
54.630 8.956201
54.635 9.634249
54.640 9.968415
54.645 10.321452
54.650 10.13296
54.655 9.696486
54.660 9.267075
54.665 8.508587
54.670 8.202381
54.675 8.763135
54.680 9.2271
54.685 9.358709
54.690 9.440962
54.695 9.769201
54.700 10.065969
54.705 9.889061
54.710 9.378393
54.715 8.921074
54.720 8.663341
54.725 8.564914
54.730 8.405919
54.735 8.410254
54.740 8.6079
54.745 8.49704
54.750 8.609018
54.755 8.682545
54.760 8.392076
54.765 8.507068
54.770 8.669002
54.775 8.367235
54.780 8.806333
54.785 9.03491
54.790 9.438795
54.795 10.082561
54.800 10.00139
54.805 9.6049
54.810 9.907663
54.815 9.701553
54.820 9.426546
54.825 9.491449
54.830 9.166086
54.835 9.205162
54.840 9.190774
54.845 8.957124
54.850 9.398728
54.855 9.546151
54.860 9.405846
54.865 9.438968
54.870 9.52181
54.875 9.889709
54.880 10.123123
54.885 10.194719
54.890 9.801393
54.895 9.817526
54.900 9.961192
54.905 9.922079
54.910 10.052141
54.915 9.706938
54.920 9.567727
54.925 9.471219
54.930 9.504202
54.935 9.677956
54.940 9.621347
54.945 9.509604
54.950 9.674661
54.955 9.381834
54.960 9.477283
54.965 9.118926
54.970 9.115817
54.975 9.471213
54.980 9.275379
54.985 9.098389
54.990 8.806298
54.995 8.393554
55.000 8.47995
55.005 8.060814
55.010 7.650434
55.015 7.622188
55.020 7.718976
55.025 7.794033
55.030 7.89192
55.035 8.15873
55.040 8.337074
55.045 8.672517
55.050 8.686116
55.055 8.904606
55.060 9.627069
55.065 9.97369
55.070 9.957825
55.075 10.040323
55.080 10.053576
55.085 10.386011
55.090 10.221743
55.095 9.846417
55.100 9.680253
55.105 9.346869
55.110 9.201818
55.115 9.134714
55.120 8.72849
55.125 8.998927
55.130 9.18956
55.135 9.641044
55.140 9.818912
55.145 9.589872
55.150 9.502467
55.155 10.005123
55.160 10.346493
55.165 10.522326
55.170 10.101893
55.175 10.229328
55.180 10.294502
55.185 10.225326
55.190 10.256679
55.195 10.10106
55.200 10.259775
55.205 10.673628
55.210 11.052299
55.215 11.42543
55.220 11.599251
55.225 11.096868
55.230 10.971906
55.235 10.802782
55.240 10.683029
55.245 10.544331
55.250 10.299831
55.255 9.951228
55.260 10.058411
55.265 9.788422
55.270 9.498697
55.275 9.039145
55.280 8.668287
55.285 8.907064
55.290 9.536276
55.295 9.775892
55.300 10.332883
55.305 10.485894
55.310 10.791118
55.315 10.932941
55.320 10.752412
55.325 10.843651
55.330 10.506042
55.335 10.038576
55.340 10.047051
55.345 9.952427
55.350 10.21594
55.355 10.227969
55.360 9.607711
55.365 9.849706
55.370 10.227401
55.375 10.370844
55.380 10.48349
55.385 10.300606
55.390 10.303251
55.395 10.601094
55.400 10.343537
55.405 10.039731
55.410 10.165687
55.415 10.309199
55.420 10.174503
55.425 9.820188
55.430 9.900658
55.435 10.182182
55.440 10.163
55.445 10.17664
55.450 9.990523
55.455 10.111056
55.460 10.263763
55.465 9.879582
55.470 10.054474
55.475 10.291983
55.480 10.209134
55.485 10.033986
55.490 9.975061
55.495 10.68681
55.500 10.953324
55.505 11.02068
55.510 10.797276
55.515 10.918503
55.520 11.566191
55.525 11.490762
55.530 10.751235
55.535 10.865588
55.540 10.955324
55.545 10.765641
55.550 10.733196
55.555 10.725954
55.560 11.060951
55.565 11.424603
55.570 10.88544
55.575 10.858306
55.580 11.169451
55.585 10.91173
55.590 10.765984
55.595 10.117163
55.600 9.967954
55.605 10.013284
55.610 9.539378
55.615 9.503847
55.620 9.517071
55.625 9.538312
55.630 9.907237
55.635 9.773226
55.640 9.708183
55.645 10.051296
55.650 10.163321
55.655 9.949218
55.660 9.876795
55.665 9.934722
55.670 10.020435
55.675 10.585106
55.680 10.800922
55.685 10.572046
55.690 10.760708
55.695 10.803427
55.700 10.561761
55.705 10.59691
55.710 9.937098
55.715 9.796187
55.720 10.061404
55.725 10.00281
55.730 10.396559
55.735 11.317686
55.740 11.449715
55.745 12.040517
55.750 12.169099
55.755 12.05294
55.760 12.123176
55.765 11.598841
55.770 10.974442
55.775 10.726447
55.780 10.132402
55.785 9.676526
55.790 9.391823
55.795 9.375552
55.800 9.753944
55.805 9.867157
55.810 10.060998
55.815 10.324323
55.820 10.643425
55.825 10.896119
55.830 10.993568
55.835 10.905807
55.840 11.161829
55.845 10.907733
55.850 10.713557
55.855 10.83762
55.860 10.672613
55.865 10.317982
55.870 10.140504
55.875 10.244761
55.880 10.627552
55.885 10.593666
55.890 10.279716
55.895 10.244522
55.900 10.504604
55.905 10.368712
55.910 10.32645
55.915 10.328309
55.920 10.026687
55.925 10.062387
55.930 10.443963
55.935 10.641949
55.940 10.390361
55.945 10.089084
55.950 9.608233
55.955 10.103061
55.960 10.3
55.965 9.827441
55.970 9.402709
55.975 9.679473
55.980 9.798624
55.985 10.000215
55.990 9.872222
55.995 10.149811
56.000 10.53123
56.005 10.833011
56.010 11.242069
56.015 11.78496
56.020 12.193072
56.025 12.390883
56.030 12.042197
56.035 11.889244
56.040 11.36623
56.045 10.583662
56.050 10.381193
56.055 10.02177
56.060 9.904987
56.065 10.175692
56.070 10.517512
56.075 10.852395
56.080 11.122697
56.085 10.94478
56.090 10.986978
56.095 10.686312
56.100 10.680153
56.105 10.858923
56.110 11.148127
56.115 11.01249
56.120 10.895236
56.125 10.96282
56.130 11.18997
56.135 11.375315
56.140 11.661002
56.145 11.657311
56.150 11.365272
56.155 11.357225
56.160 11.084807
56.165 10.573219
56.170 10.018825
56.175 9.351423
56.180 9.276114
56.185 9.493315
56.190 9.997105
56.195 9.905073
56.200 10.208394
56.205 10.299322
56.210 10.381657
56.215 10.607335
56.220 10.955976
56.225 11.199471
56.230 11.922518
56.235 11.922948
56.240 12.356057
56.245 12.818184
56.250 13.153654
56.255 12.751309
56.260 12.584809
56.265 12.349827
56.270 12.127904
56.275 11.80894
56.280 11.266464
56.285 10.857299
56.290 10.785869
56.295 10.719857
56.300 10.93266
56.305 11.056456
56.310 10.94911
56.315 10.916481
56.320 11.153978
56.325 11.284893
56.330 10.897482
56.335 10.643786
56.340 10.438688
56.345 10.42904
56.350 10.053633
56.355 9.876044
56.360 9.747003
56.365 10.136857
56.370 9.96363
56.375 10.003029
56.380 10.344553
56.385 11.227605
56.390 11.542881
56.395 11.649748
56.400 11.338421
56.405 11.950907
56.410 12.34887
56.415 12.188812
56.420 11.653168
56.425 11.782946
56.430 12.384976
56.435 12.811141
56.440 12.143372
56.445 11.380768
56.450 10.930572
56.455 10.702882
56.460 10.585816
56.465 10.245486
56.470 10.04215
56.475 10.604504
56.480 11.33575
56.485 11.843006
56.490 12.684776
56.495 11.975833
56.500 11.491626
56.505 11.506869
56.510 11.060783
56.515 10.49641
56.520 10.431234
56.525 10.577399
56.530 10.583838
56.535 10.477542
56.540 10.150349
56.545 10.694
56.550 11.165081
56.555 10.891789
56.560 10.798959
56.565 11.081874
56.570 11.604503
56.575 11.793758
56.580 11.700592
56.585 11.796409
56.590 11.805619
56.595 11.30156
56.600 11.088288
56.605 10.691082
56.610 10.369596
56.615 10.415003
56.620 10.144321
56.625 9.919731
56.630 10.851663
56.635 11.598312
56.640 11.911345
56.645 12.004254
56.650 11.447793
56.655 11.438331
56.660 11.71772
56.665 10.99949
56.670 10.600309
56.675 10.469688
56.680 9.992216
56.685 10.27149
56.690 10.223264
56.695 10.289727
56.700 10.531169
56.705 10.460529
56.710 11.244879
56.715 11.826086
56.720 11.706386
56.725 12.176416
56.730 12.037005
56.735 12.562674
56.740 12.70694
56.745 12.69766
56.750 13.199662
56.755 13.593183
56.760 13.482738
56.765 13.857945
56.770 13.431649
56.775 13.461014
56.780 13.198393
56.785 12.517554
56.790 12.191144
56.795 12.209647
56.800 12.516356
56.805 12.530966
56.810 12.239053
56.815 12.291953
56.820 12.38645
56.825 12.129648
56.830 12.059009
56.835 11.711243
56.840 11.569613
56.845 12.1383
56.850 12.136971
56.855 12.000389
56.860 12.285289
56.865 11.714617
56.870 11.329888
56.875 11.188503
56.880 10.97434
56.885 11.498988
56.890 11.564741
56.895 11.443748
56.900 11.803888
56.905 11.812301
56.910 12.050217
56.915 11.959599
56.920 11.648211
56.925 11.973024
56.930 11.93955
56.935 12.137836
56.940 11.965429
56.945 12.11278
56.950 11.556665
56.955 11.415609
56.960 11.375278
56.965 11.59779
56.970 11.421076
56.975 11.565772
56.980 11.465819
56.985 11.825653
56.990 11.669106
56.995 11.468773
57.000 11.226438
57.005 11.369674
57.010 11.707597
57.015 11.477199
57.020 11.910789
57.025 12.3556
57.030 12.435739
57.035 12.474267
57.040 12.220954
57.045 12.033655
57.050 12.591918
57.055 12.298922
57.060 12.296257
57.065 12.822712
57.070 12.785832
57.075 13.05853
57.080 12.67347
57.085 12.254227
57.090 12.093279
57.095 11.772138
57.100 11.111872
57.105 11.34126
57.110 11.254877
57.115 11.38626
57.120 11.466172
57.125 11.634328
57.130 11.684678
57.135 12.542179
57.140 12.681603
57.145 13.091927
57.150 13.722025
57.155 13.829093
57.160 13.991556
57.165 14.383672
57.170 13.716129
57.175 13.468784
57.180 13.181157
57.185 13.014489
57.190 12.888228
57.195 12.640212
57.200 12.490313
57.205 12.502438
57.210 12.880279
57.215 12.814447
57.220 12.572177
57.225 12.536798
57.230 12.47708
57.235 12.109545
57.240 12.241595
57.245 11.906056
57.250 11.60406
57.255 10.97596
57.260 10.986325
57.265 10.78291
57.270 10.75321
57.275 10.800668
57.280 10.730931
57.285 11.038899
57.290 11.694211
57.295 11.931486
57.300 12.271429
57.305 12.671227
57.310 12.695628
57.315 12.93953
57.320 12.804824
57.325 12.480017
57.330 12.458893
57.335 12.612362
57.340 12.183404
57.345 12.171532
57.350 12.502107
57.355 12.379439
57.360 12.342284
57.365 12.23899
57.370 12.190781
57.375 11.972274
57.380 11.940543
57.385 11.902945
57.390 12.485975
57.395 12.482465
57.400 12.242131
57.405 12.304914
57.410 12.417825
57.415 12.139938
57.420 12.188842
57.425 11.816702
57.430 12.067222
57.435 12.004217
57.440 11.983982
57.445 12.423955
57.450 12.679502
57.455 12.504234
57.460 12.234777
57.465 12.075315
57.470 12.230828
57.475 11.814651
57.480 11.461329
57.485 11.276872
57.490 11.799009
57.495 11.878052
57.500 12.077091
57.505 11.869701
57.510 12.196656
57.515 12.661854
57.520 12.987487
57.525 12.75249
57.530 12.949688
57.535 12.575487
57.540 12.834698
57.545 12.604126
57.550 12.124085
57.555 12.145069
57.560 12.479002
57.565 12.360379
57.570 12.291649
57.575 12.265408
57.580 12.698628
57.585 12.824471
57.590 12.567455
57.595 12.45691
57.600 12.534513
57.605 13.082688
57.610 13.312205
57.615 13.337843
57.620 12.897993
57.625 12.567889
57.630 12.461843
57.635 12.434681
57.640 12.012033
57.645 11.96405
57.650 12.099161
57.655 12.785361
57.660 13.210527
57.665 13.277392
57.670 13.693153
57.675 13.92944
57.680 13.748871
57.685 13.523263
57.690 13.269895
57.695 13.158526
57.700 12.850714
57.705 12.473586
57.710 12.043284
57.715 11.988779
57.720 11.904643
57.725 11.811438
57.730 12.248423
57.735 12.457034
57.740 12.902401
57.745 13.567513
57.750 14.335702
57.755 14.987878
57.760 14.807505
57.765 14.050035
57.770 13.598111
57.775 13.105745
57.780 13.412214
57.785 12.893456
57.790 12.647908
57.795 12.593997
57.800 12.841984
57.805 13.09721
57.810 13.721673
57.815 13.831028
57.820 14.010731
57.825 14.234266
57.830 14.515971
57.835 15.105453
57.840 15.533428
57.845 15.627012
57.850 14.932685
57.855 14.605474
57.860 14.283809
57.865 14.2236
57.870 14.080318
57.875 13.839833
57.880 13.161348
57.885 13.510231
57.890 13.683167
57.895 14.033494
57.900 13.966876
57.905 13.54129
57.910 13.657545
57.915 14.235457
57.920 13.681257
57.925 13.436478
57.930 13.15191
57.935 13.210257
57.940 13.614676
57.945 13.54901
57.950 13.418435
57.955 13.861964
57.960 13.796255
57.965 13.918013
57.970 14.245059
57.975 14.371791
57.980 14.289381
57.985 14.389037
57.990 14.632729
57.995 14.608975
58.000 14.374228
58.005 14.673672
58.010 15.056776
58.015 14.839655
58.020 14.400506
58.025 13.732608
58.030 13.946098
58.035 14.474222
58.040 14.61918
58.045 14.208836
58.050 14.726114
58.055 15.129302
58.060 15.774728
58.065 16.153807
58.070 15.639541
58.075 15.47659
58.080 16.092321
58.085 15.656107
58.090 15.517546
58.095 15.515034
58.100 15.295548
58.105 15.58566
58.110 15.278743
58.115 14.23007
58.120 13.986562
58.125 13.534035
58.130 13.35024
58.135 13.695987
58.140 13.725162
58.145 13.462386
58.150 13.721678
58.155 14.287395
58.160 14.814921
58.165 14.975277
58.170 14.955106
58.175 14.589878
58.180 15.05946
58.185 15.266558
58.190 15.259636
58.195 15.320595
58.200 15.237207
58.205 15.381598
58.210 15.702914
58.215 15.365186
58.220 15.789826
58.225 15.720619
58.230 15.606298
58.235 15.577237
58.240 15.364508
58.245 15.703134
58.250 16.802364
58.255 16.60005
58.260 16.53883
58.265 16.500319
58.270 16.52314
58.275 16.706585
58.280 16.524229
58.285 15.713649
58.290 15.950034
58.295 16.23105
58.300 16.280819
58.305 16.306311
58.310 16.405752
58.315 17.002171
58.320 17.923841
58.325 17.7251
58.330 17.564732
58.335 17.986069
58.340 18.213661
58.345 18.192764
58.350 18.085718
58.355 17.705574
58.360 17.989244
58.365 18.330742
58.370 18.212328
58.375 18.455851
58.380 18.437084
58.385 18.219046
58.390 18.672886
58.395 19.083841
58.400 19.262541
58.405 19.141882
58.410 19.060484
58.415 19.56357
58.420 20.502455
58.425 20.819244
58.430 21.710215
58.435 22.61307
58.440 23.290024
58.445 23.854572
58.450 24.67359
58.455 24.381504
58.460 25.156374
58.465 24.682335
58.470 24.666792
58.475 24.9758
58.480 24.56625
58.485 24.263664
58.490 24.448589
58.495 24.672674
58.500 24.628361
58.505 24.670862
58.510 24.646093
58.515 24.97715
58.520 25.564739
58.525 26.09955
58.530 26.825098
58.535 26.944118
58.540 27.090733
58.545 28.116467
58.550 29.067173
58.555 28.720188
58.560 28.390291
58.565 28.327618
58.570 29.537178
58.575 30.628859
