!@!!GADDS PLOTSO FILE: Chi integration type
!@!!Title/SampleName: map-fe
!@!!Comment: ?
!@!!User: Bruker Instrument Administrator
!@!!Site: University of Illinois Chicago
!@!!Frame: map-fe_01_000.gfrm
!@!!Wavelengths    1.54184   1.54056   1.54439
!@!!Frame angles: 2Theta: 63.000 Omega: 50.000 Phi: 0.000 Chi: 90.000
!@!!Integration range: 2Theta: 53.000 to 73.000  Gamma: -105.000 to -75.000
!@!!Integration method: bin normalized
!@!N
!@!SS
!@!M
!@!L 0.0 0.0 0.0 0.0
!@!XDegrees
!@!YCounts
53.000 8.059303
53.005 7.801429
53.010 7.747816
53.015 7.950769
53.020 8.185273
53.025 7.933268
53.030 7.408829
53.035 7.679574
53.040 7.783155
53.045 7.60534
53.050 7.27171
53.055 7.052524
53.060 7.115867
53.065 6.961509
53.070 6.803821
53.075 6.700769
53.080 6.667194
53.085 6.847178
53.090 7.204801
53.095 7.533483
53.100 7.69545
53.105 7.770759
53.110 7.748998
53.115 7.557519
53.120 7.375207
53.125 7.168832
53.130 7.237073
53.135 7.478584
53.140 7.805359
53.145 7.701593
53.150 8.195203
53.155 8.433102
53.160 8.519676
53.165 8.43872
53.170 8.190395
53.175 8.450749
53.180 8.710559
53.185 8.305951
53.190 8.110662
53.195 7.751871
53.200 8.062484
53.205 8.172698
53.210 8.437207
53.215 8.474178
53.220 8.621124
53.225 8.727893
53.230 8.693107
53.235 8.370897
53.240 8.267366
53.245 8.067366
53.250 8.78541
53.255 8.894297
53.260 8.824394
53.265 9.057242
53.270 9.039291
53.275 9.1029
53.280 9.146724
53.285 9.028522
53.290 9.370278
53.295 9.243172
53.300 9.09407
53.305 8.854395
53.310 8.138626
53.315 8.001344
53.320 7.754512
53.325 7.706731
53.330 8.035495
53.335 7.868092
53.340 7.984719
53.345 8.211411
53.350 8.036482
53.355 7.77494
53.360 7.543889
53.365 7.202728
53.370 7.523526
53.375 8.37516
53.380 8.435156
53.385 8.118491
53.390 8.078173
53.395 8.298659
53.400 8.621494
53.405 8.302341
53.410 8.154428
53.415 7.92592
53.420 8.092507
53.425 8.233242
53.430 8.278613
53.435 8.056366
53.440 7.889109
53.445 7.415577
53.450 7.612115
53.455 7.403145
53.460 7.046757
53.465 6.944401
53.470 7.089735
53.475 7.300023
53.480 7.464094
53.485 7.328874
53.490 7.733859
53.495 7.713414
53.500 7.850261
53.505 7.870852
53.510 7.871999
53.515 7.898334
53.520 8.546763
53.525 8.690845
53.530 8.926577
53.535 8.804979
53.540 8.944617
53.545 8.806303
53.550 8.654283
53.555 8.147856
53.560 8.327279
53.565 8.428483
53.570 8.354939
53.575 8.097088
53.580 8.591055
53.585 8.645153
53.590 8.546072
53.595 8.787673
53.600 8.739352
53.605 8.797312
53.610 8.913173
53.615 8.561872
53.620 8.793607
53.625 8.483543
53.630 8.01849
53.635 8.189403
53.640 8.212825
53.645 7.908307
53.650 7.774692
53.655 7.706965
53.660 7.88673
53.665 8.338522
53.670 8.551426
53.675 8.910425
53.680 9.090887
53.685 9.343552
53.690 9.364497
53.695 9.269052
53.700 8.946115
53.705 8.683637
53.710 8.381319
53.715 7.893515
53.720 7.791736
53.725 8.279093
53.730 8.156328
53.735 7.889114
53.740 7.537804
53.745 7.769081
53.750 7.780789
53.755 7.724235
53.760 6.989594
53.765 7.256803
53.770 7.808796
53.775 8.111384
53.780 7.933117
53.785 7.94055
53.790 8.421973
53.795 8.876742
53.800 8.703998
53.805 8.720531
53.810 8.625131
53.815 8.673985
53.820 8.208544
53.825 7.616697
53.830 7.647324
53.835 7.706956
53.840 7.40099
53.845 7.329017
53.850 7.692742
53.855 8.32557
53.860 8.603148
53.865 8.426291
53.870 8.124441
53.875 8.42111
53.880 8.800944
53.885 8.99908
53.890 9.145969
53.895 9.114491
53.900 9.21529
53.905 9.547863
53.910 9.488248
53.915 9.24262
53.920 8.965557
53.925 8.906733
53.930 9.268136
53.935 9.538342
53.940 9.59572
53.945 9.640879
53.950 10.020034
53.955 9.818679
53.960 9.77539
53.965 9.409945
53.970 9.422443
53.975 9.465025
53.980 9.144463
53.985 9.07641
53.990 9.017104
53.995 9.387474
54.000 9.68557
54.005 9.58521
54.010 9.36704
54.015 9.232426
54.020 9.310275
54.025 9.377291
54.030 9.183717
54.035 9.060049
54.040 9.014172
54.045 9.341622
54.050 9.725832
54.055 9.919063
54.060 9.755541
54.065 9.400406
54.070 9.483228
54.075 9.388949
54.080 9.376194
54.085 8.978527
54.090 8.651763
54.095 8.511742
54.100 8.805803
54.105 8.407688
54.110 8.264412
54.115 8.109657
54.120 8.254955
54.125 8.429449
54.130 8.188789
54.135 7.83344
54.140 8.063467
54.145 8.180954
54.150 8.053661
54.155 7.672333
54.160 7.732453
54.165 8.275085
54.170 8.722318
54.175 8.653049
54.180 8.500815
54.185 8.664457
54.190 8.971705
54.195 8.950451
54.200 8.981536
54.205 9.396471
54.210 9.636413
54.215 9.621096
54.220 9.722238
54.225 10.19
54.230 10.42163
54.235 10.308777
54.240 9.694631
54.245 9.576551
54.250 9.871655
54.255 10.055516
54.260 9.439856
54.265 9.056995
54.270 8.569565
54.275 8.7223
54.280 8.853028
54.285 8.77315
54.290 8.439765
54.295 8.745499
54.300 8.959391
54.305 9.920428
54.310 10.171398
54.315 10.038539
54.320 9.827967
54.325 9.816112
54.330 9.726828
54.335 10.034427
54.340 9.701633
54.345 9.298558
54.350 9.917015
54.355 10.235163
54.360 10.653474
54.365 10.391762
54.370 9.987063
54.375 9.574284
54.380 9.199401
54.385 8.596726
54.390 8.315911
54.395 8.002421
54.400 8.15402
54.405 8.196112
54.410 8.391904
54.415 8.821414
54.420 9.001712
54.425 9.328885
54.430 9.220169
54.435 8.890201
54.440 8.652115
54.445 8.676175
54.450 8.700184
54.455 8.781368
54.460 8.619929
54.465 9.011905
54.470 9.732625
54.475 9.589838
54.480 9.34917
54.485 8.984086
54.490 8.699159
54.495 8.492614
54.500 8.223732
54.505 7.97044
54.510 8.581422
54.515 8.902571
54.520 8.891916
54.525 9.160968
54.530 9.383595
54.535 9.532807
54.540 9.683174
54.545 9.305517
54.550 9.351718
54.555 9.63301
54.560 9.649801
54.565 9.59016
54.570 9.127042
54.575 8.657046
54.580 8.939028
54.585 9.163386
54.590 9.056635
54.595 8.684485
54.600 8.560849
54.605 9.38294
54.610 9.915698
54.615 10.007165
54.620 9.754224
54.625 10.037501
54.630 10.065719
54.635 10.2251
54.640 9.971836
54.645 9.846645
54.650 9.307013
54.655 9.36099
54.660 9.562421
54.665 9.694331
54.670 9.407992
54.675 9.353948
54.680 9.304703
54.685 9.567516
54.690 9.413926
54.695 9.046505
54.700 9.154889
54.705 9.047832
54.710 9.000822
54.715 8.966268
54.720 9.051381
54.725 9.138557
54.730 9.149324
54.735 9.192726
54.740 9.349403
54.745 9.282511
54.750 9.122116
54.755 9.186426
54.760 9.189958
54.765 9.245155
54.770 9.100612
54.775 9.114595
54.780 9.071961
54.785 8.868369
54.790 8.675837
54.795 8.68402
54.800 8.924742
54.805 9.057169
54.810 8.424844
54.815 8.420691
54.820 8.66804
54.825 8.750548
54.830 8.780215
54.835 8.957759
54.840 9.018974
54.845 9.352008
54.850 9.505154
54.855 9.497465
54.860 9.641375
54.865 9.459268
54.870 8.955674
54.875 8.956077
54.880 9.224771
54.885 9.200117
54.890 9.362654
54.895 9.237355
54.900 9.700348
54.905 10.046861
54.910 9.740079
54.915 9.350765
54.920 9.50007
54.925 9.501724
54.930 9.345206
54.935 9.057464
54.940 9.123522
54.945 9.671283
54.950 10.14694
54.955 9.884667
54.960 9.468293
54.965 9.394503
54.970 9.48851
54.975 9.670691
54.980 9.643181
54.985 9.461278
54.990 9.903818
54.995 9.976372
55.000 9.816441
55.005 9.606617
55.010 9.637296
55.015 9.331519
55.020 8.971982
55.025 8.891995
55.030 9.228234
55.035 9.433928
55.040 9.26265
55.045 9.270212
55.050 9.556386
55.055 9.54481
55.060 9.56137
55.065 9.406955
55.070 9.269805
55.075 9.30452
55.080 9.284148
55.085 9.171606
55.090 9.729183
55.095 9.564222
55.100 9.834702
55.105 9.962708
55.110 10.304345
55.115 10.285409
55.120 10.300318
55.125 9.832424
55.130 9.801992
55.135 9.623623
55.140 9.575499
55.145 9.226922
55.150 9.103827
55.155 9.310877
55.160 9.802002
55.165 9.960676
55.170 10.107772
55.175 10.266749
55.180 10.702537
55.185 10.71646
55.190 10.524721
55.195 10.29559
55.200 10.145668
55.205 10.039508
55.210 9.716668
55.215 9.273854
55.220 9.345774
55.225 9.356297
55.230 9.160257
55.235 9.558116
55.240 9.683054
55.245 9.846696
55.250 10.078007
55.255 10.428366
55.260 10.616154
55.265 11.259429
55.270 11.316428
55.275 11.421162
55.280 11.303243
55.285 11.480527
55.290 10.974952
55.295 10.85346
55.300 10.469357
55.305 10.654584
55.310 10.620593
55.315 10.745644
55.320 10.362328
55.325 10.469756
55.330 10.746665
55.335 10.455497
55.340 9.971664
55.345 10.021493
55.350 10.043011
55.355 10.482498
55.360 10.418492
55.365 10.371506
55.370 10.272563
55.375 10.380323
55.380 10.124505
55.385 9.894052
55.390 9.811126
55.395 9.986458
55.400 9.919488
55.405 10.032374
55.410 9.825624
55.415 9.888969
55.420 9.400187
55.425 8.500298
55.430 8.054387
55.435 8.408543
55.440 8.811296
55.445 9.420015
55.450 9.473629
55.455 9.866949
55.460 10.659698
55.465 10.624689
55.470 10.099296
55.475 9.607327
55.480 9.544367
55.485 9.635761
55.490 9.877231
55.495 9.771091
55.500 9.553041
55.505 9.799279
55.510 9.878115
55.515 10.222371
55.520 10.767448
55.525 10.957
55.530 11.105623
55.535 11.679486
55.540 11.663918
55.545 11.196465
55.550 10.829045
55.555 10.180933
55.560 9.907668
55.565 9.658947
55.570 9.620779
55.575 9.829823
55.580 10.157528
55.585 10.250404
55.590 10.457255
55.595 10.732395
55.600 10.527984
55.605 10.281988
55.610 10.339951
55.615 10.590578
55.620 10.961233
55.625 11.307148
55.630 11.555611
55.635 11.781147
55.640 11.724333
55.645 11.562873
55.650 11.320172
55.655 10.563667
55.660 10.183472
55.665 9.910168
55.670 10.098459
55.675 9.882954
55.680 9.450025
55.685 9.669861
55.690 9.871139
55.695 9.580293
55.700 9.615027
55.705 9.703732
55.710 9.759823
55.715 10.116357
55.720 10.163918
55.725 10.278078
55.730 10.888946
55.735 10.8438
55.740 11.137606
55.745 11.264392
55.750 11.558188
55.755 11.91966
55.760 11.897493
55.765 11.278527
55.770 10.886961
55.775 10.413063
55.780 10.382234
55.785 9.626903
55.790 9.51123
55.795 9.990624
55.800 10.082388
55.805 10.354209
55.810 10.754171
55.815 11.50344
55.820 12.020071
55.825 11.41017
55.830 11.461019
55.835 12.050147
55.840 12.41759
55.845 12.38434
55.850 12.079979
55.855 12.1801
55.860 12.721125
55.865 12.382458
55.870 12.21067
55.875 12.114766
55.880 11.476595
55.885 11.740277
55.890 11.802187
55.895 12.014473
55.900 12.2181
55.905 12.331261
55.910 12.685587
55.915 13.109429
55.920 12.821713
55.925 12.112909
55.930 11.654934
55.935 11.453073
55.940 10.77622
55.945 10.656206
55.950 10.730388
55.955 10.326885
55.960 10.135717
55.965 10.101105
55.970 10.250236
55.975 10.300427
55.980 10.512196
55.985 10.795588
55.990 11.422923
55.995 11.827377
56.000 11.793522
56.005 11.756971
56.010 11.959302
56.015 11.735863
56.020 11.134494
56.025 11.020792
56.030 10.835092
56.035 10.806347
56.040 10.767406
56.045 10.47496
56.050 10.848228
56.055 10.976878
56.060 10.653683
56.065 10.882389
56.070 10.977488
56.075 10.971175
56.080 10.897682
56.085 10.662454
56.090 10.806837
56.095 10.713986
56.100 10.395287
56.105 10.382194
56.110 10.995874
56.115 10.838619
56.120 10.287434
56.125 10.050966
56.130 10.069039
56.135 10.19738
56.140 10.213889
56.145 10.244322
56.150 10.634191
56.155 10.736464
56.160 11.030605
56.165 11.309601
56.170 11.548892
56.175 11.607754
56.180 11.127268
56.185 11.256398
56.190 11.462276
56.195 11.224333
56.200 11.013281
56.205 10.569082
56.210 10.634666
56.215 11.037533
56.220 11.543212
56.225 11.787638
56.230 12.263531
56.235 12.559396
56.240 12.712399
56.245 12.97175
56.250 12.37744
56.255 11.356516
56.260 11.187496
56.265 10.818959
56.270 10.660428
56.275 10.517269
56.280 10.28269
56.285 10.221055
56.290 11.030422
56.295 11.406222
56.300 11.970887
56.305 12.004856
56.310 11.934516
56.315 11.926329
56.320 11.896808
56.325 11.538692
56.330 11.251691
56.335 11.531029
56.340 11.607801
56.345 11.824752
56.350 12.150545
56.355 12.601881
56.360 12.616921
56.365 12.308488
56.370 12.11615
56.375 11.92372
56.380 11.341234
56.385 11.106749
56.390 10.8046
56.395 10.670705
56.400 10.810234
56.405 10.701086
56.410 10.708566
56.415 11.031986
56.420 11.218642
56.425 11.208581
56.430 11.724125
56.435 11.933528
56.440 12.01652
56.445 12.085611
56.450 11.801086
56.455 11.430992
56.460 11.500843
56.465 11.088627
56.470 10.555526
56.475 10.444142
56.480 10.412111
56.485 10.568164
56.490 11.455905
56.495 11.24887
56.500 11.051764
56.505 10.86111
56.510 10.790805
56.515 10.659947
56.520 10.736815
56.525 10.479858
56.530 10.848868
56.535 10.999605
56.540 11.659368
56.545 12.375213
56.550 13.140077
56.555 13.323464
56.560 13.05011
56.565 12.536242
56.570 12.205503
56.575 11.702508
56.580 11.127163
56.585 10.52674
56.590 10.435722
56.595 10.836742
56.600 11.342058
56.605 11.460782
56.610 11.265944
56.615 11.434822
56.620 11.613365
56.625 11.710918
56.630 11.673175
56.635 11.488795
56.640 11.641184
56.645 12.171942
56.650 12.215012
56.655 11.898149
56.660 11.571217
56.665 11.591278
56.670 11.977332
56.675 12.357439
56.680 12.049181
56.685 12.07986
56.690 12.183993
56.695 12.580873
56.700 12.16371
56.705 12.071877
56.710 11.861928
56.715 11.991159
56.720 12.632152
56.725 13.01319
56.730 12.693103
56.735 13.01018
56.740 13.524194
56.745 13.927441
56.750 13.595034
56.755 13.278602
56.760 12.893062
56.765 12.753717
56.770 12.576987
56.775 12.196154
56.780 12.054377
56.785 11.553528
56.790 11.5522
56.795 11.936369
56.800 12.281241
56.805 12.193561
56.810 12.458204
56.815 12.525278
56.820 12.945723
56.825 13.135503
56.830 13.114334
56.835 13.193998
56.840 13.367135
56.845 13.054073
56.850 13.151203
56.855 13.041676
56.860 12.615036
56.865 12.152782
56.870 11.776666
56.875 11.876909
56.880 12.097832
56.885 12.157595
56.890 12.14071
56.895 12.316867
56.900 12.883005
56.905 12.910623
56.910 12.221785
56.915 12.088138
56.920 11.402205
56.925 11.307139
56.930 11.508834
56.935 11.212287
56.940 11.195739
56.945 11.229958
56.950 10.873559
56.955 11.639124
56.960 11.664049
56.965 11.453759
56.970 11.042609
56.975 11.293626
56.980 11.781026
56.985 12.00844
56.990 11.627605
56.995 11.873661
57.000 11.96338
57.005 12.22506
57.010 11.90592
57.015 11.498887
57.020 11.485271
57.025 11.765576
57.030 11.618307
57.035 11.646531
57.040 11.660789
57.045 12.089187
57.050 12.347419
57.055 12.569099
57.060 12.68145
57.065 12.785122
57.070 13.144814
57.075 13.401305
57.080 13.219589
57.085 13.259617
57.090 13.297274
57.095 13.119657
57.100 12.897371
57.105 12.174178
57.110 11.820397
57.115 12.243814
57.120 12.636939
57.125 12.43335
57.130 12.236365
57.135 12.41806
57.140 13.019646
57.145 12.845277
57.150 12.398781
57.155 12.272525
57.160 12.402357
57.165 12.511843
57.170 12.591696
57.175 12.515896
57.180 12.828511
57.185 12.426823
57.190 11.874235
57.195 11.590166
57.200 11.66388
57.205 11.409338
57.210 11.601541
57.215 11.664361
57.220 11.703106
57.225 11.960917
57.230 11.815975
57.235 11.5911
57.240 11.592446
57.245 11.337613
57.250 11.218446
57.255 11.615491
57.260 11.95409
57.265 11.770185
57.270 11.44081
57.275 11.263825
57.280 11.128672
57.285 10.580013
57.290 10.287083
57.295 10.672071
57.300 11.502206
57.305 11.805818
57.310 12.123518
57.315 12.400651
57.320 13.08661
57.325 12.719485
57.330 12.306597
57.335 12.048714
57.340 12.098923
57.345 12.057845
57.350 12.189386
57.355 11.900649
57.360 12.446296
57.365 12.574029
57.370 13.155754
57.375 13.261897
57.380 13.576218
57.385 13.532477
57.390 13.781071
57.395 13.587715
57.400 13.024615
57.405 12.45126
57.410 12.05012
57.415 11.815131
57.420 11.891376
57.425 11.98492
57.430 12.354948
57.435 12.716108
57.440 12.606122
57.445 12.778769
57.450 12.534589
57.455 11.949629
57.460 11.698339
57.465 11.676954
57.470 11.862252
57.475 12.122869
57.480 12.686442
57.485 12.856008
57.490 13.22249
57.495 13.388282
57.500 12.992988
57.505 12.675262
57.510 12.560229
57.515 12.117841
57.520 12.080493
57.525 11.655391
57.530 11.697822
57.535 11.626464
57.540 11.754297
57.545 11.747026
57.550 11.58496
57.555 11.814276
57.560 12.753565
57.565 12.914546
57.570 13.223726
57.575 13.264957
57.580 12.956092
57.585 13.276826
57.590 13.520776
57.595 13.185878
57.600 13.117876
57.605 12.930059
57.610 12.866175
57.615 13.007869
57.620 12.817983
57.625 12.885677
57.630 12.594919
57.635 12.398123
57.640 12.854058
57.645 13.005459
57.650 13.46465
57.655 13.643961
57.660 13.701921
57.665 14.005392
57.670 13.98961
57.675 13.660734
57.680 13.786705
57.685 13.911347
57.690 14.167867
57.695 14.345364
57.700 14.798066
57.705 15.261321
57.710 15.132168
57.715 15.034441
57.720 14.864047
57.725 14.453607
57.730 13.62973
57.735 13.032667
57.740 12.934505
57.745 12.824777
57.750 12.622458
57.755 12.58011
57.760 12.569333
57.765 12.731119
57.770 12.990875
57.775 13.257545
57.780 13.513044
57.785 13.870212
57.790 13.872602
57.795 14.15453
57.800 14.582193
57.805 14.551605
57.810 14.296968
57.815 14.530501
57.820 14.492502
57.825 14.415948
57.830 14.383648
57.835 14.272
57.840 14.211874
57.845 14.591523
57.850 14.906359
57.855 14.908184
57.860 15.023007
57.865 14.943202
57.870 15.10438
57.875 14.932301
57.880 14.408052
57.885 13.855356
57.890 13.987247
57.895 13.703314
57.900 13.725146
57.905 13.742086
57.910 13.646549
57.915 13.358284
57.920 13.617057
57.925 13.793288
57.930 14.788653
57.935 14.688391
57.940 14.446336
57.945 14.667003
57.950 15.15854
57.955 14.804557
57.960 13.905684
57.965 13.251204
57.970 13.260638
57.975 13.164131
57.980 13.577977
57.985 13.413242
57.990 13.394092
57.995 13.694641
58.000 13.773222
58.005 14.346153
58.010 14.81391
58.015 14.908618
58.020 15.397444
58.025 15.615489
58.030 15.890404
58.035 16.268881
58.040 16.332214
58.045 16.403118
58.050 16.251938
58.055 15.893339
58.060 15.964165
58.065 15.531799
58.070 14.769507
58.075 14.254423
58.080 14.293476
58.085 13.936474
58.090 13.819101
58.095 14.138408
58.100 14.649979
58.105 15.481822
58.110 15.404329
58.115 15.228054
58.120 14.89143
58.125 14.955946
58.130 14.590234
58.135 14.496533
58.140 14.189862
58.145 14.226118
58.150 14.71413
58.155 15.347585
58.160 15.130319
58.165 15.290505
58.170 15.611231
58.175 16.270124
58.180 16.372835
58.185 16.257622
58.190 16.307152
58.195 16.993853
58.200 17.044775
58.205 16.967211
58.210 16.405104
58.215 16.554632
58.220 16.632782
58.225 16.809536
58.230 16.395929
58.235 15.868095
58.240 15.968329
58.245 16.396996
58.250 16.117069
58.255 15.964235
58.260 15.961895
58.265 16.49416
58.270 17.039932
58.275 16.575642
58.280 16.038349
58.285 15.756297
58.290 15.841589
58.295 15.419689
58.300 15.027326
58.305 15.128898
58.310 15.458465
58.315 16.039856
58.320 17.009941
58.325 17.441597
58.330 18.249811
58.335 18.635649
58.340 18.346449
58.345 18.486427
58.350 18.602781
58.355 18.455925
58.360 18.315243
58.365 18.652813
58.370 19.269304
58.375 19.542381
58.380 19.617474
58.385 20.094904
58.390 19.754871
58.395 19.589712
58.400 18.892155
58.405 18.451744
58.410 18.680632
58.415 18.774309
58.420 19.247986
58.425 19.89559
58.430 20.45771
58.435 21.301321
58.440 21.597778
58.445 21.337746
58.450 21.317223
58.455 21.09618
58.460 21.454662
58.465 21.56855
58.470 21.593203
58.475 21.992804
58.480 22.790783
58.485 23.245289
58.490 23.951126
58.495 24.400171
58.500 24.635017
58.505 25.213371
58.510 26.271502
58.515 27.03982
58.520 27.429096
58.525 27.877544
58.530 27.834301
58.535 28.687817
58.540 28.94236
58.545 28.286362
58.550 28.032557
58.555 27.893412
58.560 28.602055
58.565 29.023903
58.570 28.344952
