!@!!GADDS PLOTSO FILE: Chi integration type
!@!!Title/SampleName: map-a6
!@!!Comment: ?
!@!!User: Bruker Instrument Administrator
!@!!Site: University of Illinois Chicago
!@!!Frame: map-a6_01_000.gfrm
!@!!Wavelengths    1.54184   1.54056   1.54439
!@!!Frame angles: 2Theta: 63.000 Omega: 50.000 Phi: 0.000 Chi: 90.000
!@!!Integration range: 2Theta: 53.000 to 73.000  Gamma: -105.000 to -75.000
!@!!Integration method: bin normalized
!@!N
!@!SS
!@!M
!@!L 0.0 0.0 0.0 0.0
!@!XDegrees
!@!YCounts
53.000 7.583872
53.005 7.40489
53.010 7.124979
53.015 6.752752
53.020 6.832559
53.025 6.676923
53.030 6.516943
53.035 6.702703
53.040 6.840326
53.045 6.797334
53.050 6.540966
53.055 6.770306
53.060 7.090009
53.065 7.096964
53.070 6.815932
53.075 6.869975
53.080 7.258395
53.085 7.676333
53.090 7.65717
53.095 7.868418
53.100 8.164537
53.105 8.381494
53.110 8.280993
53.115 8.369409
53.120 7.790077
53.125 7.503228
53.130 7.150237
53.135 6.964972
53.140 7.231642
53.145 7.311209
53.150 7.255375
53.155 7.174456
53.160 7.22815
53.165 7.398478
53.170 7.026608
53.175 6.591704
53.180 6.60863
53.185 6.615458
53.190 6.887341
53.195 6.905635
53.200 6.665062
53.205 6.802835
53.210 7.051895
53.215 6.718559
53.220 6.877824
53.225 6.731913
53.230 6.695908
53.235 6.96361
53.240 7.0437
53.245 7.129866
53.250 7.465714
53.255 7.549143
53.260 7.444687
53.265 7.532814
53.270 7.4789
53.275 7.355838
53.280 7.341759
53.285 6.888316
53.290 6.998676
53.295 7.317509
53.300 7.180856
53.305 7.256275
53.310 7.272817
53.315 7.188807
53.320 7.261069
53.325 6.955408
53.330 6.855278
53.335 7.008153
53.340 6.984825
53.345 7.132036
53.350 7.417214
53.355 8.13695
53.360 8.621259
53.365 8.670917
53.370 8.293025
53.375 8.619882
53.380 8.593114
53.385 8.41628
53.390 7.54737
53.395 7.459879
53.400 7.611956
53.405 7.532625
53.410 7.107657
53.415 6.901721
53.420 7.064981
53.425 7.012796
53.430 6.473368
53.435 6.602969
53.440 6.934204
53.445 7.136653
53.450 7.296082
53.455 7.170763
53.460 7.172789
53.465 7.543144
53.470 7.619574
53.475 7.259552
53.480 7.207359
53.485 7.195363
53.490 7.382014
53.495 7.215324
53.500 6.862938
53.505 7.25509
53.510 7.678919
53.515 7.976884
53.520 7.918126
53.525 8.115746
53.530 8.456999
53.535 8.738155
53.540 8.520935
53.545 8.362011
53.550 8.061412
53.555 7.87546
53.560 7.951932
53.565 7.943924
53.570 7.433553
53.575 7.14207
53.580 7.229933
53.585 7.191242
53.590 7.189448
53.595 7.062525
53.600 7.09901
53.605 7.162086
53.610 7.246623
53.615 7.052806
53.620 6.91236
53.625 6.491632
53.630 6.42732
53.635 6.590426
53.640 6.482555
53.645 6.314996
53.650 6.460686
53.655 6.82309
53.660 7.217546
53.665 7.329251
53.670 7.12293
53.675 7.511999
53.680 7.661978
53.685 7.707462
53.690 7.955626
53.695 7.72156
53.700 7.561232
53.705 7.618589
53.710 7.507852
53.715 7.417435
53.720 7.2758
53.725 7.527106
53.730 7.904317
53.735 7.731891
53.740 7.554948
53.745 7.901451
53.750 8.145784
53.755 8.264871
53.760 7.902277
53.765 8.142649
53.770 8.47886
53.775 8.624802
53.780 8.674019
53.785 8.51513
53.790 8.668154
53.795 8.156223
53.800 7.92976
53.805 7.965457
53.810 7.838234
53.815 7.749971
53.820 7.467073
53.825 7.689843
53.830 8.455191
53.835 8.500443
53.840 8.466066
53.845 8.480609
53.850 8.51445
53.855 8.287442
53.860 8.218861
53.865 8.018991
53.870 7.998106
53.875 7.754679
53.880 7.531134
53.885 7.415855
53.890 7.395205
53.895 7.275717
53.900 7.200453
53.905 7.359917
53.910 7.958368
53.915 8.467351
53.920 8.576953
53.925 8.717979
53.930 8.715752
53.935 8.28431
53.940 8.105999
53.945 7.623904
53.950 7.408378
53.955 7.668429
53.960 7.777645
53.965 7.999406
53.970 8.348042
53.975 8.493384
53.980 8.615554
53.985 8.73696
53.990 8.468843
53.995 8.307467
54.000 7.976608
54.005 7.976767
54.010 8.330528
54.015 8.516135
54.020 8.497484
54.025 8.655059
54.030 8.935244
54.035 9.418375
54.040 9.439138
54.045 9.283313
54.050 8.974196
54.055 9.289886
54.060 9.150166
54.065 8.992473
54.070 9.106061
54.075 9.176958
54.080 9.060968
54.085 9.469517
54.090 9.235325
54.095 8.97976
54.100 8.662751
54.105 8.618974
54.110 8.923658
54.115 8.812959
54.120 8.87462
54.125 9.168137
54.130 9.27107
54.135 9.575549
54.140 9.455045
54.145 9.336689
54.150 9.433702
54.155 9.415094
54.160 9.492702
54.165 9.371825
54.170 9.343232
54.175 9.31167
54.180 9.268403
54.185 9.020529
54.190 8.672208
54.195 8.326311
54.200 8.488316
54.205 8.580325
54.210 8.713482
54.215 8.705886
54.220 8.72829
54.225 9.016047
54.230 9.49521
54.235 9.693733
54.240 9.730095
54.245 9.906056
54.250 9.977798
54.255 10.469067
54.260 10.948361
54.265 10.811244
54.270 10.82865
54.275 10.557697
54.280 10.416063
54.285 10.176182
54.290 9.80027
54.295 9.278992
54.300 8.941267
54.305 9.211421
54.310 9.173056
54.315 9.318545
54.320 9.293081
54.325 8.926595
54.330 8.932933
54.335 8.863776
54.340 8.384663
54.345 8.18901
54.350 8.250651
54.355 8.62721
54.360 9.187443
54.365 9.391011
54.370 9.325586
54.375 9.866891
54.380 10.077677
54.385 9.578885
54.390 9.206406
54.395 8.816603
54.400 8.864696
54.405 9.143042
54.410 8.474429
54.415 8.454351
54.420 8.641005
54.425 8.729856
54.430 8.608042
54.435 8.328898
54.440 8.59525
54.445 8.894737
54.450 9.17206
54.455 8.988708
54.460 9.06756
54.465 9.363029
54.470 9.301346
54.475 9.129272
54.480 8.922386
54.485 8.689601
54.490 8.733305
54.495 8.407877
54.500 8.498108
54.505 8.68897
54.510 8.728164
54.515 8.667936
54.520 8.864278
54.525 8.790244
54.530 9.028604
54.535 8.57515
54.540 8.421586
54.545 8.431154
54.550 8.42438
54.555 8.569491
54.560 9.149991
54.565 9.418163
54.570 9.535645
54.575 9.751053
54.580 9.584645
54.585 9.854324
54.590 9.97408
54.595 9.51767
54.600 9.233191
54.605 9.545287
54.610 9.397512
54.615 9.806293
54.620 9.693739
54.625 10.209462
54.630 10.203548
54.635 10.190448
54.640 9.842349
54.645 9.807214
54.650 9.630712
54.655 9.257593
54.660 9.149447
54.665 9.434506
54.670 9.848317
54.675 9.851548
54.680 9.607431
54.685 9.703389
54.690 9.540193
54.695 8.817323
54.700 8.439669
54.705 8.364154
54.710 8.774015
54.715 8.848586
54.720 8.744026
54.725 9.22576
54.730 9.553782
54.735 9.336477
54.740 8.706438
54.745 8.684306
54.750 9.232065
54.755 9.217793
54.760 8.984681
54.765 9.435166
54.770 9.976713
54.775 10.461908
54.780 10.33731
54.785 10.004053
54.790 9.933634
54.795 10.027882
54.800 9.500577
54.805 9.173148
54.810 8.867932
54.815 8.768697
54.820 8.775434
54.825 8.729232
54.830 8.888144
54.835 8.777483
54.840 9.219656
54.845 9.50723
54.850 9.792713
54.855 9.657798
54.860 10.0104
54.865 10.023792
54.870 10.342584
54.875 10.372931
54.880 10.439708
54.885 10.205939
54.890 10.48061
54.895 10.13149
54.900 9.655581
54.905 9.349237
54.910 9.24339
54.915 9.647256
54.920 9.448728
54.925 9.120458
54.930 8.892715
54.935 9.373039
54.940 9.549041
54.945 9.430575
54.950 9.261021
54.955 9.626574
54.960 9.745973
54.965 10.032694
54.970 9.937911
54.975 9.507523
54.980 9.481228
54.985 9.573133
54.990 9.439735
54.995 9.181423
55.000 9.111697
55.005 8.89787
55.010 9.141834
55.015 8.838117
55.020 8.5507
55.025 8.387564
55.030 8.250049
55.035 8.100501
55.040 8.393335
55.045 8.338679
55.050 8.322551
55.055 8.537389
55.060 8.733824
55.065 9.115819
55.070 9.357073
55.075 9.184355
55.080 9.361761
55.085 9.508701
55.090 9.408444
55.095 9.708669
55.100 9.605108
55.105 9.848498
55.110 9.874831
55.115 9.705495
55.120 10.140153
55.125 10.333642
55.130 10.68974
55.135 11.102401
55.140 11.16225
55.145 11.170665
55.150 11.050003
55.155 10.846644
55.160 10.446376
55.165 9.919771
55.170 9.671882
55.175 9.521058
55.180 9.476858
55.185 9.431837
55.190 9.470788
55.195 9.289538
55.200 9.039598
55.205 9.359435
55.210 9.606324
55.215 9.916635
55.220 9.964398
55.225 9.911061
55.230 10.325853
55.235 10.24709
55.240 9.787071
55.245 9.819381
55.250 10.029437
55.255 9.948477
55.260 9.905446
55.265 10.019708
55.270 10.170598
55.275 10.263791
55.280 9.735253
55.285 9.434067
55.290 9.489899
55.295 9.432856
55.300 9.107279
55.305 9.149901
55.310 9.43072
55.315 9.819835
55.320 9.918812
55.325 10.030663
55.330 10.080886
55.335 9.698055
55.340 9.210664
55.345 8.979007
55.350 8.745524
55.355 8.567777
55.360 8.996991
55.365 9.480064
55.370 10.043275
55.375 10.112469
55.380 9.974837
55.385 10.068499
55.390 10.089738
55.395 9.58785
55.400 9.595712
55.405 9.426033
55.410 9.598362
55.415 9.608254
55.420 9.773274
55.425 9.946757
55.430 9.9965
55.435 9.803016
55.440 9.762594
55.445 9.847459
55.450 10.345062
55.455 10.592218
55.460 10.700786
55.465 10.767809
55.470 10.736705
55.475 11.054872
55.480 10.862828
55.485 10.329217
55.490 10.234002
55.495 9.88661
55.500 9.90285
55.505 10.288558
55.510 10.282043
55.515 10.537293
55.520 10.871227
55.525 10.970411
55.530 10.87151
55.535 10.950116
55.540 10.852482
55.545 11.064075
55.550 11.156132
55.555 11.123245
55.560 11.176606
55.565 11.19313
55.570 11.223115
55.575 10.935084
55.580 10.430171
55.585 10.12706
55.590 10.073636
55.595 10.037107
55.600 9.881524
55.605 9.866047
55.610 9.914658
55.615 9.918937
55.620 10.07952
55.625 9.503098
55.630 9.635781
55.635 9.630538
55.640 9.646585
55.645 9.596613
55.650 9.815419
55.655 9.79574
55.660 10.057727
55.665 9.957654
55.670 9.909602
55.675 9.99569
55.680 10.088288
55.685 9.827044
55.690 9.536145
55.695 9.280703
55.700 9.26767
55.705 9.435778
55.710 9.35863
55.715 9.413024
55.720 9.523438
55.725 10.060658
55.730 10.16985
55.735 10.31113
55.740 10.194328
55.745 10.309293
55.750 10.173999
55.755 10.255486
55.760 9.797839
55.765 9.825412
55.770 9.795218
55.775 10.178417
55.780 10.636723
55.785 10.312472
55.790 10.277946
55.795 10.814978
55.800 10.47543
55.805 10.339931
55.810 10.051251
55.815 9.83914
55.820 10.781798
55.825 10.627177
55.830 10.908514
55.835 11.684752
55.840 11.919905
55.845 11.849566
55.850 12.021653
55.855 12.087938
55.860 12.446225
55.865 12.167488
55.870 11.593901
55.875 11.213915
55.880 11.212915
55.885 10.503114
55.890 9.720057
55.895 9.277472
55.900 9.601522
55.905 10.382369
55.910 10.995346
55.915 11.565206
55.920 12.338971
55.925 12.820283
55.930 12.961967
55.935 12.776174
55.940 12.185965
55.945 12.244802
55.950 11.877489
55.955 11.588381
55.960 11.354841
55.965 10.975507
55.970 10.676259
55.975 10.567046
55.980 9.739043
55.985 9.640741
55.990 9.184754
55.995 9.014327
56.000 9.176019
56.005 9.343605
56.010 9.354296
56.015 9.966609
56.020 9.95871
56.025 10.352476
56.030 10.698635
56.035 10.901582
56.040 10.605958
56.045 10.681705
56.050 10.583287
56.055 10.82965
56.060 10.64702
56.065 10.405811
56.070 10.57638
56.075 11.294271
56.080 11.335896
56.085 11.923629
56.090 12.072965
56.095 12.233603
56.100 12.160079
56.105 11.692786
56.110 11.136763
56.115 11.113182
56.120 10.386003
56.125 9.982174
56.130 9.855497
56.135 9.536951
56.140 9.496296
56.145 10.054862
56.150 10.313752
56.155 10.547399
56.160 10.944935
56.165 11.382255
56.170 11.930496
56.175 11.701177
56.180 11.039932
56.185 10.999473
56.190 11.454755
56.195 11.115493
56.200 10.71785
56.205 10.946332
56.210 11.266369
56.215 11.554027
56.220 11.314614
56.225 10.954087
56.230 10.99441
56.235 11.327514
56.240 11.317129
56.245 11.448156
56.250 11.356396
56.255 10.936937
56.260 10.870419
56.265 11.215532
56.270 11.373079
56.275 11.188087
56.280 11.041135
56.285 11.004673
56.290 11.278655
56.295 11.879628
56.300 11.43684
56.305 11.133484
56.310 11.37199
56.315 11.573121
56.320 11.550947
56.325 11.498941
56.330 11.173086
56.335 11.131634
56.340 11.671371
56.345 11.828614
56.350 12.083955
56.355 12.560113
56.360 12.88303
56.365 12.907176
56.370 13.455125
56.375 13.127497
56.380 12.838254
56.385 12.226614
56.390 12.030758
56.395 11.815454
56.400 11.822759
56.405 11.530108
56.410 11.453904
56.415 11.194974
56.420 11.168023
56.425 10.878058
56.430 10.3522
56.435 10.113071
56.440 9.658455
56.445 9.242698
56.450 9.295386
56.455 9.120455
56.460 9.45747
56.465 9.971133
56.470 10.338885
56.475 10.550921
56.480 10.830596
56.485 10.682235
56.490 10.534175
56.495 10.399701
56.500 9.895266
56.505 9.639258
56.510 9.733792
56.515 9.795433
56.520 9.980122
56.525 10.417762
56.530 10.547881
56.535 10.919912
56.540 11.057636
56.545 11.052497
56.550 11.213103
56.555 11.400941
56.560 11.672504
56.565 11.486619
56.570 11.599633
56.575 11.574701
56.580 11.616937
56.585 11.669305
56.590 11.311241
56.595 10.707377
56.600 10.759533
56.605 10.478416
56.610 10.43678
56.615 10.683625
56.620 10.769822
56.625 11.106717
56.630 11.453693
56.635 11.294996
56.640 11.182333
56.645 11.448306
56.650 11.376236
56.655 11.020451
56.660 11.020021
56.665 11.444104
56.670 12.209093
56.675 12.080726
56.680 11.54464
56.685 11.154055
56.690 11.170794
56.695 11.171025
56.700 10.974001
56.705 10.787666
56.710 10.712498
56.715 10.928439
56.720 11.300436
56.725 11.408265
56.730 11.892759
56.735 11.842137
56.740 11.962728
56.745 12.106445
56.750 12.560735
56.755 12.761978
56.760 12.497023
56.765 11.879235
56.770 12.410074
56.775 12.755472
56.780 12.93718
56.785 12.412093
56.790 12.346144
56.795 12.244686
56.800 11.902191
56.805 11.546069
56.810 11.604717
56.815 11.765144
56.820 12.356261
56.825 12.78137
56.830 12.825103
56.835 12.734591
56.840 12.787243
56.845 12.360498
56.850 11.757088
56.855 11.176618
56.860 11.131313
56.865 10.925961
56.870 10.731041
56.875 10.536888
56.880 10.662357
56.885 10.625344
56.890 10.320603
56.895 10.114151
56.900 10.384967
56.905 10.729635
56.910 10.691943
56.915 10.96068
56.920 11.089573
56.925 11.445234
56.930 11.415236
56.935 11.493616
56.940 11.374442
56.945 11.30128
56.950 11.312293
56.955 11.51263
56.960 11.346571
56.965 11.572083
56.970 11.726666
56.975 11.437472
56.980 11.214039
56.985 11.477626
56.990 11.69384
56.995 11.972033
57.000 12.00535
57.005 11.947804
57.010 12.145267
57.015 12.600671
57.020 12.461926
57.025 12.085943
57.030 11.85999
57.035 12.174519
57.040 12.761981
57.045 13.491913
57.050 13.290985
57.055 12.97604
57.060 13.06835
57.065 12.859944
57.070 12.918447
57.075 12.682871
57.080 12.002433
57.085 12.201801
57.090 12.503746
57.095 12.274641
57.100 12.375689
57.105 11.992038
57.110 11.869176
57.115 11.831462
57.120 11.814009
57.125 11.837335
57.130 12.159382
57.135 12.174854
57.140 11.900679
57.145 11.679238
57.150 11.536897
57.155 11.1676
57.160 10.932127
57.165 10.560868
57.170 10.261168
57.175 10.778316
57.180 11.041396
57.185 11.560218
57.190 11.754249
57.195 12.16894
57.200 12.788986
57.205 13.369658
57.210 13.636456
57.215 14.203178
57.220 14.137324
57.225 14.741921
57.230 15.01879
57.235 14.787627
57.240 14.539362
57.245 13.730097
57.250 13.261235
57.255 13.542706
57.260 13.38668
57.265 13.231521
57.270 13.602772
57.275 13.762403
57.280 13.907571
57.285 13.744514
57.290 13.26967
57.295 12.95019
57.300 12.783265
57.305 12.322018
57.310 12.127508
57.315 12.765631
57.320 13.189471
57.325 13.350362
57.330 13.891274
57.335 14.328636
57.340 14.32146
57.345 14.115036
57.350 13.77545
57.355 13.77779
57.360 13.591353
57.365 13.132008
57.370 13.293772
57.375 14.018571
57.380 14.124459
57.385 14.185455
57.390 13.796069
57.395 13.837992
57.400 14.206597
57.405 13.811031
57.410 13.382538
57.415 13.37611
57.420 13.287889
57.425 13.189344
57.430 12.81307
57.435 12.774944
57.440 12.575259
57.445 12.695988
57.450 12.321104
57.455 12.568521
57.460 13.39956
57.465 13.614032
57.470 13.375706
57.475 13.492534
57.480 13.372367
57.485 13.633121
57.490 13.206943
57.495 12.895298
57.500 12.497348
57.505 11.977119
57.510 11.960845
57.515 12.115074
57.520 11.877769
57.525 12.056018
57.530 12.412476
57.535 12.470827
57.540 12.603904
57.545 12.650154
57.550 12.535197
57.555 13.07378
57.560 12.410321
57.565 12.135488
57.570 12.549183
57.575 12.6288
57.580 12.116537
57.585 11.754351
57.590 11.388083
57.595 11.560783
57.600 11.325327
57.605 11.161714
57.610 10.954364
57.615 11.166692
57.620 11.566908
57.625 11.617046
57.630 12.133126
57.635 12.472204
57.640 12.573995
57.645 12.930044
57.650 13.174036
57.655 13.560197
57.660 13.401667
57.665 12.751778
57.670 12.366027
57.675 12.443615
57.680 12.182638
57.685 12.303324
57.690 11.673055
57.695 11.690073
57.700 11.925767
57.705 12.037035
57.710 12.090716
57.715 12.690122
57.720 13.076447
57.725 13.304701
57.730 13.909842
57.735 14.118017
57.740 13.980781
57.745 14.017181
57.750 13.147806
57.755 12.756084
57.760 13.20451
57.765 13.088202
57.770 12.666327
57.775 12.709791
57.780 12.537337
57.785 12.908152
57.790 12.927584
57.795 12.501267
57.800 11.872836
57.805 11.811233
57.810 12.089004
57.815 12.111372
57.820 12.111392
57.825 11.745011
57.830 11.565372
57.835 12.026333
57.840 12.660816
57.845 12.169548
57.850 11.952299
57.855 11.789935
57.860 12.300544
57.865 13.042466
57.870 13.050519
57.875 12.71147
57.880 13.180535
57.885 13.615391
57.890 13.475224
57.895 12.843092
57.900 12.458301
57.905 12.299466
57.910 12.406235
57.915 11.997285
57.920 12.158767
57.925 12.136563
57.930 12.143346
57.935 12.202584
57.940 12.053325
57.945 12.337185
57.950 13.194043
57.955 13.424635
57.960 13.522704
57.965 13.875444
57.970 14.139672
57.975 14.677367
57.980 13.950199
57.985 13.293796
57.990 12.907843
57.995 12.704934
58.000 12.819093
58.005 12.801984
58.010 13.174438
58.015 13.766595
58.020 14.07608
58.025 14.748848
58.030 15.181393
58.035 15.26014
58.040 14.861305
58.045 14.360696
58.050 14.252463
58.055 14.170667
58.060 14.018453
58.065 14.22118
58.070 14.289518
58.075 14.305692
58.080 13.905628
58.085 13.176595
58.090 12.481232
58.095 12.342383
58.100 11.759291
58.105 11.103786
58.110 10.763568
58.115 11.069469
58.120 12.012219
58.125 12.667008
58.130 12.981751
58.135 13.238403
58.140 13.115784
58.145 13.910492
58.150 13.929156
58.155 13.236728
58.160 12.634855
58.165 12.600751
58.170 12.660094
58.175 13.267094
58.180 12.980816
58.185 13.465343
58.190 13.829086
58.195 14.159786
58.200 13.938433
58.205 13.982782
58.210 13.601074
58.215 13.694885
58.220 12.918259
58.225 12.820398
58.230 12.195875
58.235 11.784022
58.240 12.009865
58.245 11.901908
58.250 11.994415
58.255 12.683291
58.260 12.700587
58.265 13.226695
58.270 13.575262
58.275 13.600567
58.280 14.107924
58.285 14.08093
58.290 13.947
58.295 14.107202
58.300 14.466989
58.305 15.006858
58.310 15.089191
58.315 14.950759
58.320 14.825328
58.325 14.974825
58.330 15.012658
58.335 14.890311
58.340 14.568501
58.345 14.382799
58.350 14.036508
58.355 14.304848
58.360 14.088805
58.365 13.724687
58.370 13.615428
58.375 13.591493
58.380 13.66524
58.385 13.722738
58.390 13.815564
58.395 13.554635
58.400 13.917746
58.405 13.499444
58.410 13.535873
58.415 13.798895
58.420 13.882626
58.425 13.919726
58.430 14.283177
58.435 14.145851
58.440 14.140108
58.445 14.356415
58.450 14.256572
58.455 13.848259
58.460 13.712715
58.465 14.236112
58.470 14.494515
58.475 14.082787
58.480 13.491288
58.485 13.284349
58.490 13.535505
58.495 13.477485
58.500 13.193609
58.505 12.892797
58.510 13.102076
58.515 13.109582
58.520 13.678678
58.525 14.107705
58.530 14.195636
58.535 13.888809
58.540 13.774225
58.545 13.69425
58.550 13.815125
58.555 13.109875
58.560 12.906919
58.565 12.75717
58.570 12.853921
58.575 13.07374
58.580 13.277212
