!@!!GADDS PLOTSO FILE: Chi integration type
!@!!Title/SampleName: map-162
!@!!Comment: ?
!@!!User: Bruker Instrument Administrator
!@!!Site: University of Illinois Chicago
!@!!Frame: map-162_01_000.gfrm
!@!!Wavelengths    1.54184   1.54056   1.54439
!@!!Frame angles: 2Theta: 63.000 Omega: 50.000 Phi: 0.000 Chi: 90.000
!@!!Integration range: 2Theta: 53.000 to 73.000  Gamma: -105.000 to -75.000
!@!!Integration method: bin normalized
!@!N
!@!SS
!@!M
!@!L 0.0 0.0 0.0 0.0
!@!XDegrees
!@!YCounts
53.000 4.135373
53.005 3.861619
53.010 4.282563
53.015 4.716149
53.020 4.535819
53.025 4.516131
53.030 4.836973
53.035 5.456999
53.040 5.573895
53.045 5.201271
53.050 4.903371
53.055 5.011777
53.060 4.903431
53.065 4.542838
53.070 3.961407
53.075 3.48202
53.080 3.141465
53.085 3.482756
53.090 3.736294
53.095 4.240049
53.100 4.519785
53.105 4.974831
53.110 5.453804
53.115 5.671644
53.120 5.39711
53.125 5.015765
53.130 4.750161
53.135 4.577004
53.140 4.188164
53.145 4.160968
53.150 4.167828
53.155 4.206508
53.160 4.137582
53.165 4.113005
53.170 4.34022
53.175 4.61665
53.180 4.988859
53.185 5.232997
53.190 5.407583
53.195 5.452657
53.200 5.506877
53.205 5.420606
53.210 5.310585
53.215 4.947568
53.220 4.866333
53.225 4.758955
53.230 5.308547
53.235 5.380423
53.240 5.272918
53.245 5.295657
53.250 5.356603
53.255 5.295662
53.260 5.373079
53.265 5.055847
53.270 4.958035
53.275 4.840667
53.280 4.71768
53.285 4.749919
53.290 4.850281
53.295 4.807273
53.300 5.041296
53.305 5.478403
53.310 5.801504
53.315 5.950068
53.320 5.661082
53.325 6.012544
53.330 6.071311
53.335 5.96922
53.340 5.744524
53.345 5.454547
53.350 5.595186
53.355 5.715533
53.360 5.320749
53.365 4.996826
53.370 4.622542
53.375 4.810089
53.380 4.997528
53.385 4.900174
53.390 5.239581
53.395 5.833622
53.400 6.163922
53.405 6.07707
53.410 5.970532
53.415 5.73061
53.420 5.539382
53.425 5.07631
53.430 4.427318
53.435 4.340311
53.440 4.209273
53.445 4.44658
53.450 4.605509
53.455 4.58944
53.460 4.706783
53.465 4.88366
53.470 5.255454
53.475 5.362335
53.480 4.950389
53.485 4.946948
53.490 5.197229
53.495 5.361829
53.500 5.586724
53.505 5.708673
53.510 6.089935
53.515 6.241012
53.520 6.523197
53.525 6.797695
53.530 6.665684
53.535 6.542533
53.540 6.330963
53.545 6.222694
53.550 6.166536
53.555 6.079187
53.560 5.743011
53.565 5.874333
53.570 5.555285
53.575 5.790406
53.580 5.858391
53.585 5.683972
53.590 5.547539
53.595 5.749595
53.600 5.683254
53.605 5.902893
53.610 5.649634
53.615 6.09527
53.620 6.36775
53.625 6.562564
53.630 6.378432
53.635 6.522127
53.640 6.409719
53.645 6.406231
53.650 6.116704
53.655 6.043952
53.660 6.07972
53.665 5.888853
53.670 5.840673
53.675 5.772825
53.680 5.742748
53.685 5.654878
53.690 5.30874
53.695 4.946989
53.700 4.893149
53.705 5.048678
53.710 4.964414
53.715 4.767099
53.720 4.938387
53.725 5.241565
53.730 5.174109
53.735 5.2518
53.740 5.183834
53.745 5.576171
53.750 5.705908
53.755 5.659473
53.760 5.654115
53.765 6.333174
53.770 6.291575
53.775 6.129582
53.780 6.015798
53.785 6.104964
53.790 6.361633
53.795 6.286893
53.800 6.095994
53.805 6.120021
53.810 6.032287
53.815 5.526518
53.820 5.447927
53.825 5.859522
53.830 5.739578
53.835 5.557746
53.840 5.603278
53.845 5.976371
53.850 6.289699
53.855 5.976858
53.860 5.539005
53.865 5.760463
53.870 6.003684
53.875 5.923666
53.880 5.947515
53.885 5.89187
53.890 6.045678
53.895 6.155978
53.900 5.99656
53.905 6.147953
53.910 6.347927
53.915 6.174313
53.920 6.051026
53.925 5.687627
53.930 5.483705
53.935 5.779238
53.940 5.51205
53.945 5.209539
53.950 5.596311
53.955 6.089472
53.960 6.509772
53.965 6.324797
53.970 6.149325
53.975 6.358096
53.980 6.652345
53.985 6.020689
53.990 5.724594
53.995 5.962976
54.000 5.853892
54.005 5.775652
54.010 5.95693
54.015 5.771764
54.020 5.796167
54.025 5.938378
54.030 6.077444
54.035 6.304358
54.040 5.994103
54.045 5.608745
54.050 6.014873
54.055 6.252913
54.060 6.112038
54.065 6.149078
54.070 6.143148
54.075 6.304822
54.080 6.465036
54.085 6.099245
54.090 5.898095
54.095 5.848091
54.100 5.744856
54.105 5.818493
54.110 5.526798
54.115 5.436286
54.120 5.455935
54.125 5.698843
54.130 5.634461
54.135 5.664022
54.140 5.8514
54.145 6.244865
54.150 6.440008
54.155 6.287908
54.160 6.025321
54.165 5.695019
54.170 5.460271
54.175 5.249615
54.180 5.349599
54.185 5.723775
54.190 5.596605
54.195 5.773972
54.200 6.205853
54.205 6.770299
54.210 6.855809
54.215 6.618404
54.220 6.082912
54.225 6.18322
54.230 5.90397
54.235 5.66884
54.240 5.162791
54.245 4.696955
54.250 4.557227
54.255 4.607607
54.260 4.634786
54.265 4.581615
54.270 4.762935
54.275 4.806592
54.280 4.96508
54.285 5.442681
54.290 5.739866
54.295 6.122935
54.300 6.238228
54.305 6.401884
54.310 6.605721
54.315 6.539599
54.320 6.645807
54.325 6.611409
54.330 6.575833
54.335 6.534942
54.340 6.267665
54.345 6.3725
54.350 6.300688
54.355 6.030411
54.360 5.82427
54.365 5.597165
54.370 5.753681
54.375 5.605685
54.380 5.82202
54.385 5.886907
54.390 5.855761
54.395 5.96795
54.400 5.817217
54.405 5.433504
54.410 5.580539
54.415 5.2424
54.420 5.649344
54.425 5.714188
54.430 6.054824
54.435 6.626946
54.440 6.801331
54.445 6.885521
54.450 6.927784
54.455 6.788226
54.460 7.088295
54.465 6.634779
54.470 6.236913
54.475 5.911537
54.480 5.781822
54.485 5.673969
54.490 5.491574
54.495 5.100222
54.500 5.311813
54.505 5.318707
54.510 5.652104
54.515 6.123638
54.520 6.100862
54.525 6.101193
54.530 5.935694
54.535 5.72228
54.540 5.424188
54.545 5.248545
54.550 4.885068
54.555 4.729183
54.560 4.689344
54.565 4.808167
54.570 5.157703
54.575 5.671691
54.580 5.946229
54.585 6.438812
54.590 6.830194
54.595 6.808308
54.600 6.669247
54.605 6.736604
54.610 6.606959
54.615 6.076733
54.620 5.689563
54.625 5.779589
54.630 5.861276
54.635 5.813055
54.640 5.70879
54.645 5.711993
54.650 6.304409
54.655 6.120765
54.660 5.917808
54.665 5.775287
54.670 5.690066
54.675 5.682358
54.680 5.614793
54.685 5.464365
54.690 5.440082
54.695 5.667833
54.700 5.952166
54.705 5.785737
54.710 5.767538
54.715 5.585854
54.720 5.41252
54.725 5.556568
54.730 5.33867
54.735 5.406387
54.740 5.656484
54.745 5.47047
54.750 5.290165
54.755 5.547167
54.760 5.385518
54.765 5.640214
54.770 5.480721
54.775 5.517683
54.780 5.81163
54.785 6.053678
54.790 5.928775
54.795 6.166687
54.800 6.282075
54.805 6.484606
54.810 6.512058
54.815 6.736979
54.820 6.631029
54.825 6.442507
54.830 6.176053
54.835 6.145999
54.840 6.020095
54.845 6.186733
54.850 6.100318
54.855 6.268792
54.860 6.172132
54.865 6.511416
54.870 6.544318
54.875 6.653833
54.880 6.362799
54.885 6.033463
54.890 5.941237
54.895 5.830889
54.900 5.348839
54.905 5.151279
54.910 5.009554
54.915 5.883864
54.920 6.355616
54.925 6.580212
54.930 6.716689
54.935 6.601107
54.940 6.682232
54.945 6.320477
54.950 5.802999
54.955 5.957524
54.960 6.179701
54.965 6.481757
54.970 6.724753
54.975 6.596622
54.980 6.499578
54.985 6.419919
54.990 6.152774
54.995 5.941562
55.000 5.999754
55.005 6.170442
55.010 6.517293
55.015 6.663261
55.020 6.571774
55.025 6.693251
55.030 6.752389
55.035 6.525314
55.040 6.3234
55.045 6.244776
55.050 6.114527
55.055 6.570547
55.060 6.665674
55.065 6.869997
55.070 7.251187
55.075 7.313224
55.080 7.397038
55.085 7.185292
55.090 6.680748
55.095 6.728767
55.100 6.209501
55.105 5.956287
55.110 5.982178
55.115 5.95338
55.120 6.048428
55.125 5.899135
55.130 5.672756
55.135 5.92065
55.140 5.72189
55.145 5.61492
55.150 5.639261
55.155 5.59018
55.160 5.644733
55.165 5.665271
55.170 5.856185
55.175 5.858563
55.180 5.872875
55.185 5.883416
55.190 6.212024
55.195 6.568119
55.200 6.852052
55.205 7.020962
55.210 7.323524
55.215 7.513515
55.220 7.491634
55.225 7.287278
55.230 6.978541
55.235 6.356668
55.240 6.0708
55.245 6.029316
55.250 6.164261
55.255 5.944461
55.260 5.797246
55.265 5.894251
55.270 6.440926
55.275 6.789256
55.280 6.789099
55.285 6.538324
55.290 6.782885
55.295 6.8999
55.300 6.865181
55.305 6.283613
55.310 6.091883
55.315 6.010438
55.320 5.965849
55.325 5.594511
55.330 5.329224
55.335 5.515598
55.340 5.932553
55.345 5.775581
55.350 5.718761
55.355 5.827239
55.360 6.061443
55.365 5.878403
55.370 5.462244
55.375 5.17135
55.380 5.088305
55.385 5.268888
55.390 5.235218
55.395 5.035506
55.400 5.126049
55.405 5.590828
55.410 5.957505
55.415 6.386657
55.420 6.22421
55.425 6.558396
55.430 6.895646
55.435 7.202412
55.440 6.924355
55.445 6.854219
55.450 6.554497
55.455 6.603634
55.460 6.431111
55.465 6.618236
55.470 6.617852
55.475 6.601532
55.480 6.43539
55.485 6.530097
55.490 6.825801
55.495 6.743265
55.500 6.221466
55.505 6.27751
55.510 6.195788
55.515 5.968347
55.520 5.880462
55.525 5.810836
55.530 5.833075
55.535 6.068051
55.540 5.65183
55.545 5.612054
55.550 6.04725
55.555 6.009942
55.560 5.853057
55.565 6.051225
55.570 5.959722
55.575 6.179695
55.580 6.306548
55.585 5.968549
55.590 5.823672
55.595 5.777153
55.600 6.161947
55.605 6.159771
55.610 6.241693
55.615 6.354431
55.620 6.693974
55.625 7.083154
55.630 7.436216
55.635 7.336633
55.640 7.472689
55.645 7.445249
55.650 7.35568
55.655 7.441059
55.660 6.972006
55.665 6.344195
55.670 6.129725
55.675 6.11485
55.680 6.261965
55.685 6.445446
55.690 6.444791
55.695 6.720296
55.700 6.753657
55.705 6.880428
55.710 6.86697
55.715 6.615972
55.720 6.456
55.725 6.075227
55.730 6.12638
55.735 6.425986
55.740 6.023553
55.745 5.8143
55.750 5.971169
55.755 5.691721
55.760 6.264928
55.765 6.20571
55.770 6.23509
55.775 6.339677
55.780 6.394726
55.785 6.399733
55.790 6.384431
55.795 6.292676
55.800 6.167404
55.805 6.151134
55.810 6.424597
55.815 6.759756
55.820 6.841002
55.825 6.859171
55.830 6.932255
55.835 6.845396
55.840 6.689365
55.845 6.489146
55.850 6.47204
55.855 6.659393
55.860 6.747254
55.865 6.321798
55.870 6.281625
55.875 6.364742
55.880 6.409674
55.885 6.530106
55.890 6.533921
55.895 6.37544
55.900 6.717422
55.905 7.12929
55.910 7.149227
55.915 7.105896
55.920 6.634223
55.925 6.644694
55.930 6.774661
55.935 6.764924
55.940 6.371806
55.945 6.333827
55.950 5.796199
55.955 5.754037
55.960 5.541286
55.965 5.385426
55.970 5.357729
55.975 5.558106
55.980 5.770689
55.985 6.209733
55.990 6.467635
55.995 6.482504
56.000 6.822846
56.005 7.016842
56.010 6.694168
56.015 6.459381
56.020 6.260834
56.025 5.906176
56.030 5.823847
56.035 5.704563
56.040 5.522607
56.045 5.536028
56.050 5.849755
56.055 5.871527
56.060 6.321542
56.065 6.477252
56.070 6.535255
56.075 6.894797
56.080 7.317676
56.085 7.157133
56.090 7.159374
56.095 6.770281
56.100 6.582717
56.105 6.752007
56.110 6.376203
56.115 6.403137
56.120 6.450477
56.125 6.531532
56.130 6.658012
56.135 6.63285
56.140 6.569507
56.145 6.788722
56.150 6.699568
56.155 6.851042
56.160 6.724136
56.165 6.866806
56.170 6.643309
56.175 6.551404
56.180 6.383976
56.185 6.238643
56.190 6.151026
56.195 6.269613
56.200 5.996942
56.205 6.285335
56.210 6.196492
56.215 6.001293
56.220 5.86975
56.225 5.827356
56.230 6.26792
56.235 6.317751
56.240 6.205357
56.245 6.410263
56.250 6.328828
56.255 6.658854
56.260 6.614401
56.265 6.694045
56.270 7.27222
56.275 7.202855
56.280 7.202322
56.285 7.680837
56.290 7.89852
56.295 7.848638
56.300 7.179426
56.305 6.858771
56.310 6.987763
56.315 7.086815
56.320 6.841983
56.325 6.836549
56.330 6.440475
56.335 6.940684
56.340 7.050023
56.345 7.23939
56.350 7.207524
56.355 7.09344
56.360 7.514153
56.365 7.669392
56.370 7.040534
56.375 6.89069
56.380 6.746114
56.385 6.708746
56.390 6.441698
56.395 5.898864
56.400 6.48333
56.405 7.040846
56.410 7.021669
56.415 6.793359
56.420 6.853206
56.425 6.82866
56.430 7.28736
56.435 7.154211
56.440 6.987764
56.445 7.28426
56.450 7.952759
56.455 8.088022
56.460 8.40739
56.465 8.01333
56.470 7.629932
56.475 7.822313
56.480 7.625498
56.485 7.42705
56.490 7.417445
56.495 7.120311
56.500 7.321362
56.505 7.691266
56.510 7.271395
56.515 7.390285
56.520 7.369081
56.525 7.250049
56.530 7.229809
56.535 7.111763
56.540 6.735523
56.545 7.022336
56.550 6.939435
56.555 7.052654
56.560 7.343199
56.565 7.643367
56.570 7.808474
56.575 8.212145
56.580 7.920237
56.585 7.74768
56.590 7.697214
56.595 7.46882
56.600 7.144621
56.605 6.930873
56.610 6.605232
56.615 6.560044
56.620 6.592081
56.625 6.782932
56.630 6.894657
56.635 7.011328
56.640 7.373005
56.645 7.797647
56.650 7.782083
56.655 7.770665
56.660 7.841969
56.665 8.477613
56.670 8.454584
56.675 8.253701
56.680 8.217573
56.685 8.741754
56.690 8.970888
56.695 8.784824
56.700 8.619864
56.705 8.685954
56.710 8.606556
56.715 8.326025
56.720 8.032412
56.725 7.569015
56.730 7.143638
56.735 6.909994
56.740 6.580959
56.745 6.610297
56.750 6.558838
56.755 6.536609
56.760 6.772067
56.765 6.770358
56.770 6.637773
56.775 6.618897
56.780 6.636904
56.785 6.725809
56.790 6.745293
56.795 6.885548
56.800 6.880752
56.805 6.946582
56.810 6.88043
56.815 6.641077
56.820 6.8533
56.825 6.935332
56.830 6.598323
56.835 6.375556
56.840 6.379465
56.845 6.829463
56.850 7.270526
56.855 7.1006
56.860 6.861568
56.865 6.979582
56.870 6.936162
56.875 6.9805
56.880 6.698165
56.885 6.627475
56.890 6.803993
56.895 7.074776
56.900 7.244346
56.905 7.447323
56.910 7.720895
56.915 7.672533
56.920 7.331238
56.925 6.836416
56.930 6.589059
56.935 6.613472
56.940 6.650295
56.945 6.416497
56.950 6.268607
56.955 6.294781
56.960 6.461578
56.965 6.598643
56.970 6.700757
56.975 6.358943
56.980 6.587872
56.985 7.064607
56.990 7.083643
56.995 7.537882
57.000 7.297895
57.005 7.434078
57.010 8.124951
57.015 7.506215
57.020 7.205215
57.025 7.425506
57.030 7.185641
57.035 7.261606
57.040 6.975871
57.045 6.60171
57.050 6.669702
57.055 6.461016
57.060 6.497557
57.065 6.596489
57.070 6.690011
57.075 6.587784
57.080 6.791533
57.085 7.003251
57.090 7.017505
57.095 6.508772
57.100 6.082754
57.105 6.009253
57.110 6.133713
57.115 5.814906
57.120 5.894865
57.125 5.956471
57.130 6.168376
57.135 6.557923
57.140 6.601143
57.145 6.70438
57.150 6.760183
57.155 6.563759
57.160 6.50858
57.165 6.434545
57.170 6.712067
57.175 6.950894
57.180 6.654033
57.185 6.612118
57.190 7.046022
57.195 7.217658
57.200 7.669704
57.205 7.264774
57.210 7.250937
57.215 7.426331
57.220 7.801346
57.225 7.534193
57.230 7.205716
57.235 6.803195
57.240 6.866719
57.245 6.939411
57.250 6.702121
57.255 6.533323
57.260 6.572151
57.265 6.660017
57.270 6.639043
57.275 6.812655
57.280 6.693191
57.285 6.692431
57.290 7.103274
57.295 7.200866
57.300 7.283753
57.305 7.532068
57.310 7.514145
57.315 7.864757
57.320 7.860592
57.325 7.32005
57.330 7.999057
57.335 8.250534
57.340 8.040873
57.345 7.803161
57.350 7.149578
57.355 7.519766
57.360 7.355725
57.365 6.789408
57.370 6.732532
57.375 6.33542
57.380 6.359715
57.385 7.018129
57.390 6.833477
57.395 7.042835
57.400 6.822763
57.405 6.727216
57.410 6.996008
57.415 6.861593
57.420 6.445424
57.425 6.299306
57.430 6.383887
57.435 6.454492
57.440 6.566039
57.445 6.604241
57.450 6.529571
57.455 6.545622
57.460 6.759272
57.465 6.706931
57.470 6.802964
57.475 6.474913
57.480 6.271986
57.485 6.406554
57.490 6.825737
57.495 6.736259
57.500 6.625856
57.505 6.539365
57.510 6.809891
57.515 7.001376
57.520 6.757021
57.525 6.523638
57.530 6.536615
57.535 6.627701
57.540 6.788674
57.545 6.634681
57.550 6.495848
57.555 6.503065
57.560 6.33731
57.565 6.458558
57.570 6.613317
57.575 6.745318
57.580 6.872393
57.585 7.025485
57.590 6.950607
57.595 7.030779
57.600 6.676624
57.605 6.869624
57.610 6.628673
57.615 6.856364
57.620 6.711612
57.625 6.617836
57.630 6.559291
57.635 6.919168
57.640 6.852292
57.645 6.985591
57.650 6.803208
57.655 7.180459
57.660 7.704144
57.665 7.789168
57.670 7.631511
57.675 6.935153
57.680 6.882607
57.685 7.027634
57.690 6.919705
57.695 7.384194
57.700 7.238631
57.705 7.649824
57.710 8.059062
57.715 7.882916
57.720 7.820024
57.725 7.741939
57.730 7.059086
57.735 6.692788
57.740 6.058877
57.745 6.048921
57.750 6.229409
57.755 6.069479
57.760 5.667008
57.765 5.9377
57.770 6.242642
57.775 6.612985
57.780 6.356498
57.785 6.199797
57.790 6.691397
57.795 6.864127
57.800 6.459971
57.805 6.35189
57.810 6.398902
57.815 7.082313
57.820 7.177161
57.825 7.087825
57.830 7.077048
57.835 7.393196
57.840 7.360061
57.845 7.108013
57.850 6.82253
57.855 6.920969
57.860 6.907496
57.865 7.298012
57.870 7.572978
57.875 7.945734
57.880 7.736078
57.885 7.602431
57.890 7.448277
57.895 7.193552
57.900 6.764078
57.905 6.511997
57.910 6.198676
57.915 6.551347
57.920 6.51238
57.925 6.312415
57.930 6.432385
57.935 6.528497
57.940 6.457148
57.945 6.94037
57.950 6.96304
57.955 7.065906
57.960 7.440096
57.965 7.763483
57.970 8.168578
57.975 7.968948
57.980 7.48075
57.985 7.285497
57.990 7.030406
57.995 6.756953
58.000 6.09498
58.005 5.573073
58.010 5.797698
58.015 6.407682
58.020 6.722036
58.025 7.177057
58.030 7.547413
58.035 7.689308
58.040 7.926444
58.045 7.88584
58.050 7.381811
58.055 7.003247
58.060 6.720324
58.065 6.421825
58.070 6.36671
58.075 6.655683
58.080 6.824584
58.085 7.183653
58.090 7.338398
58.095 7.350747
58.100 7.559386
58.105 7.505211
58.110 7.129074
58.115 6.739587
58.120 6.631886
58.125 6.357629
58.130 6.271591
58.135 6.232349
58.140 6.654969
58.145 6.878016
58.150 7.035435
58.155 6.832587
58.160 6.973622
58.165 7.129745
58.170 7.448158
58.175 7.460606
58.180 7.262643
58.185 7.489268
58.190 7.638246
58.195 7.791871
58.200 7.691966
58.205 7.350525
58.210 7.378936
58.215 7.853427
58.220 7.928687
58.225 7.833541
58.230 7.588795
58.235 7.406525
58.240 7.496878
58.245 7.141447
58.250 6.741642
58.255 7.096543
58.260 7.269455
58.265 7.243316
58.270 7.399305
58.275 7.420485
58.280 7.259927
58.285 7.167183
58.290 7.092128
58.295 7.154408
58.300 7.404874
58.305 7.502754
58.310 7.579683
58.315 7.568989
58.320 7.744749
58.325 7.478994
58.330 7.51856
58.335 7.872952
58.340 7.908212
58.345 8.054315
58.350 8.247251
58.355 7.852906
58.360 7.646152
58.365 7.893969
58.370 7.696777
58.375 7.719245
58.380 7.694575
58.385 7.594836
58.390 7.581735
58.395 7.955614
58.400 7.380866
58.405 7.238108
58.410 7.155706
58.415 7.06172
58.420 7.38876
58.425 7.441696
58.430 7.200039
58.435 7.190187
58.440 7.161191
58.445 7.14948
58.450 7.288623
58.455 7.040644
58.460 7.25364
58.465 7.459425
58.470 7.350408
58.475 7.068101
58.480 6.747516
58.485 6.730992
58.490 7.101792
58.495 6.867158
58.500 6.740658
58.505 6.923831
58.510 7.258645
58.515 7.512914
58.520 7.418151
58.525 7.33513
58.530 7.677587
58.535 7.825847
58.540 7.868685
58.545 7.702298
58.550 7.357648
58.555 7.289794
58.560 6.893075
58.565 6.43504
58.570 6.359694
58.575 6.423599
58.580 6.358978
58.585 6.557015
58.590 6.826894
58.595 7.076319
58.600 7.153433
58.605 7.010688
58.610 7.151542
58.615 7.248207
58.620 7.180816
58.625 6.772666
58.630 6.488938
58.635 6.859824
58.640 7.054724
58.645 7.011208
58.650 7.304619
58.655 7.291902
58.660 7.585931
58.665 7.854616
58.670 7.557842
58.675 7.82011
58.680 8.08877
58.685 7.823165
58.690 7.651796
58.695 7.684893
58.700 7.960454
58.705 8.008249
58.710 7.872566
58.715 7.549423
58.720 7.634232
58.725 8.241005
58.730 8.143291
58.735 8.065197
58.740 8.052235
58.745 7.712595
58.750 7.513952
58.755 7.478181
58.760 7.185149
