!@!!GADDS PLOTSO FILE: Chi integration type
!@!!Title/SampleName: map-108
!@!!Comment: ?
!@!!User: Bruker Instrument Administrator
!@!!Site: University of Illinois Chicago
!@!!Frame: map-108_01_000.gfrm
!@!!Wavelengths    1.54184   1.54056   1.54439
!@!!Frame angles: 2Theta: 63.000 Omega: 50.000 Phi: 0.000 Chi: 90.000
!@!!Integration range: 2Theta: 53.000 to 73.000  Gamma: -105.000 to -75.000
!@!!Integration method: bin normalized
!@!N
!@!SS
!@!M
!@!L 0.0 0.0 0.0 0.0
!@!XDegrees
!@!YCounts
53.000 8.52187
53.005 8.32578
53.010 8.522912
53.015 8.28697
53.020 8.533546
53.025 9.123583
53.030 9.079189
53.035 9.334515
53.040 9.445283
53.045 9.281397
53.050 9.427494
53.055 8.747052
53.060 8.360306
53.065 8.054268
53.070 7.595378
53.075 7.594502
53.080 7.67157
53.085 8.040774
53.090 8.320536
53.095 8.449575
53.100 8.847988
53.105 9.325325
53.110 9.791757
53.115 9.898192
53.120 9.647961
53.125 9.39233
53.130 9.038355
53.135 8.838389
53.140 8.586712
53.145 7.79132
53.150 7.710025
53.155 7.742336
53.160 8.192164
53.165 8.31322
53.170 8.251413
53.175 8.577275
53.180 8.951575
53.185 9.249032
53.190 9.248551
53.195 9.087721
53.200 9.352686
53.205 9.446798
53.210 9.391258
53.215 9.770334
53.220 10.287073
53.225 10.312693
53.230 10.463777
53.235 10.495365
53.240 10.586634
53.245 10.360007
53.250 9.711216
53.255 9.465656
53.260 9.642696
53.265 9.409986
53.270 9.292681
53.275 9.636985
53.280 9.706393
53.285 9.430796
53.290 9.201733
53.295 9.284685
53.300 9.482734
53.305 9.380812
53.310 9.299453
53.315 9.276769
53.320 8.927108
53.325 8.814722
53.330 8.531798
53.335 8.974351
53.340 8.511039
53.345 8.341969
53.350 8.701197
53.355 9.371418
53.360 9.769551
53.365 10.113406
53.370 10.254763
53.375 10.3001
53.380 10.133542
53.385 9.614657
53.390 9.552917
53.395 9.527235
53.400 9.136622
53.405 9.391149
53.410 9.653434
53.415 9.788962
53.420 9.579352
53.425 9.592819
53.430 9.696595
53.435 9.417475
53.440 9.300449
53.445 9.340214
53.450 9.967544
53.455 10.762929
53.460 10.375316
53.465 10.302125
53.470 10.473924
53.475 10.744111
53.480 10.627205
53.485 10.893172
53.490 10.605573
53.495 10.786158
53.500 10.542396
53.505 10.410463
53.510 10.116979
53.515 9.840574
53.520 9.492392
53.525 9.626786
53.530 9.527139
53.535 9.97491
53.540 10.256846
53.545 10.082231
53.550 10.317974
53.555 10.156019
53.560 10.171928
53.565 10.466646
53.570 9.981135
53.575 9.926643
53.580 9.971447
53.585 9.421646
53.590 9.521462
53.595 9.477525
53.600 8.975771
53.605 8.859784
53.610 8.287576
53.615 8.411838
53.620 8.429454
53.625 8.535897
53.630 8.556731
53.635 8.761292
53.640 8.824661
53.645 9.550319
53.650 10.054944
53.655 10.208327
53.660 10.31576
53.665 10.276733
53.670 10.280853
53.675 10.357828
53.680 9.917375
53.685 9.804335
53.690 9.573846
53.695 9.291438
53.700 9.601181
53.705 9.70009
53.710 9.757409
53.715 9.661918
53.720 9.354544
53.725 9.605589
53.730 10.180983
53.735 10.255459
53.740 10.403462
53.745 10.233036
53.750 10.401192
53.755 10.359628
53.760 10.331621
53.765 9.678839
53.770 9.387075
53.775 9.435478
53.780 9.812484
53.785 9.62524
53.790 9.92387
53.795 9.888008
53.800 10.120857
53.805 10.357347
53.810 10.009863
53.815 9.798446
53.820 9.855792
53.825 10.045157
53.830 10.08751
53.835 10.293765
53.840 10.147159
53.845 10.289926
53.850 10.195422
53.855 10.070539
53.860 9.603008
53.865 9.758684
53.870 9.721954
53.875 9.859454
53.880 10.259047
53.885 10.484982
53.890 11.148017
53.895 11.184982
53.900 10.487469
53.905 10.089005
53.910 10.109463
53.915 9.905158
53.920 9.785912
53.925 9.512664
53.930 9.578835
53.935 10.056179
53.940 10.642727
53.945 10.603988
53.950 10.351424
53.955 10.763278
53.960 11.114615
53.965 11.360774
53.970 11.094624
53.975 10.791533
53.980 11.188381
53.985 11.688733
53.990 11.310587
53.995 11.44437
54.000 11.209424
54.005 11.619982
54.010 11.667315
54.015 11.314793
54.020 10.777939
54.025 10.882162
54.030 10.695099
54.035 11.098948
54.040 11.059689
54.045 10.887619
54.050 11.108734
54.055 11.071656
54.060 11.236064
54.065 11.314418
54.070 10.578301
54.075 10.771338
54.080 10.910527
54.085 11.021693
54.090 10.732333
54.095 10.217624
54.100 10.278378
54.105 10.561504
54.110 10.291548
54.115 10.54944
54.120 10.68249
54.125 11.0166
54.130 11.041183
54.135 11.27449
54.140 10.843496
54.145 10.567383
54.150 9.988508
54.155 10.109226
54.160 10.501448
54.165 10.70308
54.170 10.39438
54.175 10.594443
54.180 10.448481
54.185 10.1574
54.190 9.819452
54.195 9.239264
54.200 9.33788
54.205 9.562441
54.210 9.804128
54.215 9.815826
54.220 9.990869
54.225 10.079139
54.230 9.992728
54.235 9.574142
54.240 9.529493
54.245 9.632992
54.250 10.270389
54.255 10.36454
54.260 10.118625
54.265 10.287356
54.270 10.689763
54.275 10.54418
54.280 10.362579
54.285 10.501342
54.290 11.031281
54.295 10.93904
54.300 10.479584
54.305 10.371841
54.310 10.248806
54.315 10.104061
54.320 9.885243
54.325 9.774614
54.330 9.959726
54.335 10.545858
54.340 11.179364
54.345 11.650504
54.350 11.780516
54.355 12.024053
54.360 11.786388
54.365 11.637757
54.370 10.889136
54.375 10.378254
54.380 10.417695
54.385 9.81866
54.390 9.365088
54.395 9.553026
54.400 9.982443
54.405 10.393478
54.410 10.236198
54.415 10.300619
54.420 10.668102
54.425 11.17485
54.430 11.216434
54.435 11.240816
54.440 11.366441
54.445 11.141806
54.450 11.188228
54.455 11.284843
54.460 11.293361
54.465 11.027802
54.470 10.818686
54.475 10.543274
54.480 10.612096
54.485 10.495029
54.490 10.565922
54.495 10.449441
54.500 10.861421
54.505 11.237534
54.510 12.251455
54.515 12.630255
54.520 12.800808
54.525 12.895178
54.530 12.930904
54.535 12.784022
54.540 12.065948
54.545 11.473119
54.550 11.355849
54.555 10.97907
54.560 10.906895
54.565 10.682652
54.570 10.678595
54.575 10.692394
54.580 10.407103
54.585 10.396586
54.590 10.385832
54.595 10.005101
54.600 10.102637
54.605 10.515477
54.610 11.252861
54.615 11.686695
54.620 11.675946
54.625 11.482549
54.630 11.686452
54.635 11.957135
54.640 11.606017
54.645 10.966044
54.650 10.567204
54.655 10.865601
54.660 11.281466
54.665 10.984025
54.670 10.08086
54.675 9.548554
54.680 9.76126
54.685 10.061621
54.690 10.027966
54.695 10.245732
54.700 10.544631
54.705 11.319746
54.710 12.097546
54.715 12.043309
54.720 11.939532
54.725 11.627108
54.730 11.709994
54.735 12.049028
54.740 12.105483
54.745 11.631905
54.750 11.619891
54.755 11.736406
54.760 11.573077
54.765 11.68459
54.770 11.70849
54.775 11.413333
54.780 11.58756
54.785 11.003431
54.790 10.917492
54.795 10.971172
54.800 10.67405
54.805 10.348126
54.810 10.477847
54.815 10.459995
54.820 11.18807
54.825 11.429997
54.830 11.223135
54.835 11.064321
54.840 11.132176
54.845 11.019385
54.850 11.068616
54.855 10.798446
54.860 10.795614
54.865 10.681496
54.870 10.631128
54.875 11.159081
54.880 11.414323
54.885 11.051294
54.890 10.812128
54.895 11.132998
54.900 11.497747
54.905 11.431252
54.910 10.971832
54.915 11.304026
54.920 11.614223
54.925 11.670131
54.930 11.607691
54.935 11.608277
54.940 11.592495
54.945 11.432959
54.950 11.468523
54.955 11.691712
54.960 11.839805
54.965 11.643594
54.970 11.585883
54.975 11.817196
54.980 11.765908
54.985 11.571938
54.990 11.254761
54.995 11.573511
55.000 12.029725
55.005 12.683501
55.010 12.656275
55.015 13.250134
55.020 13.28567
55.025 13.194639
55.030 12.370196
55.035 11.625771
55.040 11.471671
55.045 11.200727
55.050 10.873275
55.055 10.842504
55.060 10.645439
55.065 11.247151
55.070 11.736216
55.075 11.613243
55.080 11.570778
55.085 11.514655
55.090 11.991044
55.095 12.594019
55.100 12.23527
55.105 11.774405
55.110 11.855033
55.115 11.956215
55.120 12.196272
55.125 12.205273
55.130 12.104622
55.135 12.224543
55.140 12.078607
55.145 12.016968
55.150 11.955979
55.155 11.510188
55.160 11.362993
55.165 11.46166
55.170 12.181619
55.175 12.821461
55.180 13.06676
55.185 13.387774
55.190 13.50526
55.195 12.979565
55.200 12.258965
55.205 11.600006
55.210 11.069553
55.215 10.930567
55.220 10.858599
55.225 10.520236
55.230 10.93351
55.235 11.385273
55.240 11.222136
55.245 11.195236
55.250 11.07157
55.255 11.243324
55.260 11.652922
55.265 11.339629
55.270 11.440539
55.275 11.814254
55.280 11.807168
55.285 11.480187
55.290 11.321333
55.295 11.208094
55.300 11.527738
55.305 11.450528
55.310 11.324376
55.315 11.283427
55.320 11.537798
55.325 12.040374
55.330 12.178182
55.335 11.951133
55.340 11.654652
55.345 11.652495
55.350 11.796883
55.355 11.353402
55.360 10.755387
55.365 10.688857
55.370 10.356934
55.375 10.450809
55.380 10.878215
55.385 10.831228
55.390 10.631669
55.395 11.190439
55.400 11.42579
55.405 11.510923
55.410 11.476904
55.415 11.033974
55.420 10.965441
55.425 11.66471
55.430 11.648486
55.435 11.996318
55.440 12.18527
55.445 11.989354
55.450 12.279462
55.455 12.64635
55.460 12.138436
55.465 11.888252
55.470 11.70368
55.475 12.106121
55.480 12.528139
55.485 13.05074
55.490 13.705232
55.495 13.539413
55.500 12.976575
55.505 13.101097
55.510 13.161554
55.515 12.860648
55.520 11.83857
55.525 11.032148
55.530 11.097005
55.535 11.376079
55.540 11.473797
55.545 11.227293
55.550 11.323975
55.555 12.155751
55.560 12.699011
55.565 13.217267
55.570 13.02829
55.575 12.573011
55.580 13.038024
55.585 12.855269
55.590 12.116772
55.595 11.366514
55.600 10.911075
55.605 10.647273
55.610 10.385099
55.615 10.041599
55.620 9.980839
55.625 10.155918
55.630 10.384954
55.635 10.273332
55.640 10.449153
55.645 10.95889
55.650 11.182613
55.655 11.33968
55.660 11.390159
55.665 11.349975
55.670 11.819452
55.675 12.020203
55.680 11.5136
55.685 11.10867
55.690 11.131839
55.695 11.104792
55.700 11.671595
55.705 11.253434
55.710 11.193304
55.715 11.407248
55.720 12.068362
55.725 12.061039
55.730 12.165001
55.735 11.95406
55.740 12.590878
55.745 12.66808
55.750 12.731744
55.755 12.912994
55.760 13.213412
55.765 13.772396
55.770 13.274069
55.775 12.737016
55.780 12.624263
55.785 12.753358
55.790 12.185019
55.795 12.229901
55.800 11.814379
55.805 11.787668
55.810 12.115691
55.815 12.416009
55.820 12.156041
55.825 11.937709
55.830 11.399183
55.835 11.847104
55.840 12.356472
55.845 12.05503
55.850 12.202314
55.855 12.328709
55.860 12.373547
55.865 12.487118
55.870 12.056189
55.875 11.524369
55.880 11.380713
55.885 11.092961
55.890 10.845823
55.895 11.33835
55.900 11.572372
55.905 11.693339
55.910 11.869957
55.915 12.535976
55.920 12.963088
55.925 13.396211
55.930 13.304729
55.935 13.228452
55.940 13.238734
55.945 12.903335
55.950 12.311358
55.955 11.640954
55.960 11.271259
55.965 10.895391
55.970 10.81452
55.975 10.645028
55.980 10.839224
55.985 10.910749
55.990 11.223624
55.995 11.50919
56.000 11.958567
56.005 12.337313
56.010 12.851896
56.015 13.29078
56.020 13.65411
56.025 13.612821
56.030 13.077054
56.035 13.045165
56.040 12.737783
56.045 12.18217
56.050 11.746481
56.055 11.633193
56.060 11.383235
56.065 11.443994
56.070 10.791437
56.075 10.921427
56.080 11.267432
56.085 11.187844
56.090 11.768981
56.095 12.378365
56.100 12.420467
56.105 12.793618
56.110 12.627131
56.115 12.383589
56.120 11.700649
56.125 10.872147
56.130 10.722963
56.135 10.861732
56.140 11.035666
56.145 11.65169
56.150 12.216425
56.155 12.820427
56.160 12.819231
56.165 12.805247
56.170 12.489338
56.175 12.225479
56.180 11.668219
56.185 11.739506
56.190 11.654237
56.195 11.741252
56.200 12.259563
56.205 12.190714
56.210 12.432254
56.215 12.853889
56.220 12.681692
56.225 12.808706
56.230 13.672072
56.235 13.895881
56.240 14.092074
56.245 14.049426
56.250 13.692167
56.255 14.429359
56.260 14.521347
56.265 13.479684
56.270 12.647799
56.275 12.543821
56.280 11.914176
56.285 11.332799
56.290 11.039948
56.295 11.4251
56.300 11.306698
56.305 11.942222
56.310 12.188557
56.315 12.73257
56.320 13.464103
56.325 12.642804
56.330 12.42778
56.335 12.840823
56.340 12.91221
56.345 12.832785
56.350 11.883783
56.355 11.711428
56.360 11.833188
56.365 11.730909
56.370 11.288214
56.375 11.14921
56.380 11.101997
56.385 11.57918
56.390 11.176455
56.395 11.121067
56.400 11.070335
56.405 11.001331
56.410 10.929132
56.415 11.647499
56.420 12.224919
56.425 12.855518
56.430 13.477179
56.435 13.938019
56.440 14.217942
56.445 14.419881
56.450 14.309731
56.455 14.460917
56.460 14.170716
56.465 13.833894
56.470 13.809376
56.475 13.865009
56.480 14.037468
56.485 13.940772
56.490 14.337104
56.495 14.282317
56.500 14.118056
56.505 13.969151
56.510 13.711581
56.515 13.987464
56.520 14.166522
56.525 13.863442
56.530 14.230212
56.535 14.122218
56.540 14.17435
56.545 13.793127
56.550 13.05616
56.555 12.710325
56.560 12.297944
56.565 11.873234
56.570 11.651078
56.575 11.307558
56.580 11.879164
56.585 11.921318
56.590 12.164282
56.595 13.23827
56.600 13.707911
56.605 13.836345
56.610 14.118484
56.615 14.371782
56.620 14.828451
56.625 14.719944
56.630 13.701067
56.635 13.283158
56.640 13.823394
56.645 14.00869
56.650 13.427118
56.655 12.331091
56.660 12.543966
56.665 13.271687
56.670 13.023733
56.675 12.151227
56.680 11.958991
56.685 12.697666
56.690 13.242366
56.695 12.377145
56.700 12.463508
56.705 13.228101
56.710 13.962325
56.715 13.503017
56.720 12.842502
56.725 13.267819
56.730 13.940263
56.735 13.598242
56.740 13.197951
56.745 12.775952
56.750 13.080673
56.755 13.599692
56.760 13.559643
56.765 13.243084
56.770 13.214077
56.775 13.249808
56.780 13.489122
56.785 13.524073
56.790 13.513575
56.795 12.991162
56.800 13.025431
56.805 13.581635
56.810 13.885729
56.815 13.806881
56.820 13.796438
56.825 13.76231
56.830 14.198491
56.835 13.668745
56.840 13.224114
56.845 12.66719
56.850 12.275763
56.855 11.898183
56.860 11.671092
56.865 11.882101
56.870 12.183642
56.875 12.213198
56.880 12.327214
56.885 12.551335
56.890 12.946346
56.895 13.580579
56.900 13.898869
56.905 14.25267
56.910 14.348146
56.915 14.641242
56.920 14.904939
56.925 14.678404
56.930 14.118372
56.935 14.137433
56.940 14.522407
56.945 15.091983
56.950 15.099875
56.955 15.060639
56.960 15.22765
56.965 15.814661
56.970 15.425205
56.975 14.714588
56.980 14.175746
56.985 14.491205
56.990 14.768653
56.995 14.500422
57.000 14.071343
57.005 13.464297
57.010 13.950919
57.015 14.25082
57.020 14.103179
57.025 13.814616
57.030 13.621319
57.035 13.8159
57.040 14.258336
57.045 13.844281
57.050 13.437209
57.055 13.445497
57.060 13.236911
57.065 13.502486
57.070 14.081523
57.075 14.319043
57.080 14.841169
57.085 14.633047
57.090 14.142882
57.095 14.53674
57.100 14.021598
57.105 13.335903
57.110 12.958754
57.115 12.931188
57.120 13.151784
57.125 13.26277
57.130 13.118075
57.135 13.5977
57.140 13.329762
57.145 13.157364
57.150 13.078208
57.155 12.951958
57.160 12.951067
57.165 12.837044
57.170 12.65276
57.175 12.971721
57.180 13.281656
57.185 13.211154
57.190 13.36524
57.195 13.690119
57.200 13.676412
57.205 13.46238
57.210 13.77722
57.215 13.506933
57.220 12.936721
57.225 13.259567
57.230 13.140306
57.235 13.564149
57.240 13.794599
57.245 13.711543
57.250 13.981554
57.255 14.518602
57.260 14.7719
57.265 14.875576
57.270 15.04953
57.275 14.870727
57.280 14.681312
57.285 14.921253
57.290 14.890587
57.295 14.563277
57.300 14.191607
57.305 14.511284
57.310 14.98879
57.315 15.195267
57.320 15.283922
57.325 15.208927
57.330 15.290194
57.335 15.434649
57.340 14.259101
57.345 13.949739
57.350 13.757314
57.355 13.949474
57.360 14.404459
57.365 14.111028
57.370 14.129148
57.375 14.492911
57.380 14.632368
57.385 14.62507
57.390 14.199602
57.395 14.040582
57.400 14.431977
57.405 14.525801
57.410 14.585402
57.415 14.333723
57.420 14.577852
57.425 14.174341
57.430 13.761132
57.435 13.336164
57.440 13.152639
57.445 13.425629
57.450 13.511058
57.455 12.923521
57.460 12.960581
57.465 13.164553
57.470 13.482909
57.475 13.854295
57.480 13.821848
57.485 14.253867
57.490 14.373355
57.495 14.791631
57.500 15.089244
57.505 15.116459
57.510 15.088996
57.515 14.922481
57.520 14.650355
57.525 14.94746
57.530 14.581733
57.535 14.324263
57.540 14.059284
57.545 13.446391
57.550 13.040312
57.555 13.679609
57.560 13.722265
57.565 13.863613
57.570 14.161893
57.575 14.628713
57.580 15.08845
57.585 14.915116
57.590 14.231388
57.595 13.990824
57.600 13.917021
57.605 13.919949
57.610 13.795701
57.615 13.550711
57.620 13.683651
57.625 13.612271
57.630 13.431073
57.635 13.132022
57.640 12.84391
57.645 12.982465
57.650 12.99745
57.655 13.053596
57.660 12.867062
57.665 13.203771
57.670 13.364025
57.675 13.298078
57.680 13.292386
57.685 13.406722
57.690 13.382564
57.695 14.278872
57.700 13.826204
57.705 14.298247
57.710 14.609619
57.715 14.654022
57.720 14.5748
57.725 14.749139
57.730 15.019876
57.735 15.324904
57.740 14.545674
57.745 14.295292
57.750 14.176877
57.755 14.190861
57.760 14.312235
57.765 13.89258
57.770 13.644704
57.775 13.461242
57.780 13.709876
57.785 13.824265
57.790 13.8571
57.795 13.406275
57.800 13.047722
57.805 13.344686
57.810 13.619679
57.815 14.007677
57.820 14.108216
57.825 13.869519
57.830 14.096798
57.835 14.769469
57.840 14.816602
57.845 14.380551
57.850 13.968568
57.855 14.064846
57.860 14.208917
57.865 14.174751
57.870 13.864661
57.875 13.977503
57.880 14.160481
57.885 13.651006
57.890 13.179885
57.895 13.486929
57.900 13.73181
57.905 13.940118
57.910 13.575427
57.915 13.708194
57.920 14.423349
57.925 14.878234
57.930 14.550783
57.935 14.28338
57.940 14.582232
57.945 15.293274
57.950 15.539354
57.955 15.729017
57.960 16.13591
57.965 16.070833
57.970 16.090204
57.975 15.681162
57.980 15.328697
57.985 15.101438
57.990 14.310897
57.995 13.952504
58.000 14.187631
58.005 14.387651
58.010 14.74534
58.015 14.923589
58.020 14.718291
58.025 14.661551
58.030 14.667624
58.035 14.292981
58.040 14.04542
58.045 13.698269
58.050 13.619068
58.055 13.805798
58.060 14.398671
58.065 14.535399
58.070 15.081906
58.075 15.259214
58.080 15.091647
58.085 15.050521
58.090 15.319993
58.095 14.991527
58.100 14.980682
58.105 14.828333
58.110 15.121718
58.115 15.879589
58.120 15.903132
58.125 15.637836
58.130 15.73753
58.135 15.584718
58.140 15.425046
58.145 15.287468
58.150 14.729821
58.155 14.434125
58.160 14.51762
58.165 14.437988
58.170 14.634233
58.175 14.874878
58.180 15.047812
58.185 15.193359
58.190 15.088894
58.195 14.920244
58.200 14.985904
58.205 14.514752
58.210 14.821782
58.215 14.648368
58.220 14.525833
58.225 15.21647
58.230 15.358376
58.235 15.610558
58.240 15.797313
58.245 15.009666
58.250 14.626181
58.255 14.581652
58.260 14.292914
58.265 14.342553
58.270 14.193514
58.275 13.935032
58.280 14.150011
58.285 14.832627
58.290 15.206059
58.295 14.7216
58.300 14.614494
58.305 14.727639
58.310 15.574095
58.315 15.472153
58.320 14.666274
58.325 14.910344
58.330 15.245872
58.335 15.248854
58.340 14.884177
58.345 14.025444
58.350 14.561621
58.355 15.261879
58.360 15.058207
58.365 15.045667
58.370 15.052528
58.375 15.162556
58.380 15.339312
58.385 14.992848
58.390 14.643508
58.395 14.535265
58.400 14.747052
58.405 14.786499
58.410 14.804418
58.415 14.398118
58.420 14.528557
58.425 14.406975
58.430 14.597122
58.435 14.804016
58.440 14.569472
58.445 14.616558
58.450 14.641395
58.455 14.960862
58.460 15.139358
58.465 14.431736
58.470 13.610197
58.475 14.224156
58.480 14.125586
