!@!!GADDS PLOTSO FILE: Chi integration type
!@!!Title/SampleName: map-17f
!@!!Comment: ?
!@!!User: Bruker Instrument Administrator
!@!!Site: University of Illinois Chicago
!@!!Frame: map-17f_01_000.gfrm
!@!!Wavelengths    1.54184   1.54056   1.54439
!@!!Frame angles: 2Theta: 63.000 Omega: 50.000 Phi: 0.000 Chi: 90.000
!@!!Integration range: 2Theta: 53.000 to 73.000  Gamma: -105.000 to -75.000
!@!!Integration method: bin normalized
!@!N
!@!SS
!@!M
!@!L 0.0 0.0 0.0 0.0
!@!XDegrees
!@!YCounts
53.000 8.078298
53.005 8.08913
53.010 7.897201
53.015 7.892683
53.020 8.361232
53.025 8.204498
53.030 8.169464
53.035 7.842714
53.040 7.542587
53.045 7.20433
53.050 7.000576
53.055 7.24617
53.060 7.215371
53.065 7.387775
53.070 7.961946
53.075 8.285527
53.080 8.16181
53.085 7.735112
53.090 7.628164
53.095 7.599098
53.100 7.199525
53.105 7.073615
53.110 7.410935
53.115 7.84705
53.120 8.211248
53.125 8.12332
53.130 8.418545
53.135 8.10873
53.140 7.965485
53.145 8.158385
53.150 8.344628
53.155 8.227088
53.160 8.461577
53.165 8.605371
53.170 8.78366
53.175 8.601674
53.180 8.108103
53.185 7.586434
53.190 7.71645
53.195 7.565655
53.200 7.677963
53.205 8.078797
53.210 8.904555
53.215 9.330329
53.220 9.506972
53.225 9.590446
53.230 9.255216
53.235 9.231932
53.240 8.168062
53.245 7.315379
53.250 7.122336
53.255 7.172009
53.260 7.24534
53.265 7.156585
53.270 6.932139
53.275 7.525931
53.280 7.96925
53.285 8.113847
53.290 8.20487
53.295 8.344426
53.300 8.638268
53.305 8.614941
53.310 8.333983
53.315 8.368937
53.320 8.634283
53.325 8.774409
53.330 8.148218
53.335 7.950446
53.340 7.986914
53.345 8.128812
53.350 8.273476
53.355 8.165221
53.360 8.105603
53.365 8.589221
53.370 9.112638
53.375 9.377988
53.380 9.586787
53.385 8.949665
53.390 8.709324
53.395 8.59616
53.400 8.316415
53.405 8.120095
53.410 7.863586
53.415 7.613568
53.420 7.904334
53.425 7.994197
53.430 8.354656
53.435 8.252169
53.440 8.638927
53.445 8.96169
53.450 9.012827
53.455 9.327101
53.460 9.349424
53.465 9.171974
53.470 9.210365
53.475 8.971041
53.480 8.644106
53.485 8.547999
53.490 8.259586
53.495 8.42253
53.500 8.393206
53.505 8.130465
53.510 8.132807
53.515 8.569986
53.520 8.760186
53.525 8.562623
53.530 8.60636
53.535 8.895386
53.540 8.960209
53.545 8.561923
53.550 8.356723
53.555 8.49467
53.560 8.631199
53.565 8.31237
53.570 8.252684
53.575 8.299521
53.580 8.58814
53.585 8.562205
53.590 8.600364
53.595 8.865975
53.600 8.979738
53.605 9.361898
53.610 9.652508
53.615 9.584405
53.620 9.720503
53.625 9.401068
53.630 9.354291
53.635 9.723327
53.640 9.352904
53.645 9.050714
53.650 8.871207
53.655 8.801903
53.660 8.902153
53.665 8.9288
53.670 8.442021
53.675 8.437739
53.680 8.597483
53.685 8.647027
53.690 8.299896
53.695 7.88598
53.700 8.146358
53.705 8.486604
53.710 8.348235
53.715 8.337435
53.720 8.541993
53.725 9.125126
53.730 9.664224
53.735 9.141563
53.740 9.20688
53.745 9.662062
53.750 9.768202
53.755 9.590625
53.760 9.47544
53.765 9.702237
53.770 9.944095
53.775 10.134644
53.780 10.225224
53.785 10.110397
53.790 10.209796
53.795 10.505867
53.800 10.180533
53.805 9.999925
53.810 9.540981
53.815 9.554558
53.820 9.625896
53.825 9.348623
53.830 8.992852
53.835 8.834086
53.840 8.794175
53.845 8.842735
53.850 8.496059
53.855 8.946605
53.860 8.752995
53.865 8.860862
53.870 9.005794
53.875 8.946486
53.880 8.774087
53.885 8.685272
53.890 8.44908
53.895 8.480727
53.900 8.542542
53.905 8.577231
53.910 8.729077
53.915 8.863826
53.920 8.900656
53.925 8.793432
53.930 8.605043
53.935 8.538069
53.940 8.486045
53.945 8.223001
53.950 8.212987
53.955 8.536814
53.960 8.525376
53.965 8.974222
53.970 9.156437
53.975 9.42614
53.980 9.676706
53.985 9.596285
53.990 9.599099
53.995 9.486507
54.000 8.951137
54.005 8.733089
54.010 8.450516
54.015 8.796347
54.020 8.76544
54.025 8.240829
54.030 8.880958
54.035 9.198752
54.040 9.130933
54.045 9.104363
54.050 9.284061
54.055 9.658009
54.060 10.170205
54.065 10.275068
54.070 10.005712
54.075 10.300004
54.080 10.026008
54.085 9.783814
54.090 9.352152
54.095 9.30505
54.100 9.284017
54.105 9.344899
54.110 8.908761
54.115 8.789319
54.120 8.663155
54.125 8.987069
54.130 8.308931
54.135 8.211723
54.140 8.326505
54.145 8.383348
54.150 8.388002
54.155 8.486927
54.160 8.602905
54.165 8.404193
54.170 8.368595
54.175 8.335752
54.180 8.540138
54.185 8.24701
54.190 7.830634
54.195 7.699233
54.200 7.9259
54.205 8.206338
54.210 8.741709
54.215 8.760848
54.220 8.998911
54.225 9.246819
54.230 8.902539
54.235 8.813645
54.240 8.884848
54.245 8.91947
54.250 9.36609
54.255 9.539984
54.260 9.745082
54.265 10.186287
54.270 10.472724
54.275 10.257793
54.280 9.99069
54.285 9.843554
54.290 10.119363
54.295 10.100232
54.300 9.788594
54.305 9.60244
54.310 9.625828
54.315 9.830947
54.320 9.761539
54.325 9.458563
54.330 9.4101
54.335 10.057184
54.340 10.264756
54.345 10.094421
54.350 10.017109
54.355 9.881392
54.360 9.559697
54.365 9.449774
54.370 9.20395
54.375 9.2114
54.380 9.288965
54.385 9.025105
54.390 9.024117
54.395 9.123256
54.400 8.948715
54.405 8.788668
54.410 8.821434
54.415 8.67594
54.420 8.831616
54.425 9.46537
54.430 10.043168
54.435 10.271484
54.440 9.968927
54.445 9.894801
54.450 9.673263
54.455 9.489476
54.460 9.173748
54.465 8.571731
54.470 8.154532
54.475 8.104968
54.480 8.095804
54.485 8.433614
54.490 8.353747
54.495 8.25151
54.500 8.559093
54.505 9.052801
54.510 9.257431
54.515 9.113057
54.520 9.073621
54.525 8.984298
54.530 9.278734
54.535 9.223644
54.540 8.945263
54.545 8.693382
54.550 8.865929
54.555 9.061708
54.560 8.839351
54.565 8.423391
54.570 8.185692
54.575 8.132655
54.580 8.386716
54.585 8.302951
54.590 8.466887
54.595 8.975214
54.600 9.191603
54.605 9.444674
54.610 9.631023
54.615 9.759607
54.620 9.44573
54.625 9.375749
54.630 9.251362
54.635 9.332114
54.640 9.231936
54.645 9.091705
54.650 9.233666
54.655 9.743531
54.660 9.577046
54.665 9.506485
54.670 9.675895
54.675 9.670249
54.680 9.219647
54.685 8.861107
54.690 8.933736
54.695 9.005799
54.700 8.489987
54.705 7.753835
54.710 7.624324
54.715 8.074458
54.720 8.43016
54.725 7.925662
54.730 7.754962
54.735 8.123138
54.740 8.271707
54.745 7.918437
54.750 8.046249
54.755 8.021612
54.760 8.265281
54.765 8.936692
54.770 9.331672
54.775 9.550764
54.780 9.711795
54.785 9.421448
54.790 8.885205
54.795 8.858838
54.800 8.388391
54.805 8.499948
54.810 8.912983
54.815 9.061391
54.820 9.224408
54.825 9.769435
54.830 9.757138
54.835 10.062947
54.840 9.889556
54.845 9.958135
54.850 9.994658
54.855 9.924511
54.860 9.648337
54.865 9.810579
54.870 9.675575
54.875 9.579237
54.880 9.480254
54.885 9.7915
54.890 9.972164
54.895 10.043281
54.900 9.871346
54.905 9.663105
54.910 9.743903
54.915 9.577125
54.920 9.090353
54.925 9.071299
54.930 9.158723
54.935 9.092005
54.940 9.134624
54.945 9.458205
54.950 9.97412
54.955 10.332101
54.960 10.174492
54.965 10.034672
54.970 9.92779
54.975 9.859585
54.980 9.102942
54.985 8.921583
54.990 8.680264
54.995 8.767114
55.000 9.208038
55.005 9.038263
55.010 9.241449
55.015 9.343485
55.020 9.144422
55.025 9.035023
55.030 8.894978
55.035 8.44873
55.040 8.773527
55.045 8.865937
55.050 9.300136
55.055 9.411877
55.060 9.638371
55.065 9.612255
55.070 9.822787
55.075 9.750671
55.080 9.778783
55.085 9.564737
55.090 10.106422
55.095 9.99555
55.100 10.240346
55.105 10.049911
55.110 10.091593
55.115 10.197039
55.120 9.895947
55.125 9.087976
55.130 8.905869
55.135 9.251765
55.140 9.680202
55.145 9.598209
55.150 9.395905
55.155 9.277986
55.160 9.445797
55.165 9.105096
55.170 8.597898
55.175 8.478104
55.180 8.439675
55.185 8.820045
55.190 9.033926
55.195 9.435526
55.200 9.851833
55.205 9.682404
55.210 9.588484
55.215 9.377916
55.220 9.686642
55.225 10.063019
55.230 9.948508
55.235 10.200775
55.240 10.385756
55.245 10.344646
55.250 10.176116
55.255 9.400131
55.260 9.110676
55.265 8.849449
55.270 8.506289
55.275 8.303081
55.280 8.555246
55.285 8.505366
55.290 8.820587
55.295 8.618146
55.300 8.901875
55.305 9.316126
55.310 9.316203
55.315 9.157073
55.320 9.058751
55.325 8.752543
55.330 9.076621
55.335 9.085073
55.340 9.273275
55.345 9.571679
55.350 9.756206
55.355 9.86886
55.360 9.816014
55.365 9.652344
55.370 9.249387
55.375 9.506027
55.380 9.473764
55.385 9.4556
55.390 9.956817
55.395 10.193842
55.400 10.256661
55.405 10.784574
55.410 10.72422
55.415 10.600541
55.420 10.670553
55.425 10.509793
55.430 10.243591
55.435 10.182837
55.440 9.473453
55.445 9.257509
55.450 9.183996
55.455 8.906188
55.460 9.167562
55.465 9.24258
55.470 9.389226
55.475 9.812068
55.480 9.837389
55.485 10.34703
55.490 10.604538
55.495 10.467566
55.500 10.653599
55.505 10.381598
55.510 10.046128
55.515 9.671357
55.520 9.743885
55.525 9.43545
55.530 9.262975
55.535 9.647287
55.540 9.389628
55.545 9.400114
55.550 9.558558
55.555 9.398555
55.560 9.432718
55.565 9.546098
55.570 9.197081
55.575 9.409237
55.580 9.586151
55.585 9.262241
55.590 9.454716
55.595 9.81159
55.600 10.144277
55.605 10.408942
55.610 10.102868
55.615 10.091455
55.620 10.632108
55.625 10.51814
55.630 10.084361
55.635 9.769547
55.640 9.846423
55.645 9.888497
55.650 9.563441
55.655 8.956204
55.660 8.520432
55.665 7.996889
55.670 7.382102
55.675 6.876038
55.680 6.951147
55.685 7.471733
55.690 7.639776
55.695 7.935141
55.700 8.27934
55.705 8.83992
55.710 9.30681
55.715 9.412358
55.720 9.112885
55.725 9.816199
55.730 10.00141
55.735 10.276458
55.740 10.489926
55.745 10.394467
55.750 10.770909
55.755 10.80369
55.760 10.343767
55.765 10.054383
55.770 9.914025
55.775 10.215109
55.780 10.199696
55.785 9.680367
55.790 9.197857
55.795 9.465386
55.800 9.702961
55.805 9.200453
55.810 9.068455
55.815 9.30775
55.820 9.390112
55.825 9.881474
55.830 9.784149
55.835 10.513592
55.840 10.780567
55.845 10.488281
55.850 10.542323
55.855 10.575801
55.860 10.424334
55.865 10.000931
55.870 9.377558
55.875 9.442021
55.880 9.893281
55.885 9.808768
55.890 9.430093
55.895 9.392489
55.900 9.231546
55.905 9.23713
55.910 9.688398
55.915 9.462619
55.920 10.148072
55.925 11.110159
55.930 11.055018
55.935 11.421303
55.940 11.200501
55.945 10.839206
55.950 10.532735
55.955 10.059374
55.960 9.653036
55.965 9.883401
55.970 9.6289
55.975 9.434657
55.980 9.084006
55.985 8.901839
55.990 8.426437
55.995 7.883909
56.000 7.76354
56.005 7.960925
56.010 8.226107
56.015 8.475507
56.020 8.437089
56.025 8.869521
56.030 9.141847
56.035 9.500719
56.040 9.559472
56.045 9.582724
56.050 9.721156
56.055 9.800484
56.060 9.274488
56.065 9.364616
56.070 9.240422
56.075 9.377895
56.080 9.17114
56.085 9.043468
56.090 9.026384
56.095 9.874243
56.100 9.815052
56.105 9.384239
56.110 8.726138
56.115 8.469419
56.120 8.220937
56.125 7.82997
56.130 7.402701
56.135 7.640118
56.140 8.18695
56.145 8.677881
56.150 8.704856
56.155 9.196351
56.160 9.426617
56.165 9.545871
56.170 9.350142
56.175 9.599374
56.180 9.703938
56.185 9.717344
56.190 9.45776
56.195 10.099451
56.200 10.060672
56.205 10.053189
56.210 9.770298
56.215 9.689255
56.220 9.836535
56.225 10.081369
56.230 9.83453
56.235 10.084265
56.240 10.768243
56.245 11.274999
56.250 11.711742
56.255 11.924316
56.260 11.715747
56.265 11.396482
56.270 11.080143
56.275 10.435335
56.280 9.984233
56.285 9.615546
56.290 9.116778
56.295 9.073472
56.300 9.142788
56.305 9.35318
56.310 9.446798
56.315 9.958772
56.320 10.440532
56.325 10.832711
56.330 10.610636
56.335 10.995123
56.340 10.821618
56.345 10.667332
56.350 10.200282
56.355 10.017447
56.360 9.798682
56.365 9.915267
56.370 9.297314
56.375 9.48935
56.380 9.498071
56.385 9.506093
56.390 9.893426
56.395 10.123959
56.400 10.477133
56.405 10.909146
56.410 10.784477
56.415 10.680449
56.420 10.610253
56.425 10.536233
56.430 10.726619
56.435 10.541636
56.440 10.043822
56.445 10.265277
56.450 10.129215
56.455 10.013147
56.460 10.151132
56.465 10.114612
56.470 10.176274
56.475 10.213003
56.480 10.343787
56.485 10.754215
56.490 11.242531
56.495 11.374924
56.500 11.38583
56.505 11.755008
56.510 11.698214
56.515 11.597619
56.520 11.495117
56.525 11.462871
56.530 11.395514
56.535 11.433261
56.540 11.660314
56.545 11.801517
56.550 12.090414
56.555 11.748834
56.560 10.877601
56.565 10.435857
56.570 10.478681
56.575 10.528292
56.580 10.36434
56.585 10.28499
56.590 10.253478
56.595 10.796837
56.600 10.99594
56.605 11.157409
56.610 10.976188
56.615 10.634369
56.620 10.334168
56.625 10.742084
56.630 10.50165
56.635 10.119199
56.640 9.559769
56.645 9.519588
56.650 9.85403
56.655 9.739826
56.660 9.220399
56.665 9.04004
56.670 8.997252
56.675 9.355331
56.680 9.144369
56.685 9.067948
56.690 9.650713
56.695 10.10083
56.700 10.443319
56.705 10.782768
56.710 10.482416
56.715 10.490693
56.720 10.465108
56.725 10.357546
56.730 10.22331
56.735 10.149125
56.740 10.064636
56.745 10.350162
56.750 10.583325
56.755 10.758596
56.760 10.621652
56.765 10.454503
56.770 10.745631
56.775 10.997547
56.780 11.156187
56.785 11.012848
56.790 10.872731
56.795 11.024433
56.800 11.037425
56.805 10.873978
56.810 10.431013
56.815 9.961408
56.820 9.831397
56.825 9.943759
56.830 10.549489
56.835 10.595454
56.840 10.466234
56.845 10.560922
56.850 10.859283
56.855 11.066193
56.860 10.508348
56.865 9.990249
56.870 10.145319
56.875 10.471145
56.880 10.488314
56.885 10.429682
56.890 10.38665
56.895 10.645903
56.900 10.373932
56.905 9.813862
56.910 9.22989
56.915 9.342176
56.920 9.090306
56.925 9.011849
56.930 8.68021
56.935 9.106281
56.940 9.574862
56.945 10.086692
56.950 10.095323
56.955 10.374346
56.960 10.431418
56.965 10.675047
56.970 10.487
56.975 10.397944
56.980 10.224251
56.985 10.071667
56.990 9.799686
56.995 9.690741
57.000 9.495311
57.005 9.561184
57.010 9.169517
57.015 9.213258
57.020 9.557224
57.025 9.574667
57.030 9.826217
57.035 9.904895
57.040 9.985495
57.045 9.96232
57.050 9.540133
57.055 9.219014
57.060 9.031309
57.065 8.633192
57.070 8.440177
57.075 8.326491
57.080 8.486175
57.085 8.742111
57.090 8.718868
57.095 9.131593
57.100 9.35644
57.105 9.389216
57.110 9.211875
57.115 9.081928
57.120 9.164768
57.125 9.463804
57.130 9.039287
57.135 8.942978
57.140 9.023776
57.145 9.341593
57.150 9.632688
57.155 9.43653
57.160 9.318156
57.165 9.472115
57.170 9.52493
57.175 9.628097
57.180 9.60324
57.185 9.084066
57.190 9.316126
57.195 9.060404
57.200 9.140907
57.205 8.702786
57.210 8.561893
57.215 8.819953
57.220 9.060632
57.225 9.575084
57.230 9.613731
57.235 9.847674
57.240 10.745463
57.245 11.073823
57.250 10.584761
57.255 9.903189
57.260 9.289053
57.265 9.359685
57.270 9.167628
57.275 8.739151
57.280 8.799661
57.285 9.469458
57.290 9.828329
57.295 10.007737
57.300 9.91501
57.305 9.607705
57.310 9.431201
57.315 8.842474
57.320 8.696435
57.325 8.788424
57.330 8.803076
57.335 9.209472
57.340 9.26202
57.345 9.285716
57.350 9.696277
57.355 9.459089
57.360 9.518257
57.365 9.925989
57.370 10.382198
57.375 10.90675
57.380 11.332705
57.385 11.540908
57.390 11.486853
57.395 11.513029
57.400 10.840611
57.405 10.299507
57.410 9.744776
57.415 9.637232
57.420 9.313397
57.425 9.460953
57.430 9.397343
57.435 9.721464
57.440 9.571733
57.445 9.768337
57.450 9.929062
57.455 10.430654
57.460 10.820961
57.465 10.619702
57.470 10.486287
57.475 10.296494
57.480 10.174341
57.485 9.856386
57.490 9.411498
57.495 9.271282
57.500 9.686283
57.505 9.765274
57.510 9.921169
57.515 9.819078
57.520 9.761868
57.525 9.752039
57.530 9.607313
57.535 9.464725
57.540 9.399157
57.545 9.689734
57.550 9.447899
57.555 9.510169
57.560 9.758654
57.565 9.839547
57.570 10.154589
57.575 10.520167
57.580 10.709957
57.585 10.797908
57.590 10.777866
57.595 10.718184
57.600 10.471643
57.605 10.20239
57.610 9.85807
57.615 9.961023
57.620 9.8975
57.625 9.960323
57.630 10.09084
57.635 9.97029
57.640 9.925459
57.645 10.249036
57.650 10.086714
57.655 10.205705
57.660 9.821161
57.665 9.513044
57.670 9.642901
57.675 9.49489
57.680 9.425418
57.685 9.906879
57.690 9.890606
57.695 10.154876
57.700 10.146214
57.705 10.400091
57.710 10.641835
57.715 10.521046
57.720 10.153337
57.725 10.430404
57.730 10.651707
57.735 10.784469
57.740 11.00978
57.745 10.89107
57.750 10.980456
57.755 10.698789
57.760 10.487865
57.765 10.648028
57.770 10.74152
57.775 10.502111
57.780 10.439863
57.785 10.3782
57.790 10.346317
57.795 10.388691
57.800 10.347547
57.805 10.46936
57.810 10.219853
57.815 10.55488
57.820 10.661906
57.825 10.915148
57.830 11.127995
57.835 11.028498
57.840 10.609435
57.845 10.678225
57.850 10.471473
57.855 10.363448
57.860 10.657001
57.865 10.565338
57.870 10.468425
57.875 10.234499
57.880 9.880247
57.885 9.589303
57.890 9.872489
57.895 9.880219
57.900 9.437153
57.905 9.244917
57.910 9.65656
57.915 10.032813
57.920 9.825618
57.925 9.411807
57.930 9.196133
57.935 9.546805
57.940 9.764644
57.945 9.716509
57.950 9.696501
57.955 10.258209
57.960 10.804618
57.965 11.313515
57.970 11.483434
57.975 11.430732
57.980 11.787915
57.985 11.737101
57.990 11.280712
57.995 10.673915
58.000 10.078912
58.005 9.992991
58.010 9.920777
58.015 9.696172
58.020 9.813643
58.025 9.723385
58.030 10.153342
58.035 10.587035
58.040 10.641771
58.045 10.926974
58.050 11.226066
58.055 11.125698
58.060 11.219702
58.065 11.056347
58.070 10.907275
58.075 11.027065
58.080 10.569589
58.085 10.334153
58.090 10.654055
58.095 10.765677
58.100 10.261801
58.105 9.956143
58.110 9.948944
58.115 10.076405
58.120 9.861109
58.125 9.453895
58.130 9.416722
58.135 9.657953
58.140 9.665706
58.145 9.902641
58.150 9.86849
58.155 9.827533
58.160 10.050137
58.165 9.962626
58.170 10.278396
58.175 10.269053
58.180 10.131078
58.185 10.631292
58.190 11.046175
58.195 11.435931
58.200 11.185652
58.205 10.631123
58.210 10.456516
58.215 10.36714
58.220 10.08343
58.225 9.459285
58.230 9.056765
58.235 9.585593
58.240 9.84086
58.245 9.774737
58.250 9.80801
58.255 10.2876
58.260 10.255709
58.265 10.075078
58.270 9.846314
58.275 9.994563
58.280 10.091361
58.285 9.595097
58.290 9.343451
58.295 9.248724
58.300 9.390999
58.305 9.356389
58.310 9.202445
58.315 9.278089
58.320 9.724927
58.325 9.844047
58.330 10.252619
58.335 10.450298
58.340 10.481729
58.345 10.630534
58.350 10.900715
58.355 10.861525
58.360 10.921952
58.365 10.727726
58.370 10.904634
58.375 11.303619
58.380 11.492617
58.385 11.348396
58.390 10.998886
58.395 11.243184
58.400 11.423289
58.405 11.458928
58.410 11.166651
58.415 11.009377
58.420 10.988698
58.425 11.43006
58.430 11.498035
58.435 11.484128
58.440 11.262844
58.445 11.370788
58.450 11.912792
58.455 12.230203
58.460 11.965011
58.465 11.617433
58.470 11.363962
58.475 10.995739
58.480 10.512866
58.485 9.967172
58.490 9.75808
58.495 10.16407
58.500 10.681267
58.505 10.98021
58.510 11.211004
58.515 11.294282
58.520 11.34481
58.525 11.339195
58.530 11.041428
58.535 11.052973
58.540 11.008221
58.545 11.251843
58.550 11.439669
58.555 11.470038
58.560 11.530591
58.565 11.495276
58.570 11.222214
58.575 11.260352
58.580 11.210867
58.585 11.399498
58.590 11.258747
58.595 11.277103
58.600 10.949152
58.605 10.882534
58.610 11.295565
58.615 11.342645
58.620 11.42406
58.625 11.58589
58.630 11.893935
58.635 12.239175
58.640 12.211461
58.645 12.023499
58.650 11.605083
