!@!!GADDS PLOTSO FILE: Chi integration type
!@!!Title/SampleName: map-14f
!@!!Comment: ?
!@!!User: Bruker Instrument Administrator
!@!!Site: University of Illinois Chicago
!@!!Frame: map-14f_01_000.gfrm
!@!!Wavelengths    1.54184   1.54056   1.54439
!@!!Frame angles: 2Theta: 63.000 Omega: 50.000 Phi: 0.000 Chi: 90.000
!@!!Integration range: 2Theta: 53.000 to 73.000  Gamma: -105.000 to -75.000
!@!!Integration method: bin normalized
!@!N
!@!SS
!@!M
!@!L 0.0 0.0 0.0 0.0
!@!XDegrees
!@!YCounts
53.000 10.12234
53.005 10.114872
53.010 9.703566
53.015 9.270454
53.020 9.449096
53.025 9.747131
53.030 10.408237
53.035 10.864223
53.040 10.764552
53.045 11.050032
53.050 10.858446
53.055 10.295587
53.060 9.940117
53.065 9.108948
53.070 8.683453
53.075 8.701192
53.080 8.48469
53.085 8.11768
53.090 7.683633
53.095 7.64111
53.100 7.842402
53.105 8.204711
53.110 8.589089
53.115 9.292445
53.120 9.843898
53.125 9.914316
53.130 10.281086
53.135 10.390168
53.140 10.281863
53.145 9.77214
53.150 9.523215
53.155 9.712167
53.160 9.763687
53.165 9.483599
53.170 9.172971
53.175 9.049546
53.180 9.191524
53.185 9.036223
53.190 9.121768
53.195 9.28635
53.200 9.178618
53.205 9.43073
53.210 9.261217
53.215 9.299338
53.220 9.287786
53.225 9.064922
53.230 8.96733
53.235 8.942275
53.240 9.130778
53.245 9.088574
53.250 8.877093
53.255 8.871848
53.260 8.856041
53.265 9.089619
53.270 9.192695
53.275 9.164982
53.280 9.407256
53.285 9.211448
53.290 9.105875
53.295 9.015294
53.300 8.80595
53.305 8.809311
53.310 8.893272
53.315 8.625556
53.320 8.644217
53.325 8.586705
53.330 8.592303
53.335 9.008181
53.340 8.979078
53.345 8.977509
53.350 9.379245
53.355 9.337856
53.360 9.078856
53.365 9.037271
53.370 8.803136
53.375 8.979142
53.380 9.206712
53.385 9.63808
53.390 9.826509
53.395 9.957292
53.400 10.234802
53.405 10.001641
53.410 10.035385
53.415 9.926603
53.420 9.549435
53.425 9.47069
53.430 9.375117
53.435 9.26279
53.440 9.495671
53.445 9.014894
53.450 9.165902
53.455 9.369338
53.460 9.659707
53.465 9.70663
53.470 9.716158
53.475 9.840709
53.480 10.356101
53.485 10.038217
53.490 9.5453
53.495 9.716259
53.500 9.790522
53.505 9.955679
53.510 9.707444
53.515 9.496489
53.520 9.797369
53.525 10.408906
53.530 10.314716
53.535 9.810315
53.540 9.406832
53.545 9.336388
53.550 8.951375
53.555 8.855439
53.560 8.451638
53.565 8.769624
53.570 8.638905
53.575 8.912389
53.580 9.01565
53.585 9.308743
53.590 9.657792
53.595 9.773099
53.600 9.739121
53.605 10.075368
53.610 10.047875
53.615 10.355362
53.620 10.035457
53.625 9.728223
53.630 9.603507
53.635 9.541127
53.640 9.519522
53.645 9.735641
53.650 9.981014
53.655 10.26997
53.660 10.561378
53.665 10.503386
53.670 10.159341
53.675 10.003109
53.680 9.743416
53.685 9.210772
53.690 9.189569
53.695 8.97467
53.700 9.321011
53.705 10.006968
53.710 10.119166
53.715 10.220998
53.720 10.402556
53.725 10.393173
53.730 10.842361
53.735 10.862139
53.740 10.82494
53.745 10.550127
53.750 10.392063
53.755 10.116583
53.760 10.136053
53.765 10.360632
53.770 10.495586
53.775 10.5009
53.780 10.617577
53.785 10.690292
53.790 10.733802
53.795 9.979959
53.800 9.165254
53.805 8.880227
53.810 8.838985
53.815 8.809922
53.820 8.77977
53.825 8.729001
53.830 9.217326
53.835 9.057557
53.840 9.019409
53.845 8.911939
53.850 8.887089
53.855 9.187305
53.860 10.050378
53.865 10.130373
53.870 9.946446
53.875 9.688355
53.880 9.87544
53.885 9.654892
53.890 9.403399
53.895 8.770066
53.900 8.78714
53.905 9.110855
53.910 9.541472
53.915 9.312358
53.920 9.12378
53.925 8.825729
53.930 9.207225
53.935 9.138593
53.940 8.638486
53.945 8.593636
53.950 8.90375
53.955 9.287197
53.960 9.21152
53.965 8.905892
53.970 9.231392
53.975 9.462729
53.980 9.353791
53.985 9.125007
53.990 9.477884
53.995 9.628336
54.000 9.50495
54.005 9.312053
54.010 9.43611
54.015 9.694593
54.020 9.635316
54.025 8.977403
54.030 8.888954
54.035 8.798471
54.040 8.867777
54.045 8.571892
54.050 8.245289
54.055 8.327673
54.060 8.545263
54.065 8.564444
54.070 8.83757
54.075 8.8306
54.080 9.141844
54.085 9.354061
54.090 9.534412
54.095 9.339911
54.100 9.442801
54.105 9.566491
54.110 9.633355
54.115 9.46542
54.120 9.3493
54.125 9.393432
54.130 9.779168
54.135 9.886577
54.140 9.474509
54.145 9.440151
54.150 9.781723
54.155 10.279922
54.160 10.582371
54.165 10.35229
54.170 10.525326
54.175 10.598002
54.180 10.521061
54.185 9.88956
54.190 9.484011
54.195 9.341267
54.200 8.892355
54.205 8.87946
54.210 8.721972
54.215 8.765118
54.220 9.121057
54.225 9.251945
54.230 9.747282
54.235 10.336327
54.240 9.983006
54.245 10.530605
54.250 10.623162
54.255 10.390801
54.260 10.120905
54.265 10.035463
54.270 9.872787
54.275 9.870135
54.280 9.862058
54.285 10.076266
54.290 10.710885
54.295 10.490604
54.300 10.208939
54.305 10.254862
54.310 10.496713
54.315 10.373847
54.320 10.103676
54.325 9.735175
54.330 9.79048
54.335 9.711297
54.340 9.773943
54.345 9.409455
54.350 9.46894
54.355 9.446601
54.360 9.304593
54.365 9.53796
54.370 9.83682
54.375 9.281708
54.380 9.22662
54.385 9.054502
54.390 9.504664
54.395 9.8312
54.400 9.48431
54.405 9.672798
54.410 10.51016
54.415 10.649539
54.420 10.37721
54.425 9.764256
54.430 9.510124
54.435 9.816101
54.440 9.586495
54.445 9.244102
54.450 9.699176
54.455 9.695212
54.460 9.82889
54.465 9.854832
54.470 9.528293
54.475 9.67888
54.480 9.703551
54.485 9.353832
54.490 9.252483
54.495 9.126874
54.500 9.081953
54.505 8.871914
54.510 8.510216
54.515 8.703916
54.520 8.633425
54.525 8.913661
54.530 8.84391
54.535 8.674556
54.540 8.87485
54.545 8.952452
54.550 9.101382
54.555 9.500572
54.560 9.58839
54.565 9.799719
54.570 10.201545
54.575 10.353404
54.580 10.201237
54.585 9.901563
54.590 9.825607
54.595 9.842434
54.600 9.671783
54.605 9.753062
54.610 9.652649
54.615 9.551025
54.620 9.311988
54.625 8.906318
54.630 8.877465
54.635 8.893261
54.640 8.639244
54.645 8.655015
54.650 8.884035
54.655 9.824927
54.660 10.306896
54.665 10.328243
54.670 10.149539
54.675 10.469485
54.680 10.479875
54.685 10.397029
54.690 10.245068
54.695 10.136832
54.700 10.073458
54.705 10.143966
54.710 9.630576
54.715 10.149172
54.720 10.4379
54.725 10.0267
54.730 10.421908
54.735 10.87764
54.740 11.12076
54.745 11.516488
54.750 11.537599
54.755 11.422598
54.760 11.461495
54.765 11.388603
54.770 11.306152
54.775 11.211614
54.780 11.23848
54.785 10.713837
54.790 10.642946
54.795 10.27277
54.800 10.173174
54.805 10.316453
54.810 10.115693
54.815 10.012834
54.820 10.52262
54.825 10.283607
54.830 10.295151
54.835 10.033731
54.840 9.945004
54.845 10.149389
54.850 9.954214
54.855 9.635833
54.860 9.627439
54.865 10.131483
54.870 9.76696
54.875 9.899595
54.880 10.198331
54.885 10.299366
54.890 10.3745
54.895 10.746792
54.900 10.414027
54.905 10.77142
54.910 10.435369
54.915 10.380108
54.920 10.335229
54.925 10.226999
54.930 10.104422
54.935 10.444221
54.940 10.318462
54.945 10.120307
54.950 10.197274
54.955 10.327333
54.960 10.375166
54.965 10.363622
54.970 10.164474
54.975 10.128741
54.980 10.164004
54.985 9.766323
54.990 9.500627
54.995 9.296988
55.000 9.179841
55.005 9.147085
55.010 9.287225
55.015 9.542668
55.020 9.953659
55.025 10.594599
55.030 10.383675
55.035 11.065443
55.040 11.108633
55.045 10.99676
55.050 10.876731
55.055 10.543607
55.060 9.949588
55.065 10.013069
55.070 9.773824
55.075 9.863091
55.080 9.7156
55.085 9.212852
55.090 9.249429
55.095 9.383971
55.100 9.497195
55.105 9.199938
55.110 9.642405
55.115 10.368728
55.120 10.629374
55.125 11.043329
55.130 11.577123
55.135 11.335028
55.140 11.035034
55.145 10.528203
55.150 10.390937
55.155 10.410539
55.160 10.154241
55.165 9.978127
55.170 10.327675
55.175 10.641719
55.180 10.826399
55.185 10.264224
55.190 10.147787
55.195 10.361267
55.200 10.370875
55.205 10.205085
55.210 10.210188
55.215 10.295646
55.220 10.599411
55.225 10.427112
55.230 9.789442
55.235 9.505299
55.240 9.442308
55.245 9.475734
55.250 9.444086
55.255 10.024128
55.260 10.252863
55.265 10.529081
55.270 10.710552
55.275 10.753848
55.280 10.411218
55.285 10.642015
55.290 10.107656
55.295 9.999187
55.300 9.754196
55.305 9.713876
55.310 9.974633
55.315 10.144829
55.320 9.725191
55.325 9.481676
55.330 9.58587
55.335 10.249831
55.340 10.461263
55.345 10.262681
55.350 10.180892
55.355 10.876306
55.360 11.654421
55.365 11.198891
55.370 10.805697
55.375 11.030643
55.380 11.309971
55.385 11.210956
55.390 11.169433
55.395 11.628079
55.400 11.72509
55.405 11.319953
55.410 10.672845
55.415 10.292798
55.420 10.902209
55.425 10.385613
55.430 10.157454
55.435 10.258141
55.440 10.475669
55.445 11.025157
55.450 11.134677
55.455 10.539137
55.460 10.451992
55.465 10.508148
55.470 10.197263
55.475 9.953585
55.480 9.420596
55.485 9.349903
55.490 9.434577
55.495 9.655688
55.500 9.735359
55.505 10.230243
55.510 10.94263
55.515 11.359973
55.520 11.330242
55.525 10.97892
55.530 10.760972
55.535 10.434341
55.540 9.94388
55.545 8.98801
55.550 8.727278
55.555 8.900108
55.560 8.781216
55.565 8.653026
55.570 8.752675
55.575 9.048136
55.580 9.538115
55.585 9.736342
55.590 9.538683
55.595 9.629763
55.600 9.612162
55.605 9.78699
55.610 9.824791
55.615 9.913805
55.620 9.747346
55.625 10.097231
55.630 10.274666
55.635 10.49263
55.640 10.56875
55.645 10.492394
55.650 9.928833
55.655 9.751923
55.660 9.638578
55.665 9.501661
55.670 9.378128
55.675 9.490013
55.680 10.100643
55.685 10.8709
55.690 11.085552
55.695 11.164293
55.700 11.391422
55.705 11.152773
55.710 10.496378
55.715 9.884932
55.720 9.634715
55.725 9.772587
55.730 9.605519
55.735 9.502355
55.740 9.185348
55.745 9.377305
55.750 9.650696
55.755 9.700902
55.760 9.347881
55.765 9.359586
55.770 9.472198
55.775 10.385894
55.780 10.569627
55.785 10.439959
55.790 10.327475
55.795 10.676033
55.800 10.404787
55.805 10.312671
55.810 10.109507
55.815 10.320875
55.820 10.701844
55.825 11.109583
55.830 11.369457
55.835 11.682379
55.840 11.855761
55.845 11.926172
55.850 12.26497
55.855 12.256228
55.860 11.463495
55.865 11.023104
55.870 11.107435
55.875 11.099694
55.880 10.954309
55.885 10.534485
55.890 10.677817
55.895 11.142823
55.900 11.477539
55.905 11.164283
55.910 10.879323
55.915 10.873384
55.920 10.631089
55.925 10.369752
55.930 10.009604
55.935 10.073546
55.940 10.241312
55.945 10.459864
55.950 10.646019
55.955 10.937182
55.960 11.28628
55.965 11.357696
55.970 11.500066
55.975 11.826425
55.980 11.366973
55.985 10.873907
55.990 10.395376
55.995 10.226693
56.000 10.535079
56.005 10.029658
56.010 9.928367
56.015 10.511465
56.020 10.924412
56.025 10.727295
56.030 10.520476
56.035 10.968917
56.040 11.394729
56.045 10.800215
56.050 10.188418
56.055 10.564351
56.060 10.940623
56.065 11.068743
56.070 10.864002
56.075 10.729076
56.080 11.14175
56.085 11.338405
56.090 10.900946
56.095 11.236691
56.100 11.112157
56.105 10.891126
56.110 11.005711
56.115 11.38281
56.120 11.380569
56.125 11.552609
56.130 11.383759
56.135 11.194206
56.140 11.370724
56.145 11.15335
56.150 10.828397
56.155 11.122592
56.160 10.673329
56.165 10.360597
56.170 10.465537
56.175 10.384645
56.180 10.430095
56.185 10.585237
56.190 10.603316
56.195 10.874204
56.200 10.988736
56.205 10.722165
56.210 11.00995
56.215 10.982596
56.220 10.663577
56.225 10.829678
56.230 11.055197
56.235 11.21382
56.240 11.201854
56.245 10.642278
56.250 10.654204
56.255 10.150058
56.260 9.620997
56.265 9.570525
56.270 9.489401
56.275 9.721493
56.280 9.799569
56.285 9.827517
56.290 10.373583
56.295 10.845165
56.300 11.035234
56.305 11.362523
56.310 11.542345
56.315 11.772775
56.320 11.745385
56.325 11.50513
56.330 11.204353
56.335 11.001541
56.340 10.954725
56.345 10.461729
56.350 10.506394
56.355 10.590407
56.360 10.817275
56.365 10.834735
56.370 10.723147
56.375 10.27734
56.380 10.086806
56.385 10.166656
56.390 10.096251
56.395 10.206963
56.400 10.615729
56.405 10.726892
56.410 11.473332
56.415 12.109608
56.420 11.970734
56.425 12.20092
56.430 11.843165
56.435 11.551105
56.440 11.933682
56.445 11.742577
56.450 11.376987
56.455 11.697538
56.460 12.044134
56.465 12.440346
56.470 12.05173
56.475 12.06532
56.480 12.192416
56.485 12.427062
56.490 12.967801
56.495 13.001657
56.500 13.085883
56.505 13.077392
56.510 12.697156
56.515 12.369742
56.520 12.401073
56.525 11.931812
56.530 11.75534
56.535 11.62859
56.540 12.149208
56.545 12.472267
56.550 12.070251
56.555 11.903071
56.560 11.755489
56.565 11.900986
56.570 12.252974
56.575 11.79283
56.580 11.576013
56.585 12.245581
56.590 12.196004
56.595 11.801691
56.600 11.966857
56.605 11.877672
56.610 12.23842
56.615 12.368768
56.620 11.806037
56.625 12.092167
56.630 12.430916
56.635 11.731619
56.640 11.388988
56.645 11.016049
56.650 11.417527
56.655 12.072787
56.660 11.534742
56.665 11.257805
56.670 11.658958
56.675 11.691236
56.680 11.250266
56.685 10.814641
56.690 10.556079
56.695 11.019093
56.700 11.043527
56.705 10.533242
56.710 10.805522
56.715 10.98208
56.720 10.908743
56.725 10.645622
56.730 10.234728
56.735 10.366934
56.740 10.906953
56.745 10.760522
56.750 11.413707
56.755 11.578622
56.760 11.762218
56.765 12.032323
56.770 11.921783
56.775 11.730691
56.780 11.820588
56.785 11.575848
56.790 11.661852
56.795 11.27572
56.800 11.737474
56.805 12.106058
56.810 11.927514
56.815 11.503004
56.820 11.121278
56.825 11.089366
56.830 11.501313
56.835 10.938582
56.840 10.462622
56.845 10.690618
56.850 10.604244
56.855 10.252012
56.860 10.252381
56.865 10.281072
56.870 10.638225
56.875 10.562649
56.880 10.735575
56.885 10.960466
56.890 11.327971
56.895 10.815304
56.900 10.200541
56.905 10.245831
56.910 10.890657
56.915 10.874968
56.920 10.827899
56.925 10.971008
56.930 10.98966
56.935 10.909294
56.940 10.893698
56.945 10.676949
56.950 10.591038
56.955 10.478521
56.960 10.315542
56.965 10.700007
56.970 10.688669
56.975 10.404186
56.980 9.946327
56.985 10.076916
56.990 10.149578
56.995 10.010889
57.000 9.887314
57.005 10.165881
57.010 10.159693
57.015 10.346207
57.020 10.72879
57.025 10.773184
57.030 10.928576
57.035 10.9586
57.040 10.657013
57.045 10.556404
57.050 10.673761
57.055 10.349435
57.060 10.753545
57.065 10.689996
57.070 10.735962
57.075 11.034371
57.080 11.748046
57.085 12.033576
57.090 12.421545
57.095 12.454365
57.100 12.748527
57.105 13.063304
57.110 12.704196
57.115 12.181367
57.120 12.115503
57.125 11.336537
57.130 11.04736
57.135 11.284699
57.140 11.250384
57.145 11.659528
57.150 11.32783
57.155 11.080049
57.160 11.242404
57.165 11.168434
57.170 10.784341
57.175 10.552985
57.180 10.234858
57.185 10.039827
57.190 9.876331
57.195 9.961954
57.200 10.235034
57.205 10.653872
57.210 10.679463
57.215 11.046317
57.220 11.044907
57.225 11.178466
57.230 11.347709
57.235 11.09485
57.240 10.550166
57.245 10.882965
57.250 10.654074
57.255 11.066238
57.260 11.160711
57.265 11.137815
57.270 11.312682
57.275 11.674067
57.280 11.716726
57.285 12.029264
57.290 11.785349
57.295 11.67767
57.300 11.412769
57.305 11.115188
57.310 11.426605
57.315 11.873865
57.320 12.3124
57.325 12.774889
57.330 12.625225
57.335 12.93044
57.340 13.096813
57.345 12.911938
57.350 12.360258
57.355 11.95551
57.360 11.969592
57.365 12.221464
57.370 12.205128
57.375 12.07956
57.380 11.789351
57.385 11.868705
57.390 12.187284
57.395 12.392745
57.400 12.743338
57.405 12.848314
57.410 12.612712
57.415 12.696989
57.420 12.323368
57.425 11.831575
57.430 10.933269
57.435 10.509212
57.440 10.026119
57.445 10.360575
57.450 10.549294
57.455 10.589872
57.460 10.464864
57.465 11.15132
57.470 11.431943
57.475 12.02078
57.480 11.845504
57.485 10.952161
57.490 10.921368
57.495 11.261477
57.500 11.32379
57.505 11.425205
57.510 11.153588
57.515 11.474871
57.520 12.12766
57.525 12.321304
57.530 12.255791
57.535 12.169496
57.540 11.775146
57.545 11.551521
57.550 11.491189
57.555 11.358324
57.560 11.301348
57.565 11.085938
57.570 10.831371
57.575 11.076871
57.580 11.408763
57.585 11.523562
57.590 11.772881
57.595 11.713774
57.600 11.733466
57.605 12.116538
57.610 12.244243
57.615 12.111672
57.620 12.420987
57.625 12.794941
57.630 12.76645
57.635 12.77779
57.640 12.236436
57.645 11.941951
57.650 11.691133
57.655 11.522127
57.660 11.663047
57.665 11.823025
57.670 11.639748
57.675 11.896031
57.680 11.836972
57.685 12.006014
57.690 11.454629
57.695 11.195331
57.700 11.441601
57.705 12.169146
57.710 12.378427
57.715 12.178164
57.720 12.157358
57.725 12.533587
57.730 12.456484
57.735 11.843338
57.740 10.874507
57.745 11.078204
57.750 11.782121
57.755 12.067204
57.760 11.624499
57.765 11.464855
57.770 11.987213
57.775 12.163116
57.780 11.923929
57.785 11.74736
57.790 11.367146
57.795 11.557628
57.800 11.221524
57.805 11.227521
57.810 11.427899
57.815 11.515065
57.820 11.314736
57.825 11.585447
57.830 11.917443
57.835 12.416843
57.840 12.653947
57.845 12.423904
57.850 12.526646
57.855 12.711745
57.860 12.64924
57.865 12.559415
57.870 12.170339
57.875 12.079021
57.880 12.333982
57.885 12.059004
57.890 11.873761
57.895 11.523963
57.900 11.574854
57.905 11.300306
57.910 11.093991
57.915 11.123368
57.920 11.288033
57.925 11.160007
57.930 11.402782
57.935 11.286588
57.940 11.372355
57.945 11.146018
57.950 10.746511
57.955 10.661786
57.960 10.727931
57.965 10.702953
57.970 10.837173
57.975 11.286968
57.980 11.406109
57.985 11.447216
57.990 11.341906
57.995 11.597075
58.000 11.450264
58.005 11.413932
58.010 11.872452
58.015 12.41726
58.020 12.700929
58.025 12.829003
58.030 12.804221
58.035 13.105231
58.040 13.294887
58.045 12.660216
58.050 12.239842
58.055 12.04642
58.060 11.966952
58.065 12.252757
58.070 12.068268
58.075 11.276114
58.080 11.746257
58.085 12.638491
58.090 13.110851
58.095 12.939996
58.100 12.326732
58.105 12.318707
58.110 12.474622
58.115 12.110862
58.120 11.886859
58.125 11.732383
58.130 11.471604
58.135 11.676963
58.140 11.721577
58.145 11.97664
58.150 11.94188
58.155 11.330904
58.160 11.581806
58.165 12.204831
58.170 12.420242
58.175 12.678939
58.180 12.860299
58.185 12.877186
58.190 13.173903
58.195 12.772053
58.200 12.23511
58.205 11.687203
58.210 11.359153
58.215 11.292978
58.220 11.427736
58.225 11.592389
58.230 11.583898
58.235 12.038922
58.240 12.675409
58.245 12.625816
58.250 12.669218
58.255 12.544431
58.260 12.521651
58.265 12.66564
58.270 12.416915
58.275 12.802071
58.280 12.923469
58.285 12.907593
58.290 12.534868
58.295 12.329822
58.300 12.433146
58.305 12.287664
58.310 11.350567
58.315 11.403384
58.320 10.744373
58.325 11.008875
58.330 11.159364
58.335 11.394136
58.340 11.391654
58.345 11.738301
58.350 12.103085
58.355 12.791222
58.360 12.786792
58.365 12.603786
58.370 12.512065
58.375 12.415439
58.380 12.471961
58.385 12.125227
58.390 11.732265
58.395 12.086053
58.400 12.366817
58.405 12.602508
58.410 12.699272
58.415 12.354853
58.420 12.581612
58.425 12.211696
58.430 11.770906
58.435 11.712742
58.440 11.430322
58.445 11.479941
58.450 11.882811
58.455 11.929036
58.460 12.471012
58.465 12.544593
58.470 12.638716
58.475 12.874096
58.480 13.157989
58.485 13.170293
58.490 13.43642
58.495 13.660361
58.500 14.180135
58.505 14.387995
58.510 14.388088
58.515 14.242484
58.520 14.251176
58.525 14.713944
58.530 15.01003
58.535 14.333209
58.540 13.961164
